##NAMES=Tremolite
##RRUFFID=R061087
##IDEAL CHEMISTRY=[box]Ca_2_Mg_5_Si_8_O_22_(OH)_2_
##LOCALITY=Turret, Chaffee County, Colorado, USA
##OWNER=RRUFF
##SOURCE=Michael Scott
##DESCRIPTION=White radiating tufts of acicular crystals
##STATUS=The identification of this mineral has been made only by X-ray diffraction.
##URL=rruff.info/R061087
8.813672e+001, 6.265914e+003
8.861884e+001, 6.341954e+003
8.910095e+001, 6.419530e+003
8.958307e+001, 6.528461e+003
9.006519e+001, 6.657099e+003
9.054730e+001, 6.772737e+003
9.102942e+001, 6.880245e+003
9.151154e+001, 6.973019e+003
9.199365e+001, 7.038229e+003
9.247577e+001, 7.081956e+003
9.295789e+001, 7.125068e+003
9.344000e+001, 7.185690e+003
9.392212e+001, 7.251573e+003
9.440424e+001, 7.305863e+003
9.488635e+001, 7.353473e+003
9.536847e+001, 7.399694e+003
9.585059e+001, 7.450557e+003
9.633270e+001, 7.505510e+003
9.681482e+001, 7.564090e+003
9.729694e+001, 7.623139e+003
9.777905e+001, 7.682858e+003
9.826117e+001, 7.752323e+003
9.874329e+001, 7.836630e+003
9.922540e+001, 7.932544e+003
9.970752e+001, 8.020909e+003
1.001896e+002, 8.099116e+003
1.006718e+002, 8.171768e+003
1.011539e+002, 8.242400e+003
1.016360e+002, 8.309598e+003
1.021181e+002, 8.382012e+003
1.026002e+002, 8.463405e+003
1.030823e+002, 8.555821e+003
1.035645e+002, 8.644126e+003
1.040466e+002, 8.727005e+003
1.045287e+002, 8.807938e+003
1.050108e+002, 8.896187e+003
1.054929e+002, 8.998018e+003
1.059750e+002, 9.098665e+003
1.064572e+002, 9.192598e+003
1.069393e+002, 9.280662e+003
1.074214e+002, 9.362835e+003
1.079035e+002, 9.437017e+003
1.083856e+002, 9.506419e+003
1.088677e+002, 9.578125e+003
1.093499e+002, 9.655462e+003
1.098320e+002, 9.734423e+003
1.103141e+002, 9.813251e+003
1.107962e+002, 9.894638e+003
1.112783e+002, 9.974875e+003
1.117604e+002, 1.005260e+004
1.122426e+002, 1.012928e+004
1.127247e+002, 1.020927e+004
1.132068e+002, 1.029159e+004
1.136889e+002, 1.037857e+004
1.141710e+002, 1.047092e+004
1.146531e+002, 1.057522e+004
1.151353e+002, 1.067835e+004
1.156174e+002, 1.077753e+004
1.160995e+002, 1.087214e+004
1.165816e+002, 1.096678e+004
1.170637e+002, 1.106389e+004
1.175458e+002, 1.116088e+004
1.180280e+002, 1.125625e+004
1.185101e+002, 1.134603e+004
1.189922e+002, 1.143525e+004
1.194743e+002, 1.152599e+004
1.199564e+002, 1.161884e+004
1.204385e+002, 1.171113e+004
1.209207e+002, 1.179841e+004
1.214028e+002, 1.188384e+004
1.218849e+002, 1.197275e+004
1.223670e+002, 1.208437e+004
1.228491e+002, 1.219430e+004
1.233312e+002, 1.227406e+004
1.238134e+002, 1.231696e+004
1.242955e+002, 1.234418e+004
1.247776e+002, 1.236917e+004
1.252597e+002, 1.239319e+004
1.257418e+002, 1.242037e+004
1.262239e+002, 1.244971e+004
1.267061e+002, 1.248483e+004
1.271882e+002, 1.253232e+004
1.276703e+002, 1.259590e+004
1.281524e+002, 1.266822e+004
1.286345e+002, 1.273884e+004
1.291166e+002, 1.280819e+004
1.295988e+002, 1.288105e+004
1.300809e+002, 1.296330e+004
1.305630e+002, 1.305266e+004
1.310451e+002, 1.313949e+004
1.315272e+002, 1.321914e+004
1.320093e+002, 1.329567e+004
1.324915e+002, 1.338208e+004
1.329736e+002, 1.347910e+004
1.334557e+002, 1.357567e+004
1.339378e+002, 1.365784e+004
1.344199e+002, 1.372586e+004
1.349020e+002, 1.379711e+004
1.353842e+002, 1.387721e+004
1.358663e+002, 1.396255e+004
1.363484e+002, 1.404256e+004
1.368305e+002, 1.411501e+004
1.373126e+002, 1.418676e+004
1.377947e+002, 1.426760e+004
1.382769e+002, 1.436152e+004
1.387590e+002, 1.444443e+004
1.392411e+002, 1.450857e+004
1.397232e+002, 1.455436e+004
1.402053e+002, 1.458869e+004
1.406874e+002, 1.460719e+004
1.411696e+002, 1.462138e+004
1.416517e+002, 1.464777e+004
1.421338e+002, 1.469369e+004
1.426159e+002, 1.473763e+004
1.430980e+002, 1.477549e+004
1.435801e+002, 1.480846e+004
1.440623e+002, 1.483077e+004
1.445444e+002, 1.483863e+004
1.450265e+002, 1.483913e+004
1.455086e+002, 1.484397e+004
1.459907e+002, 1.485754e+004
1.464728e+002, 1.487070e+004
1.469550e+002, 1.487998e+004
1.474371e+002, 1.488105e+004
1.479192e+002, 1.488880e+004
1.484013e+002, 1.490749e+004
1.488834e+002, 1.493234e+004
1.493655e+002, 1.495313e+004
1.498477e+002, 1.496285e+004
1.503298e+002, 1.497421e+004
1.508119e+002, 1.499197e+004
1.512940e+002, 1.502353e+004
1.517761e+002, 1.505036e+004
1.522583e+002, 1.506611e+004
1.527404e+002, 1.507560e+004
1.532225e+002, 1.509282e+004
1.537046e+002, 1.512523e+004
1.541867e+002, 1.516090e+004
1.546688e+002, 1.519445e+004
1.551510e+002, 1.522920e+004
1.556331e+002, 1.525772e+004
1.561152e+002, 1.527200e+004
1.565973e+002, 1.527700e+004
1.570794e+002, 1.529193e+004
1.575615e+002, 1.532347e+004
1.580437e+002, 1.536495e+004
1.585258e+002, 1.541249e+004
1.590079e+002, 1.547900e+004
1.594900e+002, 1.553724e+004
1.599721e+002, 1.558690e+004
1.604542e+002, 1.562532e+004
1.609364e+002, 1.563701e+004
1.614185e+002, 1.559679e+004
1.619006e+002, 1.553696e+004
1.623827e+002, 1.548350e+004
1.628648e+002, 1.544629e+004
1.633469e+002, 1.541489e+004
1.638291e+002, 1.538566e+004
1.643112e+002, 1.535874e+004
1.647933e+002, 1.533342e+004
1.652754e+002, 1.530395e+004
1.657575e+002, 1.527778e+004
1.662396e+002, 1.526277e+004
1.667218e+002, 1.526665e+004
1.672039e+002, 1.527879e+004
1.676860e+002, 1.529348e+004
1.681681e+002, 1.531054e+004
1.686502e+002, 1.533042e+004
1.691323e+002, 1.535739e+004
1.696145e+002, 1.538641e+004
1.700966e+002, 1.541046e+004
1.705787e+002, 1.541828e+004
1.710608e+002, 1.542508e+004
1.715429e+002, 1.544307e+004
1.720250e+002, 1.547294e+004
1.725072e+002, 1.551216e+004
1.729893e+002, 1.556530e+004
1.734714e+002, 1.562670e+004
1.739535e+002, 1.568585e+004
1.744356e+002, 1.573575e+004
1.749177e+002, 1.578187e+004
1.753999e+002, 1.583129e+004
1.758820e+002, 1.588482e+004
1.763641e+002, 1.593961e+004
1.768462e+002, 1.600445e+004
1.773283e+002, 1.607086e+004
1.778104e+002, 1.611736e+004
1.782926e+002, 1.613071e+004
1.787747e+002, 1.611781e+004
1.792568e+002, 1.608629e+004
1.797389e+002, 1.603527e+004
1.802210e+002, 1.597365e+004
1.807031e+002, 1.590505e+004
1.811853e+002, 1.583272e+004
1.816674e+002, 1.577101e+004
1.821495e+002, 1.573348e+004
1.826316e+002, 1.571177e+004
1.831137e+002, 1.568622e+004
1.835958e+002, 1.565435e+004
1.840780e+002, 1.562437e+004
1.845601e+002, 1.560803e+004
1.850422e+002, 1.560433e+004
1.855243e+002, 1.560322e+004
1.860064e+002, 1.560015e+004
1.864885e+002, 1.559594e+004
1.869707e+002, 1.559213e+004
1.874528e+002, 1.558809e+004
1.879349e+002, 1.558706e+004
1.884170e+002, 1.559485e+004
1.888991e+002, 1.561112e+004
1.893812e+002, 1.562986e+004
1.898634e+002, 1.565062e+004
1.903455e+002, 1.567208e+004
1.908276e+002, 1.568607e+004
1.913097e+002, 1.569029e+004
1.917918e+002, 1.569034e+004
1.922739e+002, 1.569564e+004
1.927561e+002, 1.570620e+004
1.932382e+002, 1.571890e+004
1.937203e+002, 1.573311e+004
1.942024e+002, 1.574842e+004
1.946845e+002, 1.576154e+004
1.951666e+002, 1.577164e+004
1.956488e+002, 1.578012e+004
1.961309e+002, 1.579022e+004
1.966130e+002, 1.580250e+004
1.970951e+002, 1.581340e+004
1.975772e+002, 1.581954e+004
1.980593e+002, 1.582089e+004
1.985415e+002, 1.582656e+004
1.990236e+002, 1.583753e+004
1.995057e+002, 1.585288e+004
1.999878e+002, 1.587147e+004
2.004699e+002, 1.589419e+004
2.009520e+002, 1.591591e+004
2.014342e+002, 1.593296e+004
2.019163e+002, 1.594504e+004
2.023984e+002, 1.595725e+004
2.028805e+002, 1.596988e+004
2.033626e+002, 1.598276e+004
2.038447e+002, 1.599435e+004
2.043269e+002, 1.600324e+004
2.048090e+002, 1.601574e+004
2.052911e+002, 1.603697e+004
2.057732e+002, 1.606886e+004
2.062553e+002, 1.609648e+004
2.067374e+002, 1.611685e+004
2.072196e+002, 1.613382e+004
2.077017e+002, 1.615844e+004
2.081838e+002, 1.619265e+004
2.086659e+002, 1.622944e+004
2.091480e+002, 1.626447e+004
2.096301e+002, 1.629743e+004
2.101123e+002, 1.633214e+004
2.105944e+002, 1.637047e+004
2.110765e+002, 1.641017e+004
2.115586e+002, 1.644374e+004
2.120407e+002, 1.646838e+004
2.125228e+002, 1.649343e+004
2.130050e+002, 1.652462e+004
2.134871e+002, 1.656411e+004
2.139692e+002, 1.660087e+004
2.144513e+002, 1.663337e+004
2.149334e+002, 1.666282e+004
2.154155e+002, 1.669360e+004
2.158977e+002, 1.672504e+004
2.163798e+002, 1.675877e+004
2.168619e+002, 1.679504e+004
2.173440e+002, 1.683296e+004
2.178261e+002, 1.687468e+004
2.183082e+002, 1.691821e+004
2.187904e+002, 1.696561e+004
2.192725e+002, 1.702531e+004
2.197546e+002, 1.710427e+004
2.202367e+002, 1.718200e+004
2.207188e+002, 1.724755e+004
2.212009e+002, 1.730019e+004
2.216831e+002, 1.734544e+004
2.221652e+002, 1.738638e+004
2.226473e+002, 1.741982e+004
2.231294e+002, 1.743578e+004
2.236115e+002, 1.743613e+004
2.240936e+002, 1.741719e+004
2.245758e+002, 1.737393e+004
2.250579e+002, 1.729432e+004
2.255400e+002, 1.722047e+004
2.260221e+002, 1.714957e+004
2.265042e+002, 1.708595e+004
2.269863e+002, 1.704491e+004
2.274685e+002, 1.703481e+004
2.279506e+002, 1.703357e+004
2.284327e+002, 1.703005e+004
2.289148e+002, 1.701641e+004
2.293969e+002, 1.701867e+004
2.298790e+002, 1.704067e+004
2.303612e+002, 1.707728e+004
2.308433e+002, 1.711692e+004
2.313254e+002, 1.716513e+004
2.318075e+002, 1.720813e+004
2.322896e+002, 1.724090e+004
2.327717e+002, 1.726514e+004
2.332539e+002, 1.727368e+004
2.337360e+002, 1.726207e+004
2.342181e+002, 1.723596e+004
2.347002e+002, 1.720680e+004
2.351823e+002, 1.717050e+004
2.356644e+002, 1.713726e+004
2.361466e+002, 1.711196e+004
2.366287e+002, 1.709886e+004
2.371108e+002, 1.708147e+004
2.375929e+002, 1.705761e+004
2.380750e+002, 1.703060e+004
2.385571e+002, 1.700742e+004
2.390393e+002, 1.698905e+004
2.395214e+002, 1.697328e+004
2.400035e+002, 1.695975e+004
2.404856e+002, 1.694913e+004
2.409677e+002, 1.693907e+004
2.414498e+002, 1.692903e+004
2.419320e+002, 1.692038e+004
2.424141e+002, 1.691479e+004
2.428962e+002, 1.691042e+004
2.433783e+002, 1.691283e+004
2.438604e+002, 1.692453e+004
2.443425e+002, 1.694723e+004
2.448247e+002, 1.697467e+004
2.453068e+002, 1.701231e+004
2.457889e+002, 1.705147e+004
2.462710e+002, 1.707753e+004
2.467531e+002, 1.708082e+004
2.472352e+002, 1.708740e+004
2.477174e+002, 1.710610e+004
2.481995e+002, 1.713942e+004
2.486816e+002, 1.717037e+004
2.491637e+002, 1.719785e+004
2.496458e+002, 1.722353e+004
2.501279e+002, 1.725100e+004
2.506101e+002, 1.728772e+004
2.510922e+002, 1.731199e+004
2.515743e+002, 1.731415e+004
2.520564e+002, 1.729028e+004
2.525385e+002, 1.727505e+004
2.530206e+002, 1.727309e+004
2.535028e+002, 1.727544e+004
2.539849e+002, 1.726963e+004
2.544670e+002, 1.724743e+004
2.549491e+002, 1.723493e+004
2.554312e+002, 1.724148e+004
2.559133e+002, 1.726849e+004
2.563955e+002, 1.728818e+004
2.568776e+002, 1.729754e+004
2.573597e+002, 1.730296e+004
2.578418e+002, 1.730999e+004
2.583239e+002, 1.731590e+004
2.588061e+002, 1.733029e+004
2.592882e+002, 1.735947e+004
2.597703e+002, 1.740306e+004
2.602524e+002, 1.743058e+004
2.607345e+002, 1.743542e+004
2.612166e+002, 1.743383e+004
2.616988e+002, 1.744052e+004
2.621809e+002, 1.745773e+004
2.626630e+002, 1.747704e+004
2.631451e+002, 1.749911e+004
2.636272e+002, 1.752305e+004
2.641093e+002, 1.753726e+004
2.645915e+002, 1.753836e+004
2.650736e+002, 1.753636e+004
2.655557e+002, 1.754103e+004
2.660378e+002, 1.755698e+004
2.665199e+002, 1.756246e+004
2.670020e+002, 1.754942e+004
2.674842e+002, 1.752355e+004
2.679663e+002, 1.751530e+004
2.684484e+002, 1.752884e+004
2.689305e+002, 1.755012e+004
2.694126e+002, 1.756938e+004
2.698947e+002, 1.758556e+004
2.703769e+002, 1.760567e+004
2.708590e+002, 1.763261e+004
2.713411e+002, 1.766292e+004
2.718232e+002, 1.768330e+004
2.723053e+002, 1.769047e+004
2.727874e+002, 1.769741e+004
2.732696e+002, 1.771186e+004
2.737517e+002, 1.773463e+004
2.742338e+002, 1.775964e+004
2.747159e+002, 1.778692e+004
2.751980e+002, 1.781611e+004
2.756801e+002, 1.784661e+004
2.761623e+002, 1.787933e+004
2.766444e+002, 1.790997e+004
2.771265e+002, 1.793648e+004
2.776086e+002, 1.795922e+004
2.780907e+002, 1.797854e+004
2.785728e+002, 1.799412e+004
2.790550e+002, 1.800731e+004
2.795371e+002, 1.802045e+004
2.800192e+002, 1.803368e+004
2.805013e+002, 1.804570e+004
2.809834e+002, 1.805501e+004
2.814655e+002, 1.806168e+004
2.819477e+002, 1.807166e+004
2.824298e+002, 1.808647e+004
2.829119e+002, 1.809979e+004
2.833940e+002, 1.809920e+004
2.838761e+002, 1.808404e+004
2.843582e+002, 1.807395e+004
2.848404e+002, 1.808006e+004
2.853225e+002, 1.809837e+004
2.858046e+002, 1.810455e+004
2.862867e+002, 1.809700e+004
2.867688e+002, 1.808405e+004
2.872509e+002, 1.807274e+004
2.877331e+002, 1.806334e+004
2.882152e+002, 1.805964e+004
2.886973e+002, 1.806641e+004
2.891794e+002, 1.807915e+004
2.896615e+002, 1.808225e+004
2.901436e+002, 1.807545e+004
2.906258e+002, 1.806536e+004
2.911079e+002, 1.805731e+004
2.915900e+002, 1.805130e+004
2.920721e+002, 1.804646e+004
2.925542e+002, 1.804299e+004
2.930363e+002, 1.804074e+004
2.935185e+002, 1.803749e+004
2.940006e+002, 1.803347e+004
2.944827e+002, 1.803459e+004
2.949648e+002, 1.804890e+004
2.954469e+002, 1.807239e+004
2.959290e+002, 1.809200e+004
2.964112e+002, 1.810444e+004
2.968933e+002, 1.811340e+004
2.973754e+002, 1.812395e+004
2.978575e+002, 1.813569e+004
2.983396e+002, 1.814742e+004
2.988217e+002, 1.815471e+004
2.993039e+002, 1.816162e+004
2.997860e+002, 1.817743e+004
3.002681e+002, 1.820512e+004
3.007502e+002, 1.823600e+004
3.012323e+002, 1.826053e+004
3.017144e+002, 1.827979e+004
3.021966e+002, 1.829646e+004
3.026787e+002, 1.831350e+004
3.031608e+002, 1.832852e+004
3.036429e+002, 1.833790e+004
3.041250e+002, 1.834083e+004
3.046071e+002, 1.834152e+004
3.050893e+002, 1.834352e+004
3.055714e+002, 1.834609e+004
3.060535e+002, 1.834764e+004
3.065356e+002, 1.834547e+004
3.070177e+002, 1.834314e+004
3.074998e+002, 1.834560e+004
3.079820e+002, 1.835304e+004
3.084641e+002, 1.835860e+004
3.089462e+002, 1.835351e+004
3.094283e+002, 1.834467e+004
3.099104e+002, 1.834156e+004
3.103925e+002, 1.835469e+004
3.108747e+002, 1.836956e+004
3.113568e+002, 1.837484e+004
3.118389e+002, 1.837197e+004
3.123210e+002, 1.837079e+004
3.128031e+002, 1.837476e+004
3.132852e+002, 1.838400e+004
3.137674e+002, 1.839932e+004
3.142495e+002, 1.842704e+004
3.147316e+002, 1.845260e+004
3.152137e+002, 1.846546e+004
3.156958e+002, 1.846922e+004
3.161779e+002, 1.847614e+004
3.166601e+002, 1.849564e+004
3.171422e+002, 1.851696e+004
3.176243e+002, 1.853178e+004
3.181064e+002, 1.853303e+004
3.185885e+002, 1.853865e+004
3.190706e+002, 1.855844e+004
3.195528e+002, 1.858627e+004
3.200349e+002, 1.861040e+004
3.205170e+002, 1.862537e+004
3.209991e+002, 1.863751e+004
3.214812e+002, 1.864876e+004
3.219633e+002, 1.865856e+004
3.224455e+002, 1.867043e+004
3.229276e+002, 1.868540e+004
3.234097e+002, 1.870282e+004
3.238918e+002, 1.872193e+004
3.243739e+002, 1.875195e+004
3.248560e+002, 1.877474e+004
3.253382e+002, 1.878306e+004
3.258203e+002, 1.877510e+004
3.263024e+002, 1.877062e+004
3.267845e+002, 1.876627e+004
3.272666e+002, 1.876872e+004
3.277487e+002, 1.878358e+004
3.282309e+002, 1.883053e+004
3.287130e+002, 1.886654e+004
3.291951e+002, 1.888318e+004
3.296772e+002, 1.888262e+004
3.301593e+002, 1.888666e+004
3.306414e+002, 1.889594e+004
3.311236e+002, 1.890892e+004
3.316057e+002, 1.892494e+004
3.320878e+002, 1.894555e+004
3.325699e+002, 1.896602e+004
3.330520e+002, 1.898623e+004
3.335341e+002, 1.900571e+004
3.340163e+002, 1.902324e+004
3.344984e+002, 1.903862e+004
3.349805e+002, 1.905172e+004
3.354626e+002, 1.906169e+004
3.359447e+002, 1.906675e+004
3.364268e+002, 1.907651e+004
3.369090e+002, 1.909357e+004
3.373911e+002, 1.911313e+004
3.378732e+002, 1.912590e+004
3.383553e+002, 1.912881e+004
3.388374e+002, 1.913659e+004
3.393195e+002, 1.915629e+004
3.398017e+002, 1.918731e+004
3.402838e+002, 1.921272e+004
3.407659e+002, 1.923282e+004
3.412480e+002, 1.924731e+004
3.417301e+002, 1.925294e+004
3.422122e+002, 1.924869e+004
3.426944e+002, 1.925062e+004
3.431765e+002, 1.926270e+004
3.436586e+002, 1.928315e+004
3.441407e+002, 1.930798e+004
3.446228e+002, 1.933756e+004
3.451049e+002, 1.936489e+004
3.455871e+002, 1.938225e+004
3.460692e+002, 1.939138e+004
3.465513e+002, 1.940322e+004
3.470334e+002, 1.941999e+004
3.475155e+002, 1.943843e+004
3.479977e+002, 1.945226e+004
3.484798e+002, 1.946208e+004
3.489619e+002, 1.947220e+004
3.494440e+002, 1.948599e+004
3.499261e+002, 1.950182e+004
3.504082e+002, 1.951600e+004
3.508904e+002, 1.952828e+004
3.513725e+002, 1.953948e+004
3.518546e+002, 1.955164e+004
3.523367e+002, 1.956364e+004
3.528188e+002, 1.957267e+004
3.533009e+002, 1.957863e+004
3.537831e+002, 1.958035e+004
3.542652e+002, 1.957279e+004
3.547473e+002, 1.955656e+004
3.552294e+002, 1.954431e+004
3.557115e+002, 1.954725e+004
3.561936e+002, 1.955914e+004
3.566758e+002, 1.957210e+004
3.571579e+002, 1.958583e+004
3.576400e+002, 1.959771e+004
3.581221e+002, 1.960403e+004
3.586042e+002, 1.960646e+004
3.590863e+002, 1.961106e+004
3.595685e+002, 1.961992e+004
3.600506e+002, 1.963288e+004
3.605327e+002, 1.965089e+004
3.610148e+002, 1.967660e+004
3.614969e+002, 1.970094e+004
3.619790e+002, 1.971744e+004
3.624612e+002, 1.973047e+004
3.629433e+002, 1.974770e+004
3.634254e+002, 1.977182e+004
3.639075e+002, 1.980000e+004
3.643896e+002, 1.983252e+004
3.648717e+002, 1.987008e+004
3.653539e+002, 1.990491e+004
3.658360e+002, 1.993412e+004
3.663181e+002, 1.996012e+004
3.668002e+002, 1.998583e+004
3.672823e+002, 2.000884e+004
3.677644e+002, 2.003422e+004
3.682466e+002, 2.006694e+004
3.687287e+002, 2.010548e+004
3.692108e+002, 2.013245e+004
3.696929e+002, 2.014473e+004
3.701750e+002, 2.014848e+004
3.706571e+002, 2.014633e+004
3.711393e+002, 2.013416e+004
3.716214e+002, 2.012370e+004
3.721035e+002, 2.011592e+004
3.725856e+002, 2.010978e+004
3.730677e+002, 2.010231e+004
3.735498e+002, 2.009103e+004
3.740320e+002, 2.008347e+004
3.745141e+002, 2.008384e+004
3.749962e+002, 2.009349e+004
3.754783e+002, 2.009948e+004
3.759604e+002, 2.010181e+004
3.764425e+002, 2.010048e+004
3.769247e+002, 2.009354e+004
3.774068e+002, 2.007943e+004
3.778889e+002, 2.006999e+004
3.783710e+002, 2.007023e+004
3.788531e+002, 2.007696e+004
3.793352e+002, 2.007398e+004
3.798174e+002, 2.005933e+004
3.802995e+002, 2.004836e+004
3.807816e+002, 2.005731e+004
3.812637e+002, 2.008346e+004
3.817458e+002, 2.010225e+004
3.822279e+002, 2.010858e+004
3.827101e+002, 2.011046e+004
3.831922e+002, 2.012198e+004
3.836743e+002, 2.014196e+004
3.841564e+002, 2.016132e+004
3.846385e+002, 2.017352e+004
3.851206e+002, 2.018221e+004
3.856028e+002, 2.019387e+004
3.860849e+002, 2.020866e+004
3.865670e+002, 2.022819e+004
3.870491e+002, 2.025578e+004
3.875312e+002, 2.028920e+004
3.880133e+002, 2.032430e+004
3.884955e+002, 2.035971e+004
3.889776e+002, 2.039589e+004
3.894597e+002, 2.043234e+004
3.899418e+002, 2.046923e+004
3.904239e+002, 2.050785e+004
3.909060e+002, 2.055509e+004
3.913882e+002, 2.060128e+004
3.918703e+002, 2.063591e+004
3.923524e+002, 2.065103e+004
3.928345e+002, 2.066758e+004
3.933166e+002, 2.070277e+004
3.937987e+002, 2.074636e+004
3.942809e+002, 2.077725e+004
3.947630e+002, 2.078649e+004
3.952451e+002, 2.078363e+004
3.957272e+002, 2.077113e+004
3.962093e+002, 2.074824e+004
3.966914e+002, 2.072160e+004
3.971736e+002, 2.068888e+004
3.976557e+002, 2.065443e+004
3.981378e+002, 2.062209e+004
3.986199e+002, 2.058809e+004
3.991020e+002, 2.056109e+004
3.995841e+002, 2.054224e+004
4.000663e+002, 2.053113e+004
4.005484e+002, 2.052611e+004
4.010305e+002, 2.053187e+004
4.015126e+002, 2.053872e+004
4.019947e+002, 2.054219e+004
4.024768e+002, 2.054186e+004
4.029590e+002, 2.053961e+004
4.034411e+002, 2.053439e+004
4.039232e+002, 2.052858e+004
4.044053e+002, 2.052575e+004
4.048874e+002, 2.052588e+004
4.053695e+002, 2.053050e+004
4.058517e+002, 2.054156e+004
4.063338e+002, 2.055864e+004
4.068159e+002, 2.057346e+004
4.072980e+002, 2.058493e+004
4.077801e+002, 2.059840e+004
4.082622e+002, 2.062061e+004
4.087444e+002, 2.065107e+004
4.092265e+002, 2.067825e+004
4.097086e+002, 2.069903e+004
4.101907e+002, 2.071620e+004
4.106728e+002, 2.073300e+004
4.111549e+002, 2.074980e+004
4.116371e+002, 2.077281e+004
4.121192e+002, 2.081338e+004
4.126013e+002, 2.086137e+004
4.130834e+002, 2.089246e+004
4.135655e+002, 2.090296e+004
4.140476e+002, 2.090801e+004
4.145298e+002, 2.092454e+004
4.150119e+002, 2.094627e+004
4.154940e+002, 2.096100e+004
4.159761e+002, 2.095905e+004
4.164582e+002, 2.095161e+004
4.169403e+002, 2.094898e+004
4.174225e+002, 2.095021e+004
4.179046e+002, 2.094869e+004
4.183867e+002, 2.093908e+004
4.188688e+002, 2.092634e+004
4.193509e+002, 2.091438e+004
4.198330e+002, 2.090318e+004
4.203152e+002, 2.089486e+004
4.207973e+002, 2.089250e+004
4.212794e+002, 2.089348e+004
4.217615e+002, 2.089289e+004
4.222436e+002, 2.088360e+004
4.227257e+002, 2.087843e+004
4.232079e+002, 2.088400e+004
4.236900e+002, 2.090247e+004
4.241721e+002, 2.091680e+004
4.246542e+002, 2.092045e+004
4.251363e+002, 2.092273e+004
4.256184e+002, 2.093067e+004
4.261006e+002, 2.094922e+004
4.265827e+002, 2.096489e+004
4.270648e+002, 2.097425e+004
4.275469e+002, 2.097971e+004
4.280290e+002, 2.098997e+004
4.285111e+002, 2.100591e+004
4.289933e+002, 2.102391e+004
4.294754e+002, 2.104279e+004
4.299575e+002, 2.106287e+004
4.304396e+002, 2.107932e+004
4.309217e+002, 2.109104e+004
4.314038e+002, 2.110095e+004
4.318860e+002, 2.111302e+004
4.323681e+002, 2.112743e+004
4.328502e+002, 2.113989e+004
4.333323e+002, 2.114797e+004
4.338144e+002, 2.115470e+004
4.342965e+002, 2.117227e+004
4.347787e+002, 2.120071e+004
4.352608e+002, 2.122222e+004
4.357429e+002, 2.121944e+004
4.362250e+002, 2.120084e+004
4.367071e+002, 2.118630e+004
4.371892e+002, 2.117831e+004
4.376714e+002, 2.117531e+004
4.381535e+002, 2.117565e+004
4.386356e+002, 2.117979e+004
4.391177e+002, 2.118860e+004
4.395998e+002, 2.121016e+004
4.400819e+002, 2.123086e+004
4.405641e+002, 2.123506e+004
4.410462e+002, 2.122426e+004
4.415283e+002, 2.121762e+004
4.420104e+002, 2.122902e+004
4.424925e+002, 2.124673e+004
4.429746e+002, 2.126058e+004
4.434568e+002, 2.126579e+004
4.439389e+002, 2.127134e+004
4.444210e+002, 2.127969e+004
4.449031e+002, 2.129012e+004
4.453852e+002, 2.130142e+004
4.458673e+002, 2.130907e+004
4.463495e+002, 2.132169e+004
4.468316e+002, 2.134712e+004
4.473137e+002, 2.138981e+004
4.477958e+002, 2.141413e+004
4.482779e+002, 2.140630e+004
4.487600e+002, 2.139200e+004
4.492422e+002, 2.138987e+004
4.497243e+002, 2.140381e+004
4.502064e+002, 2.142363e+004
4.506885e+002, 2.145400e+004
4.511706e+002, 2.148767e+004
4.516527e+002, 2.150034e+004
4.521349e+002, 2.148444e+004
4.526170e+002, 2.147440e+004
4.530991e+002, 2.148934e+004
4.535812e+002, 2.152797e+004
4.540633e+002, 2.155344e+004
4.545454e+002, 2.156440e+004
4.550276e+002, 2.156929e+004
4.555097e+002, 2.157426e+004
4.559918e+002, 2.157996e+004
4.564739e+002, 2.159051e+004
4.569560e+002, 2.160782e+004
4.574381e+002, 2.162914e+004
4.579203e+002, 2.165393e+004
4.584024e+002, 2.168034e+004
4.588845e+002, 2.170035e+004
4.593666e+002, 2.170400e+004
4.598488e+002, 2.170078e+004
4.603309e+002, 2.170184e+004
4.608130e+002, 2.170834e+004
4.612951e+002, 2.171704e+004
4.617772e+002, 2.172471e+004
4.622593e+002, 2.173366e+004
4.627415e+002, 2.174652e+004
4.632236e+002, 2.177330e+004
4.637057e+002, 2.179503e+004
4.641878e+002, 2.180024e+004
4.646699e+002, 2.179344e+004
4.651520e+002, 2.179050e+004
4.656342e+002, 2.179796e+004
4.661163e+002, 2.180843e+004
4.665984e+002, 2.181852e+004
4.670805e+002, 2.182630e+004
4.675626e+002, 2.183911e+004
4.680447e+002, 2.186437e+004
4.685269e+002, 2.189024e+004
4.690090e+002, 2.190374e+004
4.694911e+002, 2.189439e+004
4.699732e+002, 2.189241e+004
4.704553e+002, 2.190333e+004
4.709374e+002, 2.192463e+004
4.714196e+002, 2.194686e+004
4.719017e+002, 2.197032e+004
4.723838e+002, 2.199242e+004
4.728659e+002, 2.201104e+004
4.733480e+002, 2.202603e+004
4.738301e+002, 2.204177e+004
4.743123e+002, 2.205874e+004
4.747944e+002, 2.207428e+004
4.752765e+002, 2.208463e+004
4.757586e+002, 2.209039e+004
4.762407e+002, 2.209452e+004
4.767228e+002, 2.209532e+004
4.772050e+002, 2.209798e+004
4.776871e+002, 2.211589e+004
4.781692e+002, 2.214541e+004
4.786513e+002, 2.216769e+004
4.791334e+002, 2.216262e+004
4.796155e+002, 2.214898e+004
4.800977e+002, 2.214750e+004
4.805798e+002, 2.216186e+004
4.810619e+002, 2.218009e+004
4.815440e+002, 2.219732e+004
4.820261e+002, 2.221373e+004
4.825082e+002, 2.222969e+004
4.829904e+002, 2.224488e+004
4.834725e+002, 2.226015e+004
4.839546e+002, 2.227643e+004
4.844367e+002, 2.229319e+004
4.849188e+002, 2.230800e+004
4.854009e+002, 2.231324e+004
4.858831e+002, 2.232258e+004
4.863652e+002, 2.234303e+004
4.868473e+002, 2.237952e+004
4.873294e+002, 2.240662e+004
4.878115e+002, 2.241930e+004
4.882936e+002, 2.242649e+004
4.887758e+002, 2.243739e+004
4.892579e+002, 2.245275e+004
4.897400e+002, 2.246902e+004
4.902221e+002, 2.248688e+004
4.907042e+002, 2.250431e+004
4.911863e+002, 2.251356e+004
4.916685e+002, 2.251398e+004
4.921506e+002, 2.251431e+004
4.926327e+002, 2.252157e+004
4.931148e+002, 2.253369e+004
4.935969e+002, 2.253769e+004
4.940790e+002, 2.253285e+004
4.945612e+002, 2.252994e+004
4.950433e+002, 2.254233e+004
4.955254e+002, 2.256478e+004
4.960075e+002, 2.258560e+004
4.964896e+002, 2.260029e+004
4.969717e+002, 2.261454e+004
4.974539e+002, 2.263612e+004
4.979360e+002, 2.266166e+004
4.984181e+002, 2.268134e+004
4.989002e+002, 2.267990e+004
4.993823e+002, 2.267927e+004
4.998644e+002, 2.269503e+004
5.003466e+002, 2.272930e+004
5.008287e+002, 2.276146e+004
5.013108e+002, 2.278429e+004
5.017929e+002, 2.280234e+004
5.022750e+002, 2.281893e+004
5.027571e+002, 2.283590e+004
5.032393e+002, 2.284868e+004
5.037214e+002, 2.285018e+004
5.042035e+002, 2.284853e+004
5.046856e+002, 2.286332e+004
5.051677e+002, 2.290804e+004
5.056498e+002, 2.294387e+004
5.061320e+002, 2.295563e+004
5.066141e+002, 2.294493e+004
5.070962e+002, 2.294802e+004
5.075783e+002, 2.296714e+004
5.080604e+002, 2.299391e+004
5.085425e+002, 2.302889e+004
5.090247e+002, 2.307029e+004
5.095068e+002, 2.308719e+004
5.099889e+002, 2.307019e+004
5.104710e+002, 2.304667e+004
5.109531e+002, 2.305939e+004
5.114352e+002, 2.309973e+004
5.119174e+002, 2.313579e+004
5.123995e+002, 2.314864e+004
5.128816e+002, 2.315348e+004
5.133637e+002, 2.316807e+004
5.138458e+002, 2.319083e+004
5.143279e+002, 2.321320e+004
5.148101e+002, 2.322818e+004
5.152922e+002, 2.324127e+004
5.157743e+002, 2.325775e+004
5.162564e+002, 2.328011e+004
5.167385e+002, 2.329845e+004
5.172206e+002, 2.330280e+004
5.177028e+002, 2.330339e+004
5.181849e+002, 2.331186e+004
5.186670e+002, 2.334180e+004
5.191491e+002, 2.336616e+004
5.196312e+002, 2.337850e+004
5.201133e+002, 2.338206e+004
5.205955e+002, 2.339118e+004
5.210776e+002, 2.341195e+004
5.215597e+002, 2.342910e+004
5.220418e+002, 2.343465e+004
5.225239e+002, 2.342734e+004
5.230060e+002, 2.342743e+004
5.234882e+002, 2.343614e+004
5.239703e+002, 2.345001e+004
5.244524e+002, 2.346578e+004
5.249345e+002, 2.348350e+004
5.254166e+002, 2.350418e+004
5.258987e+002, 2.352907e+004
5.263809e+002, 2.355476e+004
5.268630e+002, 2.357514e+004
5.273451e+002, 2.359135e+004
5.278272e+002, 2.360845e+004
5.283093e+002, 2.363067e+004
5.287914e+002, 2.365358e+004
5.292736e+002, 2.367107e+004
5.297557e+002, 2.368331e+004
5.302378e+002, 2.369655e+004
5.307199e+002, 2.371690e+004
5.312020e+002, 2.373809e+004
5.316841e+002, 2.375577e+004
5.321663e+002, 2.377262e+004
5.326484e+002, 2.377839e+004
5.331305e+002, 2.376020e+004
5.336126e+002, 2.373286e+004
5.340947e+002, 2.371737e+004
5.345768e+002, 2.372869e+004
5.350590e+002, 2.373637e+004
5.355411e+002, 2.373269e+004
5.360232e+002, 2.372108e+004
5.365053e+002, 2.372240e+004
5.369874e+002, 2.374292e+004
5.374695e+002, 2.376355e+004
5.379517e+002, 2.377392e+004
5.384338e+002, 2.377371e+004
5.389159e+002, 2.377483e+004
5.393980e+002, 2.377727e+004
5.398801e+002, 2.378100e+004
5.403622e+002, 2.378551e+004
5.408444e+002, 2.379093e+004
5.413265e+002, 2.379782e+004
5.418086e+002, 2.380496e+004
5.422907e+002, 2.381592e+004
5.427728e+002, 2.384114e+004
5.432549e+002, 2.387474e+004
5.437371e+002, 2.389953e+004
5.442192e+002, 2.389705e+004
5.447013e+002, 2.388953e+004
5.451834e+002, 2.389301e+004
5.456655e+002, 2.390773e+004
5.461476e+002, 2.392717e+004
5.466298e+002, 2.395682e+004
5.471119e+002, 2.398509e+004
5.475940e+002, 2.400385e+004
5.480761e+002, 2.400729e+004
5.485582e+002, 2.401170e+004
5.490403e+002, 2.401966e+004
5.495225e+002, 2.402893e+004
5.500046e+002, 2.403612e+004
5.504867e+002, 2.403766e+004
5.509688e+002, 2.404435e+004
5.514509e+002, 2.405843e+004
5.519330e+002, 2.407868e+004
5.524152e+002, 2.410256e+004
5.528973e+002, 2.413138e+004
5.533794e+002, 2.415502e+004
5.538615e+002, 2.416384e+004
5.543436e+002, 2.416146e+004
5.548257e+002, 2.417019e+004
5.553079e+002, 2.419043e+004
5.557900e+002, 2.421121e+004
5.562721e+002, 2.422105e+004
5.567542e+002, 2.422461e+004
5.572363e+002, 2.423017e+004
5.577184e+002, 2.423952e+004
5.582006e+002, 2.425144e+004
5.586827e+002, 2.426781e+004
5.591648e+002, 2.428582e+004
5.596469e+002, 2.430097e+004
5.601290e+002, 2.431392e+004
5.606111e+002, 2.432157e+004
5.610933e+002, 2.431729e+004
5.615754e+002, 2.430413e+004
5.620575e+002, 2.430133e+004
5.625396e+002, 2.431655e+004
5.630217e+002, 2.433835e+004
5.635038e+002, 2.436581e+004
5.639860e+002, 2.440393e+004
5.644681e+002, 2.442181e+004
5.649502e+002, 2.440971e+004
5.654323e+002, 2.439227e+004
5.659144e+002, 2.439557e+004
5.663965e+002, 2.442178e+004
5.668787e+002, 2.444224e+004
5.673608e+002, 2.445134e+004
5.678429e+002, 2.445637e+004
5.683250e+002, 2.446900e+004
5.688071e+002, 2.448861e+004
5.692892e+002, 2.451146e+004
5.697714e+002, 2.453990e+004
5.702535e+002, 2.456794e+004
5.707356e+002, 2.458612e+004
5.712177e+002, 2.459564e+004
5.716998e+002, 2.460229e+004
5.721819e+002, 2.460534e+004
5.726641e+002, 2.460968e+004
5.731462e+002, 2.461923e+004
5.736283e+002, 2.463486e+004
5.741104e+002, 2.465240e+004
5.745925e+002, 2.467178e+004
5.750746e+002, 2.469154e+004
5.755568e+002, 2.471080e+004
5.760389e+002, 2.473078e+004
5.765210e+002, 2.474737e+004
5.770031e+002, 2.475824e+004
5.774852e+002, 2.476676e+004
5.779673e+002, 2.478161e+004
5.784495e+002, 2.480739e+004
5.789316e+002, 2.482568e+004
5.794137e+002, 2.482807e+004
5.798958e+002, 2.481942e+004
5.803779e+002, 2.481959e+004
5.808600e+002, 2.482895e+004
5.813422e+002, 2.484382e+004
5.818243e+002, 2.486629e+004
5.823064e+002, 2.489191e+004
5.827885e+002, 2.490765e+004
5.832706e+002, 2.491187e+004
5.837527e+002, 2.491727e+004
5.842349e+002, 2.493806e+004
5.847170e+002, 2.496443e+004
5.851991e+002, 2.498380e+004
5.856812e+002, 2.498997e+004
5.861633e+002, 2.499340e+004
5.866454e+002, 2.499617e+004
5.871276e+002, 2.499920e+004
5.876097e+002, 2.500431e+004
5.880918e+002, 2.501487e+004
5.885739e+002, 2.502375e+004
5.890560e+002, 2.502718e+004
5.895381e+002, 2.502667e+004
5.900203e+002, 2.503397e+004
5.905024e+002, 2.505196e+004
5.909845e+002, 2.507272e+004
5.914666e+002, 2.509471e+004
5.919487e+002, 2.511845e+004
5.924308e+002, 2.513376e+004
5.929130e+002, 2.514112e+004
5.933951e+002, 2.513982e+004
5.938772e+002, 2.511915e+004
5.943593e+002, 2.508841e+004
5.948414e+002, 2.507972e+004
5.953235e+002, 2.510204e+004
5.958057e+002, 2.513698e+004
5.962878e+002, 2.517363e+004
5.967699e+002, 2.520864e+004
5.972520e+002, 2.523526e+004
5.977341e+002, 2.524204e+004
5.982162e+002, 2.524822e+004
5.986984e+002, 2.526515e+004
5.991805e+002, 2.528927e+004
5.996626e+002, 2.530880e+004
6.001447e+002, 2.531683e+004
6.006268e+002, 2.532324e+004
6.011089e+002, 2.533099e+004
6.015911e+002, 2.533999e+004
6.020732e+002, 2.535089e+004
6.025553e+002, 2.536546e+004
6.030374e+002, 2.537910e+004
6.035195e+002, 2.538700e+004
6.040016e+002, 2.538833e+004
6.044838e+002, 2.539720e+004
6.049659e+002, 2.541660e+004
6.054480e+002, 2.543641e+004
6.059301e+002, 2.543610e+004
6.064122e+002, 2.542314e+004
6.068943e+002, 2.543045e+004
6.073765e+002, 2.547740e+004
6.078586e+002, 2.552999e+004
6.083407e+002, 2.554555e+004
6.088228e+002, 2.553646e+004
6.093049e+002, 2.553269e+004
6.097870e+002, 2.555605e+004
6.102692e+002, 2.558112e+004
6.107513e+002, 2.559207e+004
6.112334e+002, 2.558993e+004
6.117155e+002, 2.559201e+004
6.121976e+002, 2.560580e+004
6.126797e+002, 2.562117e+004
6.131619e+002, 2.563305e+004
6.136440e+002, 2.564000e+004
6.141261e+002, 2.565238e+004
6.146082e+002, 2.567529e+004
6.150903e+002, 2.569614e+004
6.155724e+002, 2.569964e+004
6.160546e+002, 2.568478e+004
6.165367e+002, 2.568279e+004
6.170188e+002, 2.569954e+004
6.175009e+002, 2.572455e+004
6.179830e+002, 2.574398e+004
6.184651e+002, 2.575889e+004
6.189473e+002, 2.577277e+004
6.194294e+002, 2.578473e+004
6.199115e+002, 2.579829e+004
6.203936e+002, 2.582257e+004
6.208757e+002, 2.585206e+004
6.213578e+002, 2.587091e+004
6.218400e+002, 2.585596e+004
6.223221e+002, 2.584283e+004
6.228042e+002, 2.585368e+004
6.232863e+002, 2.588985e+004
6.237684e+002, 2.591714e+004
6.242505e+002, 2.592766e+004
6.247327e+002, 2.593325e+004
6.252148e+002, 2.593856e+004
6.256969e+002, 2.594251e+004
6.261790e+002, 2.595125e+004
6.266611e+002, 2.596530e+004
6.271432e+002, 2.598315e+004
6.276254e+002, 2.600500e+004
6.281075e+002, 2.603040e+004
6.285896e+002, 2.605255e+004
6.290717e+002, 2.607027e+004
6.295538e+002, 2.608348e+004
6.300359e+002, 2.608593e+004
6.305181e+002, 2.608325e+004
6.310002e+002, 2.609019e+004
6.314823e+002, 2.612289e+004
6.319644e+002, 2.615689e+004
6.324465e+002, 2.617189e+004
6.329286e+002, 2.617342e+004
6.334108e+002, 2.617874e+004
6.338929e+002, 2.619559e+004
6.343750e+002, 2.621546e+004
6.348571e+002, 2.623780e+004
6.353392e+002, 2.626302e+004
6.358214e+002, 2.627836e+004
6.363035e+002, 2.627781e+004
6.367856e+002, 2.627667e+004
6.372677e+002, 2.628522e+004
6.377498e+002, 2.630589e+004
6.382319e+002, 2.631859e+004
6.387141e+002, 2.632189e+004
6.391962e+002, 2.632446e+004
6.396783e+002, 2.633484e+004
6.401604e+002, 2.635235e+004
6.406425e+002, 2.637478e+004
6.411246e+002, 2.640367e+004
6.416068e+002, 2.643193e+004
6.420889e+002, 2.644872e+004
6.425710e+002, 2.646058e+004
6.430531e+002, 2.647836e+004
6.435352e+002, 2.651070e+004
6.440173e+002, 2.654492e+004
6.444995e+002, 2.657723e+004
6.449816e+002, 2.660727e+004
6.454637e+002, 2.663544e+004
6.459458e+002, 2.665565e+004
6.464279e+002, 2.668002e+004
6.469100e+002, 2.671335e+004
6.473922e+002, 2.675466e+004
6.478743e+002, 2.678727e+004
6.483564e+002, 2.680829e+004
6.488385e+002, 2.682972e+004
6.493206e+002, 2.685954e+004
6.498027e+002, 2.689687e+004
6.502849e+002, 2.693101e+004
6.507670e+002, 2.696179e+004
6.512491e+002, 2.699061e+004
6.517312e+002, 2.702053e+004
6.522133e+002, 2.704832e+004
6.526954e+002, 2.706748e+004
6.531776e+002, 2.707459e+004
6.536597e+002, 2.708253e+004
6.541418e+002, 2.709599e+004
6.546239e+002, 2.711623e+004
6.551060e+002, 2.714471e+004
6.555881e+002, 2.719674e+004
6.560703e+002, 2.723882e+004
6.565524e+002, 2.725973e+004
6.570345e+002, 2.726949e+004
6.575166e+002, 2.728362e+004
6.579987e+002, 2.729913e+004
6.584808e+002, 2.732717e+004
6.589630e+002, 2.737393e+004
6.594451e+002, 2.743361e+004
6.599272e+002, 2.748593e+004
6.604093e+002, 2.753090e+004
6.608914e+002, 2.757915e+004
6.613735e+002, 2.763811e+004
6.618557e+002, 2.770362e+004
6.623378e+002, 2.777031e+004
6.628199e+002, 2.783808e+004
6.633020e+002, 2.790533e+004
6.637841e+002, 2.796300e+004
6.642662e+002, 2.802552e+004
6.647484e+002, 2.810613e+004
6.652305e+002, 2.820760e+004
6.657126e+002, 2.831416e+004
6.661947e+002, 2.842050e+004
6.666768e+002, 2.853166e+004
6.671589e+002, 2.865218e+004
6.676411e+002, 2.879213e+004
6.681232e+002, 2.891779e+004
6.686053e+002, 2.902456e+004
6.690874e+002, 2.912293e+004
6.695695e+002, 2.922518e+004
6.700516e+002, 2.933142e+004
6.705338e+002, 2.944341e+004
6.710159e+002, 2.956658e+004
6.714980e+002, 2.968363e+004
6.719801e+002, 2.977393e+004
6.724622e+002, 2.983697e+004
6.729443e+002, 2.986888e+004
6.734265e+002, 2.986475e+004
6.739086e+002, 2.983327e+004
6.743907e+002, 2.977980e+004
6.748728e+002, 2.970379e+004
6.753549e+002, 2.960460e+004
6.758370e+002, 2.946132e+004
6.763192e+002, 2.931427e+004
6.768013e+002, 2.917944e+004
6.772834e+002, 2.905526e+004
6.777655e+002, 2.893193e+004
6.782476e+002, 2.880671e+004
6.787297e+002, 2.869026e+004
6.792119e+002, 2.859052e+004
6.796940e+002, 2.850636e+004
6.801761e+002, 2.842339e+004
6.806582e+002, 2.834084e+004
6.811403e+002, 2.827043e+004
6.816224e+002, 2.822780e+004
6.821046e+002, 2.820239e+004
6.825867e+002, 2.817396e+004
6.830688e+002, 2.813843e+004
6.835509e+002, 2.810986e+004
6.840330e+002, 2.810037e+004
6.845151e+002, 2.810112e+004
6.849973e+002, 2.810315e+004
6.854794e+002, 2.810631e+004
6.859615e+002, 2.810778e+004
6.864436e+002, 2.810160e+004
6.869257e+002, 2.809632e+004
6.874078e+002, 2.810366e+004
6.878900e+002, 2.813142e+004
6.883721e+002, 2.815127e+004
6.888542e+002, 2.815710e+004
6.893363e+002, 2.815574e+004
6.898184e+002, 2.816271e+004
6.903005e+002, 2.817697e+004
6.907827e+002, 2.818427e+004
6.912648e+002, 2.817418e+004
6.917469e+002, 2.815919e+004
6.922290e+002, 2.815643e+004
6.927111e+002, 2.816379e+004
6.931932e+002, 2.817503e+004
6.936754e+002, 2.819230e+004
6.941575e+002, 2.820741e+004
6.946396e+002, 2.821286e+004
6.951217e+002, 2.820942e+004
6.956038e+002, 2.821129e+004
6.960859e+002, 2.822531e+004
6.965681e+002, 2.823966e+004
6.970502e+002, 2.825051e+004
6.975323e+002, 2.825783e+004
6.980144e+002, 2.826089e+004
6.984965e+002, 2.825790e+004
6.989786e+002, 2.825774e+004
6.994608e+002, 2.827024e+004
6.999429e+002, 2.829218e+004
7.004250e+002, 2.830796e+004
7.009071e+002, 2.831680e+004
7.013892e+002, 2.832271e+004
7.018713e+002, 2.832601e+004
7.023535e+002, 2.833002e+004
7.028356e+002, 2.834036e+004
7.033177e+002, 2.836168e+004
7.037998e+002, 2.837813e+004
7.042819e+002, 2.837605e+004
7.047640e+002, 2.836961e+004
7.052462e+002, 2.837413e+004
7.057283e+002, 2.839388e+004
7.062104e+002, 2.841848e+004
7.066925e+002, 2.845028e+004
7.071746e+002, 2.848381e+004
7.076567e+002, 2.851024e+004
7.081389e+002, 2.852903e+004
7.086210e+002, 2.854518e+004
7.091031e+002, 2.855771e+004
7.095852e+002, 2.857234e+004
7.100673e+002, 2.860351e+004
7.105494e+002, 2.864538e+004
7.110316e+002, 2.868102e+004
7.115137e+002, 2.870207e+004
7.119958e+002, 2.871456e+004
7.124779e+002, 2.871989e+004
7.129600e+002, 2.871978e+004
7.134421e+002, 2.871928e+004
7.139243e+002, 2.871462e+004
7.144064e+002, 2.871557e+004
7.148885e+002, 2.872829e+004
7.153706e+002, 2.875048e+004
7.158527e+002, 2.876234e+004
7.163348e+002, 2.875999e+004
7.168170e+002, 2.875849e+004
7.172991e+002, 2.876483e+004
7.177812e+002, 2.877796e+004
7.182633e+002, 2.879463e+004
7.187454e+002, 2.881473e+004
7.192275e+002, 2.883129e+004
7.197097e+002, 2.883396e+004
7.201918e+002, 2.883357e+004
7.206739e+002, 2.884407e+004
7.211560e+002, 2.886661e+004
7.216381e+002, 2.889183e+004
7.221202e+002, 2.892304e+004
7.226024e+002, 2.894988e+004
7.230845e+002, 2.896279e+004
7.235666e+002, 2.895261e+004
7.240487e+002, 2.895667e+004
7.245308e+002, 2.898046e+004
7.250129e+002, 2.901163e+004
7.254951e+002, 2.904117e+004
7.259772e+002, 2.906943e+004
7.264593e+002, 2.909418e+004
7.269414e+002, 2.911501e+004
7.274235e+002, 2.913316e+004
7.279056e+002, 2.914752e+004
7.283878e+002, 2.916042e+004
7.288699e+002, 2.917741e+004
7.293520e+002, 2.920081e+004
7.298341e+002, 2.922527e+004
7.303162e+002, 2.924672e+004
7.307983e+002, 2.926722e+004
7.312805e+002, 2.928968e+004
7.317626e+002, 2.932070e+004
7.322447e+002, 2.934587e+004
7.327268e+002, 2.936133e+004
7.332089e+002, 2.937195e+004
7.336910e+002, 2.938453e+004
7.341732e+002, 2.939819e+004
7.346553e+002, 2.941994e+004
7.351374e+002, 2.945379e+004
7.356195e+002, 2.949243e+004
7.361016e+002, 2.951926e+004
7.365837e+002, 2.953725e+004
7.370659e+002, 2.955986e+004
7.375480e+002, 2.960029e+004
7.380301e+002, 2.963940e+004
7.385122e+002, 2.965377e+004
7.389943e+002, 2.965244e+004
7.394764e+002, 2.965879e+004
7.399586e+002, 2.969019e+004
7.404407e+002, 2.972028e+004
7.409228e+002, 2.973904e+004
7.414049e+002, 2.974883e+004
7.418870e+002, 2.976012e+004
7.423691e+002, 2.977290e+004
7.428513e+002, 2.978683e+004
7.433334e+002, 2.980207e+004
7.438155e+002, 2.981863e+004
7.442976e+002, 2.983693e+004
7.447797e+002, 2.985706e+004
7.452618e+002, 2.987531e+004
7.457440e+002, 2.988985e+004
7.462261e+002, 2.990137e+004
7.467082e+002, 2.990888e+004
7.471903e+002, 2.991310e+004
7.476724e+002, 2.992042e+004
7.481545e+002, 2.993209e+004
7.486367e+002, 2.994883e+004
7.491188e+002, 2.997551e+004
7.496009e+002, 3.001464e+004
7.500830e+002, 3.003450e+004
7.505651e+002, 3.002488e+004
7.510472e+002, 3.001456e+004
7.515294e+002, 3.002037e+004
7.520115e+002, 3.004186e+004
7.524936e+002, 3.006957e+004
7.529757e+002, 3.010442e+004
7.534578e+002, 3.013233e+004
7.539399e+002, 3.013455e+004
7.544221e+002, 3.012473e+004
7.549042e+002, 3.012361e+004
7.553863e+002, 3.013436e+004
7.558684e+002, 3.014468e+004
7.563505e+002, 3.014264e+004
7.568326e+002, 3.014182e+004
7.573148e+002, 3.015479e+004
7.577969e+002, 3.019352e+004
7.582790e+002, 3.021646e+004
7.587611e+002, 3.021354e+004
7.592432e+002, 3.020880e+004
7.597253e+002, 3.022533e+004
7.602075e+002, 3.026371e+004
7.606896e+002, 3.029738e+004
7.611717e+002, 3.032496e+004
7.616538e+002, 3.034442e+004
7.621359e+002, 3.034739e+004
7.626180e+002, 3.034244e+004
7.631002e+002, 3.034428e+004
7.635823e+002, 3.035526e+004
7.640644e+002, 3.037569e+004
7.645465e+002, 3.042518e+004
7.650286e+002, 3.047554e+004
7.655107e+002, 3.049578e+004
7.659929e+002, 3.044091e+004
7.664750e+002, 3.041956e+004
7.669571e+002, 3.044380e+004
7.674392e+002, 3.049037e+004
7.679213e+002, 3.053196e+004
7.684034e+002, 3.056857e+004
7.688856e+002, 3.060295e+004
7.693677e+002, 3.063465e+004
7.698498e+002, 3.066568e+004
7.703319e+002, 3.070202e+004
7.708140e+002, 3.073899e+004
7.712961e+002, 3.076628e+004
7.717783e+002, 3.077348e+004
7.722604e+002, 3.078279e+004
7.727425e+002, 3.081015e+004
7.732246e+002, 3.084538e+004
7.737067e+002, 3.087354e+004
7.741888e+002, 3.089170e+004
7.746710e+002, 3.090369e+004
7.751531e+002, 3.090517e+004
7.756352e+002, 3.090499e+004
7.761173e+002, 3.092173e+004
7.765994e+002, 3.095599e+004
7.770815e+002, 3.098519e+004
7.775637e+002, 3.100156e+004
7.780458e+002, 3.101582e+004
7.785279e+002, 3.104438e+004
7.790100e+002, 3.108264e+004
7.794921e+002, 3.112054e+004
7.799742e+002, 3.115900e+004
7.804564e+002, 3.118954e+004
7.809385e+002, 3.120359e+004
7.814206e+002, 3.120756e+004
7.819027e+002, 3.121520e+004
7.823848e+002, 3.122475e+004
7.828669e+002, 3.124373e+004
7.833491e+002, 3.128176e+004
7.838312e+002, 3.132413e+004
7.843133e+002, 3.132725e+004
7.847954e+002, 3.129248e+004
7.852775e+002, 3.126921e+004
7.857596e+002, 3.127732e+004
7.862418e+002, 3.130145e+004
7.867239e+002, 3.132518e+004
7.872060e+002, 3.134801e+004
7.876881e+002, 3.136923e+004
7.881702e+002, 3.138722e+004
7.886523e+002, 3.140431e+004
7.891345e+002, 3.142074e+004
7.896166e+002, 3.143673e+004
7.900987e+002, 3.145327e+004
7.905808e+002, 3.146819e+004
7.910629e+002, 3.148773e+004
7.915450e+002, 3.151506e+004
7.920272e+002, 3.154626e+004
7.925093e+002, 3.156728e+004
7.929914e+002, 3.157932e+004
7.934735e+002, 3.159469e+004
7.939556e+002, 3.162265e+004
7.944377e+002, 3.165228e+004
7.949199e+002, 3.166898e+004
7.954020e+002, 3.167696e+004
7.958841e+002, 3.168657e+004
7.963662e+002, 3.170072e+004
7.968483e+002, 3.171859e+004
7.973304e+002, 3.174315e+004
7.978126e+002, 3.177143e+004
7.982947e+002, 3.179349e+004
7.987768e+002, 3.180843e+004
7.992589e+002, 3.181923e+004
7.997410e+002, 3.182344e+004
8.002231e+002, 3.182730e+004
8.007053e+002, 3.185089e+004
8.011874e+002, 3.189074e+004
8.016695e+002, 3.192746e+004
8.021516e+002, 3.195035e+004
8.026337e+002, 3.196694e+004
8.031158e+002, 3.198329e+004
8.035980e+002, 3.199856e+004
8.040801e+002, 3.201106e+004
8.045622e+002, 3.201107e+004
8.050443e+002, 3.201863e+004
8.055264e+002, 3.204000e+004
8.060085e+002, 3.207188e+004
8.064907e+002, 3.210708e+004
8.069728e+002, 3.214843e+004
8.074549e+002, 3.217651e+004
8.079370e+002, 3.218054e+004
8.084191e+002, 3.217235e+004
8.089012e+002, 3.217281e+004
8.093834e+002, 3.218183e+004
8.098655e+002, 3.219914e+004
8.103476e+002, 3.223143e+004
8.108297e+002, 3.226576e+004
8.113118e+002, 3.229472e+004
8.117939e+002, 3.231950e+004
8.122761e+002, 3.234298e+004
8.127582e+002, 3.236449e+004
8.132403e+002, 3.238739e+004
8.137224e+002, 3.241535e+004
8.142045e+002, 3.244396e+004
8.146866e+002, 3.245537e+004
8.151688e+002, 3.244906e+004
8.156509e+002, 3.245348e+004
8.161330e+002, 3.248106e+004
8.166151e+002, 3.252205e+004
8.170972e+002, 3.256764e+004
8.175793e+002, 3.261482e+004
8.180615e+002, 3.265734e+004
8.185436e+002, 3.269353e+004
8.190257e+002, 3.272235e+004
8.195078e+002, 3.274065e+004
8.199899e+002, 3.275059e+004
8.204720e+002, 3.275864e+004
8.209542e+002, 3.276400e+004
8.214363e+002, 3.276802e+004
8.219184e+002, 3.276914e+004
8.224005e+002, 3.277114e+004
8.228826e+002, 3.278421e+004
8.233647e+002, 3.280696e+004
8.238469e+002, 3.282988e+004
8.243290e+002, 3.284786e+004
8.248111e+002, 3.286776e+004
8.252932e+002, 3.290133e+004
8.257753e+002, 3.294140e+004
8.262574e+002, 3.297269e+004
8.267396e+002, 3.298061e+004
8.272217e+002, 3.299372e+004
8.277038e+002, 3.302323e+004
8.281859e+002, 3.305780e+004
8.286681e+002, 3.307360e+004
8.291502e+002, 3.306667e+004
8.296323e+002, 3.306930e+004
8.301144e+002, 3.309186e+004
8.305966e+002, 3.312009e+004
8.310787e+002, 3.312748e+004
8.315608e+002, 3.312380e+004
8.320429e+002, 3.313380e+004
8.325250e+002, 3.317463e+004
8.330071e+002, 3.321657e+004
8.334893e+002, 3.324528e+004
8.339714e+002, 3.326554e+004
8.344535e+002, 3.328585e+004
8.349356e+002, 3.331330e+004
8.354177e+002, 3.332598e+004
8.358998e+002, 3.331216e+004
8.363820e+002, 3.329646e+004
8.368641e+002, 3.332236e+004
8.373462e+002, 3.338441e+004
8.378283e+002, 3.343687e+004
8.383104e+002, 3.346974e+004
8.387925e+002, 3.349046e+004
8.392747e+002, 3.349896e+004
8.397568e+002, 3.350250e+004
8.402389e+002, 3.351133e+004
8.407210e+002, 3.353068e+004
8.412031e+002, 3.355060e+004
8.416852e+002, 3.357051e+004
8.421674e+002, 3.358933e+004
8.426495e+002, 3.360479e+004
8.431316e+002, 3.361552e+004
8.436137e+002, 3.363547e+004
8.440958e+002, 3.366866e+004
8.445779e+002, 3.370177e+004
8.450601e+002, 3.371913e+004
8.455422e+002, 3.372513e+004
8.460243e+002, 3.372554e+004
8.465064e+002, 3.371843e+004
8.469885e+002, 3.372321e+004
8.474706e+002, 3.376180e+004
8.479528e+002, 3.380949e+004
8.484349e+002, 3.384312e+004
8.489170e+002, 3.385137e+004
8.493991e+002, 3.387535e+004
8.498812e+002, 3.392414e+004
8.503633e+002, 3.396950e+004
8.508455e+002, 3.398195e+004
8.513276e+002, 3.396726e+004
8.518097e+002, 3.396519e+004
8.522918e+002, 3.397790e+004
8.527739e+002, 3.399915e+004
8.532560e+002, 3.403736e+004
8.537382e+002, 3.407375e+004
8.542203e+002, 3.408700e+004
8.547024e+002, 3.407279e+004
8.551845e+002, 3.406644e+004
8.556666e+002, 3.407675e+004
8.561487e+002, 3.409580e+004
8.566309e+002, 3.412293e+004
8.571130e+002, 3.415766e+004
8.575951e+002, 3.418557e+004
8.580772e+002, 3.420615e+004
8.585593e+002, 3.422668e+004
8.590414e+002, 3.425400e+004
8.595236e+002, 3.428342e+004
8.600057e+002, 3.430387e+004
8.604878e+002, 3.431723e+004
8.609699e+002, 3.433841e+004
8.614520e+002, 3.438516e+004
8.619341e+002, 3.443061e+004
8.624163e+002, 3.445874e+004
8.628984e+002, 3.447308e+004
8.633805e+002, 3.449893e+004
8.638626e+002, 3.454171e+004
8.643447e+002, 3.457844e+004
8.648268e+002, 3.459648e+004
8.653090e+002, 3.460561e+004
8.657911e+002, 3.463159e+004
8.662732e+002, 3.467051e+004
8.667553e+002, 3.470571e+004
8.672374e+002, 3.472116e+004
8.677195e+002, 3.473748e+004
8.682017e+002, 3.477210e+004
8.686838e+002, 3.481702e+004
8.691659e+002, 3.484729e+004
8.696480e+002, 3.484835e+004
8.701301e+002, 3.485965e+004
8.706122e+002, 3.489646e+004
8.710944e+002, 3.493902e+004
8.715765e+002, 3.493733e+004
8.720586e+002, 3.489811e+004
8.725407e+002, 3.487127e+004
8.730228e+002, 3.487674e+004
8.735049e+002, 3.489036e+004
8.739871e+002, 3.488446e+004
8.744692e+002, 3.487382e+004
8.749513e+002, 3.488038e+004
8.754334e+002, 3.493674e+004
8.759155e+002, 3.497468e+004
8.763976e+002, 3.497991e+004
8.768798e+002, 3.497382e+004
8.773619e+002, 3.497850e+004
8.778440e+002, 3.499368e+004
8.783261e+002, 3.502470e+004
8.788082e+002, 3.507466e+004
8.792903e+002, 3.512534e+004
8.797725e+002, 3.515384e+004
8.802546e+002, 3.517161e+004
8.807367e+002, 3.519493e+004
8.812188e+002, 3.522655e+004
8.817009e+002, 3.526171e+004
8.821830e+002, 3.530908e+004
8.826652e+002, 3.535022e+004
8.831473e+002, 3.537045e+004
8.836294e+002, 3.536544e+004
8.841115e+002, 3.536843e+004
8.845936e+002, 3.538029e+004
8.850757e+002, 3.539806e+004
8.855579e+002, 3.542006e+004
8.860400e+002, 3.544693e+004
8.865221e+002, 3.548682e+004
8.870042e+002, 3.553780e+004
8.874863e+002, 3.557311e+004
8.879684e+002, 3.556249e+004
8.884506e+002, 3.554711e+004
8.889327e+002, 3.554963e+004
8.894148e+002, 3.557000e+004
8.898969e+002, 3.559477e+004
8.903790e+002, 3.562472e+004
8.908611e+002, 3.565543e+004
8.913433e+002, 3.568246e+004
8.918254e+002, 3.571019e+004
8.923075e+002, 3.575553e+004
8.927896e+002, 3.581411e+004
8.932717e+002, 3.586716e+004
8.937538e+002, 3.590461e+004
8.942360e+002, 3.593425e+004
8.947181e+002, 3.594887e+004
8.952002e+002, 3.595876e+004
8.956823e+002, 3.599391e+004
8.961644e+002, 3.607780e+004
8.966465e+002, 3.613733e+004
8.971287e+002, 3.615304e+004
8.976108e+002, 3.614956e+004
8.980929e+002, 3.617514e+004
8.985750e+002, 3.622270e+004
8.990571e+002, 3.625654e+004
8.995392e+002, 3.626422e+004
9.000214e+002, 3.626764e+004
9.005035e+002, 3.628346e+004
9.009856e+002, 3.630584e+004
9.014677e+002, 3.632851e+004
9.019498e+002, 3.635200e+004
9.024319e+002, 3.637193e+004
9.029141e+002, 3.638733e+004
9.033962e+002, 3.640094e+004
9.038783e+002, 3.641420e+004
9.043604e+002, 3.642743e+004
9.048425e+002, 3.644450e+004
9.053246e+002, 3.646578e+004
9.058068e+002, 3.649067e+004
9.062889e+002, 3.652298e+004
9.067710e+002, 3.655570e+004
9.072531e+002, 3.658230e+004
9.077352e+002, 3.660159e+004
9.082173e+002, 3.661962e+004
9.086995e+002, 3.663354e+004
9.091816e+002, 3.665175e+004
9.096637e+002, 3.667973e+004
9.101458e+002, 3.671536e+004
9.106279e+002, 3.674377e+004
9.111100e+002, 3.676520e+004
9.115922e+002, 3.678250e+004
9.120743e+002, 3.679391e+004
9.125564e+002, 3.680511e+004
9.130385e+002, 3.681960e+004
9.135206e+002, 3.683874e+004
9.140027e+002, 3.686646e+004
9.144849e+002, 3.691839e+004
9.149670e+002, 3.695984e+004
9.154491e+002, 3.697735e+004
9.159312e+002, 3.698608e+004
9.164133e+002, 3.702243e+004
9.168954e+002, 3.708574e+004
9.173776e+002, 3.713782e+004
9.178597e+002, 3.716866e+004
9.183418e+002, 3.718852e+004
9.188239e+002, 3.719817e+004
9.193060e+002, 3.720782e+004
9.197881e+002, 3.723270e+004
9.202703e+002, 3.728368e+004
9.207524e+002, 3.733528e+004
9.212345e+002, 3.738446e+004
9.217166e+002, 3.743161e+004
9.221987e+002, 3.747777e+004
9.226808e+002, 3.752312e+004
9.231630e+002, 3.756013e+004
9.236451e+002, 3.758807e+004
9.241272e+002, 3.761511e+004
9.246093e+002, 3.764070e+004
9.250914e+002, 3.767380e+004
9.255735e+002, 3.773525e+004
9.260557e+002, 3.782450e+004
9.265378e+002, 3.788857e+004
9.270199e+002, 3.789018e+004
9.275020e+002, 3.788725e+004
9.279841e+002, 3.789736e+004
9.284662e+002, 3.791984e+004
9.289484e+002, 3.795542e+004
9.294305e+002, 3.800409e+004
9.299126e+002, 3.804414e+004
9.303947e+002, 3.805844e+004
9.308768e+002, 3.806638e+004
9.313589e+002, 3.809807e+004
9.318411e+002, 3.814041e+004
9.323232e+002, 3.816372e+004
9.328053e+002, 3.813464e+004
9.332874e+002, 3.811918e+004
9.337695e+002, 3.813609e+004
9.342516e+002, 3.816419e+004
9.347338e+002, 3.816829e+004
9.352159e+002, 3.814863e+004
9.356980e+002, 3.813800e+004
9.361801e+002, 3.814113e+004
9.366622e+002, 3.815596e+004
9.371443e+002, 3.818838e+004
9.376265e+002, 3.822693e+004
9.381086e+002, 3.825661e+004
9.385907e+002, 3.827241e+004
9.390728e+002, 3.828860e+004
9.395549e+002, 3.830374e+004
9.400370e+002, 3.832327e+004
9.405192e+002, 3.835043e+004
9.410013e+002, 3.838475e+004
9.414834e+002, 3.842264e+004
9.419655e+002, 3.846418e+004
9.424476e+002, 3.850490e+004
9.429297e+002, 3.854463e+004
9.434119e+002, 3.858012e+004
9.438940e+002, 3.861070e+004
9.443761e+002, 3.863492e+004
9.448582e+002, 3.864634e+004
9.453403e+002, 3.862213e+004
9.458224e+002, 3.861591e+004
9.463046e+002, 3.864666e+004
9.467867e+002, 3.869583e+004
9.472688e+002, 3.871735e+004
9.477509e+002, 3.871479e+004
9.482330e+002, 3.871412e+004
9.487151e+002, 3.872233e+004
9.491973e+002, 3.873643e+004
9.496794e+002, 3.876012e+004
9.501615e+002, 3.878571e+004
9.506436e+002, 3.880341e+004
9.511257e+002, 3.880515e+004
9.516078e+002, 3.881164e+004
9.520900e+002, 3.882299e+004
9.525721e+002, 3.884000e+004
9.530542e+002, 3.885982e+004
9.535363e+002, 3.888482e+004
9.540184e+002, 3.894078e+004
9.545005e+002, 3.902625e+004
9.549827e+002, 3.909301e+004
9.554648e+002, 3.908866e+004
9.559469e+002, 3.906745e+004
9.564290e+002, 3.906041e+004
9.569111e+002, 3.907080e+004
9.573932e+002, 3.910721e+004
9.578754e+002, 3.918164e+004
9.583575e+002, 3.925188e+004
9.588396e+002, 3.930306e+004
9.593217e+002, 3.934205e+004
9.598038e+002, 3.938539e+004
9.602859e+002, 3.943018e+004
9.607681e+002, 3.946596e+004
9.612502e+002, 3.948620e+004
9.617323e+002, 3.950099e+004
9.622144e+002, 3.951625e+004
9.626965e+002, 3.952968e+004
9.631786e+002, 3.953853e+004
9.636608e+002, 3.954309e+004
9.641429e+002, 3.954149e+004
9.646250e+002, 3.952999e+004
9.651071e+002, 3.952699e+004
9.655892e+002, 3.956551e+004
9.660714e+002, 3.962294e+004
9.665535e+002, 3.964486e+004
9.670356e+002, 3.962812e+004
9.675177e+002, 3.961866e+004
9.679998e+002, 3.964820e+004
9.684819e+002, 3.968389e+004
9.689641e+002, 3.970828e+004
9.694462e+002, 3.972280e+004
9.699283e+002, 3.973713e+004
9.704104e+002, 3.974884e+004
9.708925e+002, 3.977744e+004
9.713746e+002, 3.983986e+004
9.718568e+002, 3.990973e+004
9.723389e+002, 3.994102e+004
9.728210e+002, 3.994987e+004
9.733031e+002, 3.997150e+004
9.737852e+002, 4.003200e+004
9.742673e+002, 4.008670e+004
9.747495e+002, 4.012538e+004
9.752316e+002, 4.015642e+004
9.757137e+002, 4.018725e+004
9.761958e+002, 4.021809e+004
9.766779e+002, 4.025486e+004
9.771600e+002, 4.029934e+004
9.776422e+002, 4.033970e+004
9.781243e+002, 4.036758e+004
9.786064e+002, 4.038624e+004
9.790885e+002, 4.039652e+004
9.795706e+002, 4.039875e+004
9.800527e+002, 4.040534e+004
9.805349e+002, 4.041560e+004
9.810170e+002, 4.043504e+004
9.814991e+002, 4.046918e+004
9.819812e+002, 4.051213e+004
9.824633e+002, 4.054426e+004
9.829454e+002, 4.056628e+004
9.834276e+002, 4.058340e+004
9.839097e+002, 4.059430e+004
9.843918e+002, 4.060584e+004
9.848739e+002, 4.062191e+004
9.853560e+002, 4.064216e+004
9.858381e+002, 4.066611e+004
9.863203e+002, 4.069118e+004
9.868024e+002, 4.072714e+004
9.872845e+002, 4.077836e+004
9.877666e+002, 4.083170e+004
9.882487e+002, 4.087346e+004
9.887308e+002, 4.090693e+004
9.892130e+002, 4.094305e+004
9.896951e+002, 4.098219e+004
9.901772e+002, 4.101314e+004
9.906593e+002, 4.101514e+004
9.911414e+002, 4.102084e+004
9.916235e+002, 4.105270e+004
9.921057e+002, 4.110435e+004
9.925878e+002, 4.114170e+004
9.930699e+002, 4.116221e+004
9.935520e+002, 4.118383e+004
9.940341e+002, 4.121340e+004
9.945162e+002, 4.124585e+004
9.949984e+002, 4.127486e+004
9.954805e+002, 4.130135e+004
9.959626e+002, 4.132757e+004
9.964447e+002, 4.135821e+004
9.969268e+002, 4.138339e+004
9.974089e+002, 4.139989e+004
9.978911e+002, 4.141414e+004
9.983732e+002, 4.143217e+004
9.988553e+002, 4.145426e+004
9.993374e+002, 4.147557e+004
9.998195e+002, 4.149613e+004
1.000302e+003, 4.152038e+004
1.000784e+003, 4.155393e+004
1.001266e+003, 4.159082e+004
1.001748e+003, 4.162575e+004
1.002230e+003, 4.165875e+004
1.002712e+003, 4.169434e+004
1.003194e+003, 4.173079e+004
1.003676e+003, 4.177114e+004
1.004159e+003, 4.181636e+004
1.004641e+003, 4.186465e+004
1.005123e+003, 4.192059e+004
1.005605e+003, 4.197774e+004
1.006087e+003, 4.201411e+004
1.006569e+003, 4.201158e+004
1.007051e+003, 4.202075e+004
1.007533e+003, 4.208923e+004
1.008016e+003, 4.216615e+004
1.008498e+003, 4.220240e+004
1.008980e+003, 4.218580e+004
1.009462e+003, 4.220397e+004
1.009944e+003, 4.226188e+004
1.010426e+003, 4.232240e+004
1.010908e+003, 4.235196e+004
1.011390e+003, 4.237084e+004
1.011872e+003, 4.240453e+004
1.012355e+003, 4.245156e+004
1.012837e+003, 4.250361e+004
1.013319e+003, 4.256820e+004
1.013801e+003, 4.262313e+004
1.014283e+003, 4.266295e+004
1.014765e+003, 4.269061e+004
1.015247e+003, 4.270532e+004
1.015729e+003, 4.271063e+004
1.016211e+003, 4.273789e+004
1.016694e+003, 4.279763e+004
1.017176e+003, 4.285756e+004
1.017658e+003, 4.288548e+004
1.018140e+003, 4.290645e+004
1.018622e+003, 4.294893e+004
1.019104e+003, 4.302288e+004
1.019586e+003, 4.306620e+004
1.020068e+003, 4.307123e+004
1.020551e+003, 4.307299e+004
1.021033e+003, 4.308682e+004
1.021515e+003, 4.311284e+004
1.021997e+003, 4.315647e+004
1.022479e+003, 4.321235e+004
1.022961e+003, 4.326426e+004
1.023443e+003, 4.329321e+004
1.023925e+003, 4.333182e+004
1.024407e+003, 4.339707e+004
1.024890e+003, 4.347077e+004
1.025372e+003, 4.352943e+004
1.025854e+003, 4.357173e+004
1.026336e+003, 4.362220e+004
1.026818e+003, 4.368411e+004
1.027300e+003, 4.374243e+004
1.027782e+003, 4.378364e+004
1.028264e+003, 4.381566e+004
1.028746e+003, 4.384727e+004
1.029229e+003, 4.387877e+004
1.029711e+003, 4.389805e+004
1.030193e+003, 4.389948e+004
1.030675e+003, 4.389969e+004
1.031157e+003, 4.390096e+004
1.031639e+003, 4.390805e+004
1.032121e+003, 4.394130e+004
1.032603e+003, 4.399051e+004
1.033086e+003, 4.402218e+004
1.033568e+003, 4.402211e+004
1.034050e+003, 4.401303e+004
1.034532e+003, 4.398929e+004
1.035014e+003, 4.397380e+004
1.035496e+003, 4.399069e+004
1.035978e+003, 4.404762e+004
1.036460e+003, 4.408167e+004
1.036943e+003, 4.409120e+004
1.037425e+003, 4.409820e+004
1.037907e+003, 4.411410e+004
1.038389e+003, 4.413870e+004
1.038871e+003, 4.417369e+004
1.039353e+003, 4.421729e+004
1.039835e+003, 4.426209e+004
1.040317e+003, 4.430668e+004
1.040799e+003, 4.435076e+004
1.041281e+003, 4.439405e+004
1.041764e+003, 4.443680e+004
1.042246e+003, 4.447934e+004
1.042728e+003, 4.452210e+004
1.043210e+003, 4.456821e+004
1.043692e+003, 4.462030e+004
1.044174e+003, 4.466226e+004
1.044656e+003, 4.466726e+004
1.045138e+003, 4.467608e+004
1.045621e+003, 4.472045e+004
1.046103e+003, 4.479646e+004
1.046585e+003, 4.485032e+004
1.047067e+003, 4.488048e+004
1.047549e+003, 4.490693e+004
1.048031e+003, 4.493478e+004
1.048513e+003, 4.496823e+004
1.048995e+003, 4.501051e+004
1.049478e+003, 4.506193e+004
1.049960e+003, 4.512301e+004
1.050442e+003, 4.521420e+004
1.050924e+003, 4.528173e+004
1.051406e+003, 4.531657e+004
1.051888e+003, 4.534489e+004
1.052370e+003, 4.539144e+004
1.052852e+003, 4.545212e+004
1.053334e+003, 4.551278e+004
1.053817e+003, 4.557329e+004
1.054299e+003, 4.563693e+004
1.054781e+003, 4.571361e+004
1.055263e+003, 4.578524e+004
1.055745e+003, 4.583651e+004
1.056227e+003, 4.587935e+004
1.056709e+003, 4.594550e+004
1.057191e+003, 4.603651e+004
1.057673e+003, 4.611682e+004
1.058156e+003, 4.617830e+004
1.058638e+003, 4.623020e+004
1.059120e+003, 4.627957e+004
1.059602e+003, 4.632675e+004
1.060084e+003, 4.637432e+004
1.060566e+003, 4.642482e+004
1.061048e+003, 4.645863e+004
1.061530e+003, 4.647438e+004
1.062013e+003, 4.647624e+004
1.062495e+003, 4.646288e+004
1.062977e+003, 4.643962e+004
1.063459e+003, 4.641510e+004
1.063941e+003, 4.639148e+004
1.064423e+003, 4.637439e+004
1.064905e+003, 4.637859e+004
1.065387e+003, 4.637203e+004
1.065870e+003, 4.631878e+004
1.066352e+003, 4.627146e+004
1.066834e+003, 4.628664e+004
1.067316e+003, 4.636491e+004
1.067798e+003, 4.641861e+004
1.068280e+003, 4.644496e+004
1.068762e+003, 4.645499e+004
1.069244e+003, 4.644289e+004
1.069726e+003, 4.643033e+004
1.070208e+003, 4.643460e+004
1.070691e+003, 4.645414e+004
1.071173e+003, 4.647673e+004
1.071655e+003, 4.649970e+004
1.072137e+003, 4.653507e+004
1.072619e+003, 4.658961e+004
1.073101e+003, 4.664438e+004
1.073583e+003, 4.666857e+004
1.074065e+003, 4.667772e+004
1.074548e+003, 4.669723e+004
1.075030e+003, 4.673165e+004
1.075512e+003, 4.676957e+004
1.075994e+003, 4.680761e+004
1.076476e+003, 4.684932e+004
1.076958e+003, 4.689888e+004
1.077440e+003, 4.695199e+004
1.077922e+003, 4.699291e+004
1.078405e+003, 4.702277e+004
1.078887e+003, 4.704409e+004
1.079369e+003, 4.704435e+004
1.079851e+003, 4.706183e+004
1.080333e+003, 4.712560e+004
1.080815e+003, 4.721474e+004
1.081297e+003, 4.730204e+004
1.081779e+003, 4.738413e+004
1.082261e+003, 4.748684e+004
1.082744e+003, 4.761205e+004
1.083226e+003, 4.774396e+004
1.083708e+003, 4.787474e+004
1.084190e+003, 4.800349e+004
1.084672e+003, 4.813305e+004
1.085154e+003, 4.825989e+004
1.085636e+003, 4.837549e+004
1.086118e+003, 4.851502e+004
1.086601e+003, 4.856561e+004
1.087083e+003, 4.849957e+004
1.087565e+003, 4.837536e+004
1.088047e+003, 4.824030e+004
1.088529e+003, 4.811057e+004
1.089011e+003, 4.802286e+004
1.089493e+003, 4.798126e+004
1.089975e+003, 4.794509e+004
1.090458e+003, 4.789371e+004
1.090940e+003, 4.785002e+004
1.091422e+003, 4.782059e+004
1.091904e+003, 4.780522e+004
1.092386e+003, 4.780691e+004
1.092868e+003, 4.782382e+004
1.093350e+003, 4.784627e+004
1.093832e+003, 4.787284e+004
1.094314e+003, 4.789982e+004
1.094797e+003, 4.792591e+004
1.095279e+003, 4.795085e+004
1.095761e+003, 4.797474e+004
1.096243e+003, 4.799767e+004
1.096725e+003, 4.801813e+004
1.097207e+003, 4.803540e+004
1.097689e+003, 4.806405e+004
1.098171e+003, 4.812356e+004
1.098653e+003, 4.818752e+004
1.099136e+003, 4.823116e+004
1.099618e+003, 4.825590e+004
1.100100e+003, 4.826389e+004
1.100582e+003, 4.822967e+004
1.101064e+003, 4.822765e+004
1.101546e+003, 4.826631e+004
1.102028e+003, 4.831913e+004
1.102510e+003, 4.836503e+004
1.102993e+003, 4.840596e+004
1.103475e+003, 4.844876e+004
1.103957e+003, 4.849229e+004
1.104439e+003, 4.852789e+004
1.104921e+003, 4.854458e+004
1.105403e+003, 4.856198e+004
1.105885e+003, 4.858411e+004
1.106367e+003, 4.861103e+004
1.106849e+003, 4.864552e+004
1.107332e+003, 4.868554e+004
1.107814e+003, 4.871497e+004
1.108296e+003, 4.873054e+004
1.108778e+003, 4.875516e+004
1.109260e+003, 4.881752e+004
1.109742e+003, 4.888113e+004
1.110224e+003, 4.892094e+004
1.110706e+003, 4.894109e+004
1.111188e+003, 4.896531e+004
1.111671e+003, 4.899327e+004
1.112153e+003, 4.902875e+004
1.112635e+003, 4.907432e+004
1.113117e+003, 4.912370e+004
1.113599e+003, 4.917932e+004
1.114081e+003, 4.923038e+004
1.114563e+003, 4.925831e+004
1.115045e+003, 4.925302e+004
1.115528e+003, 4.927334e+004
1.116010e+003, 4.932642e+004
1.116492e+003, 4.937562e+004
1.116974e+003, 4.939423e+004
1.117456e+003, 4.940267e+004
1.117938e+003, 4.943963e+004
1.118420e+003, 4.949157e+004
1.118902e+003, 4.952896e+004
1.119385e+003, 4.952046e+004
1.119867e+003, 4.953605e+004
1.120349e+003, 4.959310e+004
1.120831e+003, 4.964777e+004
1.121313e+003, 4.964562e+004
1.121795e+003, 4.961150e+004
1.122277e+003, 4.962133e+004
1.122759e+003, 4.967120e+004
1.123241e+003, 4.972402e+004
1.123724e+003, 4.975744e+004
1.124206e+003, 4.979766e+004
1.124688e+003, 4.985606e+004
1.125170e+003, 4.992013e+004
1.125652e+003, 4.996991e+004
1.126134e+003, 5.000678e+004
1.126616e+003, 5.004028e+004
1.127098e+003, 5.007149e+004
1.127580e+003, 5.010030e+004
1.128063e+003, 5.012676e+004
1.128545e+003, 5.015138e+004
1.129027e+003, 5.017243e+004
1.129509e+003, 5.019245e+004
1.129991e+003, 5.022057e+004
1.130473e+003, 5.025757e+004
1.130955e+003, 5.028865e+004
1.131437e+003, 5.030917e+004
1.131920e+003, 5.032827e+004
1.132402e+003, 5.034209e+004
1.132884e+003, 5.036761e+004
1.133366e+003, 5.043257e+004
1.133848e+003, 5.054179e+004
1.134330e+003, 5.061013e+004
1.134812e+003, 5.062977e+004
1.135294e+003, 5.064932e+004
1.135776e+003, 5.068920e+004
1.136259e+003, 5.073844e+004
1.136741e+003, 5.078264e+004
1.137223e+003, 5.082577e+004
1.137705e+003, 5.087486e+004
1.138187e+003, 5.092930e+004
1.138669e+003, 5.099630e+004
1.139151e+003, 5.108541e+004
1.139633e+003, 5.116135e+004
1.140115e+003, 5.119398e+004
1.140598e+003, 5.120035e+004
1.141080e+003, 5.121124e+004
1.141562e+003, 5.122663e+004
1.142044e+003, 5.124666e+004
1.142526e+003, 5.127170e+004
1.143008e+003, 5.130348e+004
1.143490e+003, 5.134865e+004
1.143972e+003, 5.139080e+004
1.144455e+003, 5.140282e+004
1.144937e+003, 5.139977e+004
1.145419e+003, 5.144514e+004
1.145901e+003, 5.153202e+004
1.146383e+003, 5.159433e+004
1.146865e+003, 5.155758e+004
1.147347e+003, 5.154425e+004
1.147829e+003, 5.160586e+004
1.148312e+003, 5.169530e+004
1.148794e+003, 5.173367e+004
1.149276e+003, 5.173034e+004
1.149758e+003, 5.174623e+004
1.150240e+003, 5.178851e+004
1.150722e+003, 5.184069e+004
1.151204e+003, 5.189990e+004
1.151686e+003, 5.195763e+004
1.152168e+003, 5.200768e+004
1.152651e+003, 5.205287e+004
1.153133e+003, 5.210320e+004
1.153615e+003, 5.215788e+004
1.154097e+003, 5.220489e+004
1.154579e+003, 5.223945e+004
1.155061e+003, 5.227259e+004
1.155543e+003, 5.231864e+004
1.156025e+003, 5.236255e+004
1.156507e+003, 5.238380e+004
1.156990e+003, 5.238668e+004
1.157472e+003, 5.242055e+004
1.157954e+003, 5.248816e+004
1.158436e+003, 5.255014e+004
1.158918e+003, 5.259252e+004
1.159400e+003, 5.262730e+004
1.159882e+003, 5.266285e+004
1.160364e+003, 5.270006e+004
1.160847e+003, 5.273971e+004
1.161329e+003, 5.278159e+004
1.161811e+003, 5.282946e+004
1.162293e+003, 5.288434e+004
1.162775e+003, 5.293549e+004
1.163257e+003, 5.297557e+004
1.163739e+003, 5.301040e+004
1.164221e+003, 5.304295e+004
1.164703e+003, 5.307689e+004
1.165186e+003, 5.311961e+004
1.165668e+003, 5.317929e+004
1.166150e+003, 5.323133e+004
1.166632e+003, 5.327741e+004
1.167114e+003, 5.330698e+004
1.167596e+003, 5.329241e+004
1.168078e+003, 5.326871e+004
1.168560e+003, 5.330334e+004
1.169042e+003, 5.337621e+004
1.169525e+003, 5.343232e+004
1.170007e+003, 5.344102e+004
1.170489e+003, 5.346056e+004
1.170971e+003, 5.349663e+004
1.171453e+003, 5.353804e+004
1.171935e+003, 5.357591e+004
1.172417e+003, 5.361161e+004
1.172899e+003, 5.364539e+004
1.173382e+003, 5.367932e+004
1.173864e+003, 5.372048e+004
1.174346e+003, 5.379658e+004
1.174828e+003, 5.384025e+004
1.175310e+003, 5.383048e+004
1.175792e+003, 5.380756e+004
1.176274e+003, 5.382078e+004
1.176756e+003, 5.386141e+004
1.177239e+003, 5.391538e+004
1.177721e+003, 5.397920e+004
1.178203e+003, 5.403579e+004
1.178685e+003, 5.406907e+004
1.179167e+003, 5.410480e+004
1.179649e+003, 5.415081e+004
1.180131e+003, 5.420004e+004
1.180613e+003, 5.423701e+004
1.181095e+003, 5.426724e+004
1.181578e+003, 5.431018e+004
1.182060e+003, 5.436996e+004
1.182542e+003, 5.442276e+004
1.183024e+003, 5.445754e+004
1.183506e+003, 5.448338e+004
1.183988e+003, 5.449766e+004
1.184470e+003, 5.451139e+004
1.184952e+003, 5.456222e+004
1.185434e+003, 5.463713e+004
1.185917e+003, 5.468985e+004
1.186399e+003, 5.470739e+004
1.186881e+003, 5.471318e+004
1.187363e+003, 5.468704e+004
1.187845e+003, 5.468772e+004
1.188327e+003, 5.475024e+004
1.188809e+003, 5.485686e+004
1.189291e+003, 5.495028e+004
1.189774e+003, 5.502957e+004
1.190256e+003, 5.509250e+004
1.190738e+003, 5.513419e+004
1.191220e+003, 5.517019e+004
1.191702e+003, 5.519914e+004
1.192184e+003, 5.523407e+004
1.192666e+003, 5.528692e+004
1.193148e+003, 5.535306e+004
1.193630e+003, 5.539982e+004
1.194113e+003, 5.543012e+004
1.194595e+003, 5.546132e+004
1.195077e+003, 5.550585e+004
1.195559e+003, 5.554302e+004
1.196041e+003, 5.555813e+004
1.196523e+003, 5.556511e+004
1.197005e+003, 5.557221e+004
1.197487e+003, 5.558024e+004
1.197969e+003, 5.559857e+004
1.198452e+003, 5.562710e+004
1.198934e+003, 5.566527e+004
1.199416e+003, 5.573048e+004
1.199898e+003, 5.578240e+004
1.200380e+003, 5.578398e+004
1.200862e+003, 5.577582e+004
1.201344e+003, 5.579934e+004
1.201826e+003, 5.585462e+004
1.202309e+003, 5.590351e+004
1.202791e+003, 5.594578e+004
1.203273e+003, 5.597923e+004
1.203755e+003, 5.599489e+004
1.204237e+003, 5.601058e+004
1.204719e+003, 5.603349e+004
1.205201e+003, 5.606213e+004
1.205683e+003, 5.609462e+004
1.206166e+003, 5.613027e+004
1.206648e+003, 5.617443e+004
1.207130e+003, 5.622622e+004
1.207612e+003, 5.627742e+004
1.208094e+003, 5.632129e+004
1.208576e+003, 5.636365e+004
1.209058e+003, 5.641392e+004
1.209540e+003, 5.646029e+004
1.210022e+003, 5.647953e+004
1.210505e+003, 5.647343e+004
1.210987e+003, 5.649293e+004
1.211469e+003, 5.654124e+004
1.211951e+003, 5.658239e+004
1.212433e+003, 5.657309e+004
1.212915e+003, 5.657200e+004
1.213397e+003, 5.662699e+004
1.213879e+003, 5.670462e+004
1.214361e+003, 5.674358e+004
1.214844e+003, 5.674743e+004
1.215326e+003, 5.677230e+004
1.215808e+003, 5.682455e+004
1.216290e+003, 5.687905e+004
1.216772e+003, 5.692057e+004
1.217254e+003, 5.695722e+004
1.217736e+003, 5.699332e+004
1.218218e+003, 5.702712e+004
1.218701e+003, 5.705441e+004
1.219183e+003, 5.707511e+004
1.219665e+003, 5.708959e+004
1.220147e+003, 5.709628e+004
1.220629e+003, 5.711854e+004
1.221111e+003, 5.718811e+004
1.221593e+003, 5.725982e+004
1.222075e+003, 5.730961e+004
1.222557e+003, 5.734392e+004
1.223040e+003, 5.738373e+004
1.223522e+003, 5.742591e+004
1.224004e+003, 5.743569e+004
1.224486e+003, 5.740284e+004
1.224968e+003, 5.738804e+004
1.225450e+003, 5.745890e+004
1.225932e+003, 5.752519e+004
1.226414e+003, 5.753245e+004
1.226896e+003, 5.750654e+004
1.227379e+003, 5.753050e+004
1.227861e+003, 5.759434e+004
1.228343e+003, 5.764216e+004
1.228825e+003, 5.765922e+004
1.229307e+003, 5.767623e+004
1.229789e+003, 5.771668e+004
1.230271e+003, 5.775288e+004
1.230753e+003, 5.776682e+004
1.231236e+003, 5.776793e+004
1.231718e+003, 5.779016e+004
1.232200e+003, 5.782778e+004
1.232682e+003, 5.785763e+004
1.233164e+003, 5.787242e+004
1.233646e+003, 5.788607e+004
1.234128e+003, 5.789871e+004
1.234610e+003, 5.792047e+004
1.235093e+003, 5.796041e+004
1.235575e+003, 5.801042e+004
1.236057e+003, 5.803766e+004
1.236539e+003, 5.805126e+004
1.237021e+003, 5.808377e+004
1.237503e+003, 5.815286e+004
1.237985e+003, 5.820813e+004
1.238467e+003, 5.821255e+004
1.238949e+003, 5.822138e+004
1.239432e+003, 5.826320e+004
1.239914e+003, 5.832343e+004
1.240396e+003, 5.835304e+004
1.240878e+003, 5.836387e+004
1.241360e+003, 5.839167e+004
1.241842e+003, 5.845809e+004
1.242324e+003, 5.850311e+004
1.242806e+003, 5.849700e+004
1.243288e+003, 5.849596e+004
1.243771e+003, 5.853136e+004
1.244253e+003, 5.858824e+004
1.244735e+003, 5.863389e+004
1.245217e+003, 5.867013e+004
1.245699e+003, 5.869961e+004
1.246181e+003, 5.871525e+004
1.246663e+003, 5.875011e+004
1.247145e+003, 5.881917e+004
1.247628e+003, 5.888070e+004
1.248110e+003, 5.890450e+004
1.248592e+003, 5.891371e+004
1.249074e+003, 5.896605e+004
1.249556e+003, 5.903766e+004
1.250038e+003, 5.908139e+004
1.250520e+003, 5.906734e+004
1.251002e+003, 5.906801e+004
1.251484e+003, 5.908448e+004
1.251967e+003, 5.912168e+004
1.252449e+003, 5.919670e+004
1.252931e+003, 5.927799e+004
1.253413e+003, 5.931301e+004
1.253895e+003, 5.931924e+004
1.254377e+003, 5.932298e+004
1.254859e+003, 5.931246e+004
1.255341e+003, 5.936068e+004
1.255823e+003, 5.948423e+004
1.256306e+003, 5.958555e+004
1.256788e+003, 5.959114e+004
1.257270e+003, 5.956248e+004
1.257752e+003, 5.956347e+004
1.258234e+003, 5.958568e+004
1.258716e+003, 5.961776e+004
1.259198e+003, 5.966150e+004
1.259680e+003, 5.971129e+004
1.260163e+003, 5.977157e+004
1.260645e+003, 5.980382e+004
1.261127e+003, 5.976030e+004
1.261609e+003, 5.971371e+004
1.262091e+003, 5.974359e+004
1.262573e+003, 5.980427e+004
1.263055e+003, 5.982868e+004
1.263537e+003, 5.980688e+004
1.264020e+003, 5.981249e+004
1.264502e+003, 5.984479e+004
1.264984e+003, 5.988551e+004
1.265466e+003, 5.991909e+004
1.265948e+003, 5.996176e+004
1.266430e+003, 6.003660e+004
1.266912e+003, 6.011643e+004
1.267394e+003, 6.017107e+004
1.267876e+003, 6.019918e+004
1.268359e+003, 6.022553e+004
1.268841e+003, 6.024931e+004
1.269323e+003, 6.026304e+004
1.269805e+003, 6.025570e+004
1.270287e+003, 6.024723e+004
1.270769e+003, 6.023823e+004
1.271251e+003, 6.024071e+004
1.271733e+003, 6.026905e+004
1.272215e+003, 6.032024e+004
1.272698e+003, 6.036834e+004
1.273180e+003, 6.041277e+004
1.273662e+003, 6.044679e+004
1.274144e+003, 6.046222e+004
1.274626e+003, 6.047515e+004
1.275108e+003, 6.048486e+004
1.275590e+003, 6.050039e+004
1.276072e+003, 6.053189e+004
1.276555e+003, 6.057407e+004
1.277037e+003, 6.060988e+004
1.277519e+003, 6.063978e+004
1.278001e+003, 6.066638e+004
1.278483e+003, 6.068095e+004
1.278965e+003, 6.070636e+004
1.279447e+003, 6.074618e+004
1.279929e+003, 6.078839e+004
1.280411e+003, 6.082181e+004
1.280894e+003, 6.085170e+004
1.281376e+003, 6.089185e+004
1.281858e+003, 6.093613e+004
1.282340e+003, 6.097102e+004
1.282822e+003, 6.098395e+004
1.283304e+003, 6.101177e+004
1.283786e+003, 6.105819e+004
1.284268e+003, 6.110346e+004
1.284750e+003, 6.113022e+004
1.285233e+003, 6.115309e+004
1.285715e+003, 6.118815e+004
1.286197e+003, 6.123145e+004
1.286679e+003, 6.127691e+004
1.287161e+003, 6.132427e+004
1.287643e+003, 6.137158e+004
1.288125e+003, 6.141865e+004
1.288607e+003, 6.145687e+004
1.289090e+003, 6.147434e+004
1.289572e+003, 6.148626e+004
1.290054e+003, 6.149304e+004
1.290536e+003, 6.150663e+004
1.291018e+003, 6.154491e+004
1.291500e+003, 6.160933e+004
1.291982e+003, 6.164837e+004
1.292464e+003, 6.166376e+004
1.292947e+003, 6.167409e+004
1.293429e+003, 6.169677e+004
1.293911e+003, 6.170723e+004
1.294393e+003, 6.167994e+004
1.294875e+003, 6.165334e+004
1.295357e+003, 6.165820e+004
1.295839e+003, 6.168782e+004
1.296321e+003, 6.171527e+004
1.296803e+003, 6.174163e+004
1.297286e+003, 6.176450e+004
1.297768e+003, 6.177674e+004
1.298250e+003, 6.179759e+004
1.298732e+003, 6.183119e+004
1.299214e+003, 6.187355e+004
1.299696e+003, 6.191859e+004
1.300178e+003, 6.196600e+004
1.300660e+003, 6.203986e+004
##END=



