##NAMES=Trevorite
##RRUFFID=R140860
##IDEAL CHEMISTRY=Ni^2+^Fe^3+^_2_O_4_
##LOCALITY=Bon Accord, Barberton District, Mpumalanga Province, South Africa
##OWNER=RRUFF
##SOURCE=Rock Currier
##DESCRIPTION=Black octahedral crystals embedded in fine green nepouite matrix
##STATUS=The identification of this mineral is confirmed by single-crystal X-ray diffraction and chemical analysis.
##URL=rruff.info/R140860
##MEASURED CHEMISTRY=(Ni_0.86_Fe^2+^_0.12_Co_0.01_)_Î£=0.99_Fe^3+^_2.00_O_4_
9.059570e+001, 1.843780e+003
9.107782e+001, 1.842545e+003
9.155994e+001, 1.842196e+003
9.204205e+001, 1.843380e+003
9.252417e+001, 1.845011e+003
9.300629e+001, 1.847241e+003
9.348840e+001, 1.840309e+003
9.397052e+001, 1.812297e+003
9.445264e+001, 1.759109e+003
9.493475e+001, 1.702546e+003
9.541687e+001, 1.651219e+003
9.589898e+001, 1.607975e+003
9.638110e+001, 1.569222e+003
9.686321e+001, 1.531545e+003
9.734533e+001, 1.492354e+003
9.782745e+001, 1.449996e+003
9.830956e+001, 1.412955e+003
9.879168e+001, 1.381628e+003
9.927380e+001, 1.353389e+003
9.975591e+001, 1.326921e+003
1.002380e+002, 1.302314e+003
1.007201e+002, 1.281102e+003
1.012023e+002, 1.265225e+003
1.016844e+002, 1.253103e+003
1.021665e+002, 1.238140e+003
1.026486e+002, 1.217315e+003
1.031307e+002, 1.195407e+003
1.036128e+002, 1.176451e+003
1.040950e+002, 1.160262e+003
1.045771e+002, 1.146811e+003
1.050592e+002, 1.137892e+003
1.055413e+002, 1.131097e+003
1.060234e+002, 1.122874e+003
1.065055e+002, 1.109586e+003
1.069877e+002, 1.093210e+003
1.074698e+002, 1.082496e+003
1.079519e+002, 1.082836e+003
1.084340e+002, 1.082306e+003
1.089161e+002, 1.076857e+003
1.093982e+002, 1.066686e+003
1.098804e+002, 1.052833e+003
1.103625e+002, 1.034952e+003
1.108446e+002, 1.011469e+003
1.113267e+002, 9.926351e+002
1.118088e+002, 9.795412e+002
1.122909e+002, 9.695823e+002
1.127731e+002, 9.625970e+002
1.132552e+002, 9.580968e+002
1.137373e+002, 9.547354e+002
1.142194e+002, 9.506492e+002
1.147015e+002, 9.451245e+002
1.151836e+002, 9.400323e+002
1.156658e+002, 9.362990e+002
1.161479e+002, 9.325516e+002
1.166300e+002, 9.272219e+002
1.171121e+002, 9.196745e+002
1.175942e+002, 9.108977e+002
1.180763e+002, 9.034011e+002
1.185584e+002, 8.981672e+002
1.190406e+002, 8.919306e+002
1.195227e+002, 8.826673e+002
1.200048e+002, 8.715041e+002
1.204869e+002, 8.613799e+002
1.209690e+002, 8.534278e+002
1.214511e+002, 8.477458e+002
1.219333e+002, 8.436403e+002
1.224154e+002, 8.414119e+002
1.228975e+002, 8.402103e+002
1.233796e+002, 8.398947e+002
1.238617e+002, 8.406776e+002
1.243438e+002, 8.404910e+002
1.248260e+002, 8.390984e+002
1.253081e+002, 8.359095e+002
1.257902e+002, 8.294102e+002
1.262723e+002, 8.179977e+002
1.267544e+002, 8.043837e+002
1.272365e+002, 7.951246e+002
1.277187e+002, 7.930981e+002
1.282008e+002, 7.907887e+002
1.286829e+002, 7.846835e+002
1.291650e+002, 7.771547e+002
1.296471e+002, 7.717106e+002
1.301292e+002, 7.710504e+002
1.306114e+002, 7.746497e+002
1.310935e+002, 7.747057e+002
1.315756e+002, 7.671287e+002
1.320577e+002, 7.597219e+002
1.325398e+002, 7.547209e+002
1.330219e+002, 7.515569e+002
1.335041e+002, 7.484240e+002
1.339862e+002, 7.437106e+002
1.344683e+002, 7.371061e+002
1.349504e+002, 7.306625e+002
1.354325e+002, 7.237964e+002
1.359146e+002, 7.174803e+002
1.363968e+002, 7.122403e+002
1.368789e+002, 7.081375e+002
1.373610e+002, 7.050264e+002
1.378431e+002, 7.030011e+002
1.383252e+002, 7.023535e+002
1.388073e+002, 7.012864e+002
1.392895e+002, 6.993226e+002
1.397716e+002, 6.970328e+002
1.402537e+002, 6.955350e+002
1.407358e+002, 6.954436e+002
1.412179e+002, 6.947032e+002
1.417000e+002, 6.897276e+002
1.421821e+002, 6.809318e+002
1.426643e+002, 6.727405e+002
1.431464e+002, 6.672275e+002
1.436285e+002, 6.638401e+002
1.441106e+002, 6.605758e+002
1.445927e+002, 6.571185e+002
1.450748e+002, 6.535471e+002
1.455570e+002, 6.499266e+002
1.460391e+002, 6.462657e+002
1.465212e+002, 6.425723e+002
1.470033e+002, 6.386130e+002
1.474854e+002, 6.342690e+002
1.479675e+002, 6.307755e+002
1.484497e+002, 6.294068e+002
1.489318e+002, 6.283024e+002
1.494139e+002, 6.265684e+002
1.498960e+002, 6.240021e+002
1.503781e+002, 6.207787e+002
1.508602e+002, 6.170471e+002
1.513424e+002, 6.122831e+002
1.518245e+002, 6.081131e+002
1.523066e+002, 6.045146e+002
1.527887e+002, 6.015092e+002
1.532708e+002, 5.992742e+002
1.537529e+002, 5.978595e+002
1.542351e+002, 5.968900e+002
1.547172e+002, 5.954211e+002
1.551993e+002, 5.924652e+002
1.556814e+002, 5.902126e+002
1.561635e+002, 5.895795e+002
1.566456e+002, 5.894590e+002
1.571278e+002, 5.885027e+002
1.576099e+002, 5.860148e+002
1.580920e+002, 5.823245e+002
1.585741e+002, 5.787885e+002
1.590562e+002, 5.758199e+002
1.595383e+002, 5.725219e+002
1.600205e+002, 5.679368e+002
1.605026e+002, 5.627977e+002
1.609847e+002, 5.588743e+002
1.614668e+002, 5.573965e+002
1.619489e+002, 5.578704e+002
1.624310e+002, 5.577695e+002
1.629131e+002, 5.567185e+002
1.633953e+002, 5.555111e+002
1.638774e+002, 5.547313e+002
1.643595e+002, 5.543132e+002
1.648416e+002, 5.536436e+002
1.653237e+002, 5.525598e+002
1.658058e+002, 5.508289e+002
1.662880e+002, 5.480416e+002
1.667701e+002, 5.434899e+002
1.672522e+002, 5.383683e+002
1.677343e+002, 5.335868e+002
1.682164e+002, 5.288799e+002
1.686985e+002, 5.258240e+002
1.691807e+002, 5.271584e+002
1.696628e+002, 5.302986e+002
1.701449e+002, 5.320380e+002
1.706270e+002, 5.305811e+002
1.711091e+002, 5.273368e+002
1.715912e+002, 5.258319e+002
1.720734e+002, 5.276255e+002
1.725555e+002, 5.282344e+002
1.730376e+002, 5.252166e+002
1.735197e+002, 5.202585e+002
1.740018e+002, 5.157332e+002
1.744839e+002, 5.131369e+002
1.749661e+002, 5.121131e+002
1.754482e+002, 5.105194e+002
1.759303e+002, 5.078385e+002
1.764124e+002, 5.051161e+002
1.768945e+002, 5.023504e+002
1.773766e+002, 4.997594e+002
1.778588e+002, 4.977426e+002
1.783409e+002, 4.966615e+002
1.788230e+002, 4.965248e+002
1.793051e+002, 4.959860e+002
1.797872e+002, 4.946118e+002
1.802693e+002, 4.932610e+002
1.807515e+002, 4.922995e+002
1.812336e+002, 4.915960e+002
1.817157e+002, 4.907607e+002
1.821978e+002, 4.894209e+002
1.826799e+002, 4.874854e+002
1.831620e+002, 4.859431e+002
1.836441e+002, 4.852165e+002
1.841263e+002, 4.844148e+002
1.846084e+002, 4.829354e+002
1.850905e+002, 4.808726e+002
1.855726e+002, 4.788740e+002
1.860547e+002, 4.775735e+002
1.865368e+002, 4.770965e+002
1.870190e+002, 4.764404e+002
1.875011e+002, 4.754122e+002
1.879832e+002, 4.743570e+002
1.884653e+002, 4.736932e+002
1.889474e+002, 4.734391e+002
1.894296e+002, 4.729539e+002
1.899117e+002, 4.713473e+002
1.903938e+002, 4.686817e+002
1.908759e+002, 4.668132e+002
1.913580e+002, 4.668988e+002
1.918401e+002, 4.674472e+002
1.923223e+002, 4.666055e+002
1.928044e+002, 4.639769e+002
1.932865e+002, 4.609369e+002
1.937686e+002, 4.588035e+002
1.942507e+002, 4.573290e+002
1.947328e+002, 4.558777e+002
1.952150e+002, 4.540264e+002
1.956971e+002, 4.520979e+002
1.961792e+002, 4.508358e+002
1.966613e+002, 4.505837e+002
1.971434e+002, 4.503719e+002
1.976255e+002, 4.493461e+002
1.981077e+002, 4.477692e+002
1.985898e+002, 4.463240e+002
1.990719e+002, 4.455327e+002
1.995540e+002, 4.451996e+002
2.000361e+002, 4.444218e+002
2.005182e+002, 4.427096e+002
2.010004e+002, 4.412188e+002
2.014825e+002, 4.404869e+002
2.019646e+002, 4.404196e+002
2.024467e+002, 4.408029e+002
2.029288e+002, 4.418533e+002
2.034109e+002, 4.434795e+002
2.038930e+002, 4.439831e+002
2.043752e+002, 4.422919e+002
2.048573e+002, 4.405068e+002
2.053394e+002, 4.393447e+002
2.058215e+002, 4.387408e+002
2.063036e+002, 4.384027e+002
2.067857e+002, 4.381588e+002
2.072679e+002, 4.380230e+002
2.077500e+002, 4.377153e+002
2.082321e+002, 4.368903e+002
2.087142e+002, 4.362014e+002
2.091963e+002, 4.361735e+002
2.096784e+002, 4.365213e+002
2.101606e+002, 4.364507e+002
2.106427e+002, 4.351035e+002
2.111248e+002, 4.322204e+002
2.116069e+002, 4.304557e+002
2.120890e+002, 4.302113e+002
2.125711e+002, 4.305769e+002
2.130533e+002, 4.319193e+002
2.135354e+002, 4.337288e+002
2.140175e+002, 4.347659e+002
2.144996e+002, 4.338171e+002
2.149817e+002, 4.305703e+002
2.154638e+002, 4.273517e+002
2.159460e+002, 4.236430e+002
2.164281e+002, 4.203879e+002
2.169102e+002, 4.180209e+002
2.173923e+002, 4.165506e+002
2.178744e+002, 4.158684e+002
2.183565e+002, 4.161568e+002
2.188387e+002, 4.176725e+002
2.193208e+002, 4.170016e+002
2.198029e+002, 4.118845e+002
2.202850e+002, 4.066795e+002
2.207671e+002, 4.044272e+002
2.212492e+002, 4.050128e+002
2.217314e+002, 4.058806e+002
2.222135e+002, 4.047802e+002
2.226956e+002, 4.015421e+002
2.231777e+002, 3.990128e+002
2.236598e+002, 3.968500e+002
2.241419e+002, 3.956111e+002
2.246240e+002, 3.963267e+002
2.251062e+002, 3.989109e+002
2.255883e+002, 4.012970e+002
2.260704e+002, 4.016864e+002
2.265525e+002, 4.002505e+002
2.270346e+002, 3.990340e+002
2.275167e+002, 3.983266e+002
2.279989e+002, 3.977831e+002
2.284810e+002, 3.972047e+002
2.289631e+002, 3.965919e+002
2.294452e+002, 3.956607e+002
2.299273e+002, 3.935529e+002
2.304094e+002, 3.909912e+002
2.308916e+002, 3.899830e+002
2.313737e+002, 3.921942e+002
2.318558e+002, 3.953747e+002
2.323379e+002, 3.969869e+002
2.328200e+002, 3.968825e+002
2.333021e+002, 3.962455e+002
2.337843e+002, 3.955774e+002
2.342664e+002, 3.948909e+002
2.347485e+002, 3.942466e+002
2.352306e+002, 3.939632e+002
2.357127e+002, 3.934697e+002
2.361948e+002, 3.915927e+002
2.366770e+002, 3.878198e+002
2.371591e+002, 3.847621e+002
2.376412e+002, 3.841177e+002
2.381233e+002, 3.848279e+002
2.386054e+002, 3.860371e+002
2.390875e+002, 3.878378e+002
2.395697e+002, 3.895114e+002
2.400518e+002, 3.896476e+002
2.405339e+002, 3.876711e+002
2.410160e+002, 3.860035e+002
2.414981e+002, 3.860741e+002
2.419802e+002, 3.866919e+002
2.424624e+002, 3.866654e+002
2.429445e+002, 3.854815e+002
2.434266e+002, 3.838349e+002
2.439087e+002, 3.830303e+002
2.443908e+002, 3.835158e+002
2.448729e+002, 3.836108e+002
2.453550e+002, 3.826773e+002
2.458372e+002, 3.812833e+002
2.463193e+002, 3.797374e+002
2.468014e+002, 3.781107e+002
2.472835e+002, 3.767192e+002
2.477656e+002, 3.762555e+002
2.482477e+002, 3.773413e+002
2.487299e+002, 3.778540e+002
2.492120e+002, 3.772806e+002
2.496941e+002, 3.761602e+002
2.501762e+002, 3.746725e+002
2.506583e+002, 3.729052e+002
2.511404e+002, 3.712721e+002
2.516226e+002, 3.705726e+002
2.521047e+002, 3.714307e+002
2.525868e+002, 3.718216e+002
2.530689e+002, 3.715267e+002
2.535510e+002, 3.708154e+002
2.540331e+002, 3.697598e+002
2.545153e+002, 3.684217e+002
2.549974e+002, 3.669878e+002
2.554795e+002, 3.656616e+002
2.559616e+002, 3.641847e+002
2.564437e+002, 3.634633e+002
2.569258e+002, 3.641388e+002
2.574080e+002, 3.649736e+002
2.578901e+002, 3.651362e+002
2.583722e+002, 3.644919e+002
2.588543e+002, 3.634938e+002
2.593364e+002, 3.627672e+002
2.598185e+002, 3.625376e+002
2.603007e+002, 3.619953e+002
2.607828e+002, 3.609503e+002
2.612649e+002, 3.598035e+002
2.617470e+002, 3.585262e+002
2.622291e+002, 3.572678e+002
2.627112e+002, 3.565650e+002
2.631934e+002, 3.571693e+002
2.636755e+002, 3.597292e+002
2.641576e+002, 3.612006e+002
2.646397e+002, 3.616242e+002
2.651218e+002, 3.611753e+002
2.656039e+002, 3.592451e+002
2.660861e+002, 3.562622e+002
2.665682e+002, 3.537768e+002
2.670503e+002, 3.534782e+002
2.675324e+002, 3.559210e+002
2.680145e+002, 3.569736e+002
2.684966e+002, 3.563346e+002
2.689788e+002, 3.549095e+002
2.694609e+002, 3.523933e+002
2.699430e+002, 3.492938e+002
2.704251e+002, 3.471275e+002
2.709072e+002, 3.473904e+002
2.713893e+002, 3.502323e+002
2.718715e+002, 3.508810e+002
2.723536e+002, 3.475722e+002
2.728357e+002, 3.443030e+002
2.733178e+002, 3.428593e+002
2.737999e+002, 3.428877e+002
2.742820e+002, 3.432256e+002
2.747642e+002, 3.431913e+002
2.752463e+002, 3.427549e+002
2.757284e+002, 3.414708e+002
2.762105e+002, 3.381309e+002
2.766926e+002, 3.354383e+002
2.771747e+002, 3.347058e+002
2.776568e+002, 3.353097e+002
2.781389e+002, 3.357748e+002
2.786211e+002, 3.352402e+002
2.791032e+002, 3.340460e+002
2.795853e+002, 3.336938e+002
2.800674e+002, 3.346457e+002
2.805495e+002, 3.357021e+002
2.810316e+002, 3.368076e+002
2.815138e+002, 3.377919e+002
2.819959e+002, 3.383846e+002
2.824780e+002, 3.384879e+002
2.829601e+002, 3.380809e+002
2.834422e+002, 3.369539e+002
2.839243e+002, 3.343485e+002
2.844065e+002, 3.325307e+002
2.848886e+002, 3.324100e+002
2.853707e+002, 3.332370e+002
2.858528e+002, 3.338887e+002
2.863349e+002, 3.339770e+002
2.868170e+002, 3.339430e+002
2.872992e+002, 3.347199e+002
2.877813e+002, 3.368258e+002
2.882634e+002, 3.379352e+002
2.887455e+002, 3.371642e+002
2.892276e+002, 3.354044e+002
2.897097e+002, 3.334116e+002
2.901919e+002, 3.313161e+002
2.906740e+002, 3.297917e+002
2.911561e+002, 3.299017e+002
2.916382e+002, 3.319024e+002
2.921203e+002, 3.335725e+002
2.926024e+002, 3.349237e+002
2.930846e+002, 3.357211e+002
2.935667e+002, 3.355116e+002
2.940488e+002, 3.342579e+002
2.945309e+002, 3.327711e+002
2.950130e+002, 3.317118e+002
2.954951e+002, 3.311186e+002
2.959773e+002, 3.308173e+002
2.964594e+002, 3.311928e+002
2.969415e+002, 3.315749e+002
2.974236e+002, 3.310568e+002
2.979057e+002, 3.297534e+002
2.983878e+002, 3.292338e+002
2.988700e+002, 3.311075e+002
2.993521e+002, 3.347666e+002
2.998342e+002, 3.363526e+002
3.003163e+002, 3.341002e+002
3.007984e+002, 3.314204e+002
3.012805e+002, 3.304052e+002
3.017627e+002, 3.307420e+002
3.022448e+002, 3.308748e+002
3.027269e+002, 3.299086e+002
3.032090e+002, 3.282404e+002
3.036911e+002, 3.270434e+002
3.041732e+002, 3.261092e+002
3.046554e+002, 3.258748e+002
3.051375e+002, 3.269970e+002
3.056196e+002, 3.290023e+002
3.061017e+002, 3.307533e+002
3.065838e+002, 3.319297e+002
3.070659e+002, 3.324521e+002
3.075481e+002, 3.318477e+002
3.080302e+002, 3.296904e+002
3.085123e+002, 3.282514e+002
3.089944e+002, 3.287476e+002
3.094765e+002, 3.303383e+002
3.099586e+002, 3.317232e+002
3.104408e+002, 3.326380e+002
3.109229e+002, 3.329932e+002
3.114050e+002, 3.323853e+002
3.118871e+002, 3.307785e+002
3.123692e+002, 3.294787e+002
3.128513e+002, 3.286778e+002
3.133335e+002, 3.283438e+002
3.138156e+002, 3.286753e+002
3.142977e+002, 3.297334e+002
3.147798e+002, 3.306349e+002
3.152619e+002, 3.303177e+002
3.157440e+002, 3.288988e+002
3.162262e+002, 3.282591e+002
3.167083e+002, 3.295277e+002
3.171904e+002, 3.309374e+002
3.176725e+002, 3.307458e+002
3.181546e+002, 3.290210e+002
3.186367e+002, 3.274335e+002
3.191188e+002, 3.271081e+002
3.196010e+002, 3.278664e+002
3.200831e+002, 3.284967e+002
3.205652e+002, 3.287059e+002
3.210473e+002, 3.290831e+002
3.215294e+002, 3.301762e+002
3.220115e+002, 3.317636e+002
3.224937e+002, 3.330351e+002
3.229758e+002, 3.335221e+002
3.234579e+002, 3.335630e+002
3.239400e+002, 3.340896e+002
3.244221e+002, 3.355490e+002
3.249042e+002, 3.364827e+002
3.253864e+002, 3.358061e+002
3.258685e+002, 3.343350e+002
3.263506e+002, 3.337431e+002
3.268327e+002, 3.346844e+002
3.273148e+002, 3.361563e+002
3.277969e+002, 3.363792e+002
3.282791e+002, 3.350054e+002
3.287612e+002, 3.345727e+002
3.292433e+002, 3.366484e+002
3.297254e+002, 3.393993e+002
3.302075e+002, 3.405252e+002
3.306896e+002, 3.396295e+002
3.311718e+002, 3.381849e+002
3.316539e+002, 3.376778e+002
3.321360e+002, 3.382003e+002
3.326181e+002, 3.382294e+002
3.331002e+002, 3.378121e+002
3.335823e+002, 3.368175e+002
3.340645e+002, 3.344908e+002
3.345466e+002, 3.311401e+002
3.350287e+002, 3.287344e+002
3.355108e+002, 3.289136e+002
3.359929e+002, 3.312634e+002
3.364750e+002, 3.324685e+002
3.369572e+002, 3.317537e+002
3.374393e+002, 3.308666e+002
3.379214e+002, 3.313023e+002
3.384035e+002, 3.321571e+002
3.388856e+002, 3.309085e+002
3.393677e+002, 3.260444e+002
3.398499e+002, 3.191843e+002
3.403320e+002, 3.147932e+002
3.408141e+002, 3.136574e+002
3.412962e+002, 3.130978e+002
3.417783e+002, 3.133341e+002
3.422604e+002, 3.136143e+002
3.427426e+002, 3.126700e+002
3.432247e+002, 3.101404e+002
3.437068e+002, 3.072989e+002
3.441889e+002, 3.060361e+002
3.446710e+002, 3.073080e+002
3.451531e+002, 3.073564e+002
3.456353e+002, 3.050608e+002
3.461174e+002, 3.023023e+002
3.465995e+002, 3.004511e+002
3.470816e+002, 2.996396e+002
3.475637e+002, 2.993287e+002
3.480458e+002, 2.991283e+002
3.485280e+002, 2.990518e+002
3.490101e+002, 2.986648e+002
3.494922e+002, 2.980970e+002
3.499743e+002, 2.971572e+002
3.504564e+002, 2.953090e+002
3.509385e+002, 2.930190e+002
3.514207e+002, 2.913588e+002
3.519028e+002, 2.910109e+002
3.523849e+002, 2.916612e+002
3.528670e+002, 2.919671e+002
3.533491e+002, 2.917649e+002
3.538312e+002, 2.914257e+002
3.543134e+002, 2.906989e+002
3.547955e+002, 2.899738e+002
3.552776e+002, 2.897643e+002
3.557597e+002, 2.902395e+002
3.562418e+002, 2.910797e+002
3.567239e+002, 2.918493e+002
3.572061e+002, 2.932998e+002
3.576882e+002, 2.929309e+002
3.581703e+002, 2.889310e+002
3.586524e+002, 2.846371e+002
3.591345e+002, 2.823037e+002
3.596166e+002, 2.820918e+002
3.600987e+002, 2.829147e+002
3.605808e+002, 2.838156e+002
3.610630e+002, 2.848456e+002
3.615451e+002, 2.854279e+002
3.620272e+002, 2.853545e+002
3.625093e+002, 2.850825e+002
3.629914e+002, 2.846956e+002
3.634735e+002, 2.842239e+002
3.639557e+002, 2.837461e+002
3.644378e+002, 2.833356e+002
3.649199e+002, 2.828764e+002
3.654020e+002, 2.817939e+002
3.658841e+002, 2.786650e+002
3.663662e+002, 2.769518e+002
3.668484e+002, 2.779896e+002
3.673305e+002, 2.800806e+002
3.678126e+002, 2.817798e+002
3.682947e+002, 2.825651e+002
3.687768e+002, 2.825228e+002
3.692589e+002, 2.815815e+002
3.697411e+002, 2.791576e+002
3.702232e+002, 2.774449e+002
3.707053e+002, 2.762309e+002
3.711874e+002, 2.759160e+002
3.716695e+002, 2.776727e+002
3.721516e+002, 2.808568e+002
3.726338e+002, 2.830749e+002
3.731159e+002, 2.815817e+002
3.735980e+002, 2.765598e+002
3.740801e+002, 2.742910e+002
3.745622e+002, 2.775400e+002
3.750443e+002, 2.802387e+002
3.755265e+002, 2.799211e+002
3.760086e+002, 2.778812e+002
3.764907e+002, 2.761528e+002
3.769728e+002, 2.757260e+002
3.774549e+002, 2.761388e+002
3.779370e+002, 2.764493e+002
3.784192e+002, 2.767373e+002
3.789013e+002, 2.766849e+002
3.793834e+002, 2.760920e+002
3.798655e+002, 2.752001e+002
3.803476e+002, 2.740313e+002
3.808297e+002, 2.726018e+002
3.813119e+002, 2.713338e+002
3.817940e+002, 2.707663e+002
3.822761e+002, 2.708825e+002
3.827582e+002, 2.708496e+002
3.832403e+002, 2.702707e+002
3.837224e+002, 2.698926e+002
3.842046e+002, 2.704416e+002
3.846867e+002, 2.716481e+002
3.851688e+002, 2.725456e+002
3.856509e+002, 2.726905e+002
3.861330e+002, 2.721478e+002
3.866151e+002, 2.707705e+002
3.870973e+002, 2.681913e+002
3.875794e+002, 2.661184e+002
3.880615e+002, 2.659804e+002
3.885436e+002, 2.668499e+002
3.890257e+002, 2.674948e+002
3.895078e+002, 2.676905e+002
3.899900e+002, 2.676029e+002
3.904721e+002, 2.672684e+002
3.909542e+002, 2.667219e+002
3.914363e+002, 2.663134e+002
3.919184e+002, 2.663497e+002
3.924005e+002, 2.663190e+002
3.928827e+002, 2.652798e+002
3.933648e+002, 2.631110e+002
3.938469e+002, 2.615458e+002
3.943290e+002, 2.616825e+002
3.948111e+002, 2.627116e+002
3.952932e+002, 2.633586e+002
3.957754e+002, 2.634281e+002
3.962575e+002, 2.633651e+002
3.967396e+002, 2.636457e+002
3.972217e+002, 2.641961e+002
3.977038e+002, 2.642661e+002
3.981859e+002, 2.633859e+002
3.986681e+002, 2.624014e+002
3.991501e+002, 2.620434e+002
3.996323e+002, 2.620988e+002
4.001144e+002, 2.616229e+002
4.005965e+002, 2.599548e+002
4.010786e+002, 2.577534e+002
4.015607e+002, 2.570741e+002
4.020428e+002, 2.589153e+002
4.025250e+002, 2.602636e+002
4.030071e+002, 2.602669e+002
4.034892e+002, 2.596591e+002
4.039713e+002, 2.593163e+002
4.044534e+002, 2.594259e+002
4.049355e+002, 2.594855e+002
4.054177e+002, 2.587640e+002
4.058998e+002, 2.568498e+002
4.063819e+002, 2.563933e+002
4.068640e+002, 2.592436e+002
4.073461e+002, 2.616082e+002
4.078282e+002, 2.609074e+002
4.083104e+002, 2.581363e+002
4.087925e+002, 2.561146e+002
4.092746e+002, 2.566749e+002
4.097567e+002, 2.591625e+002
4.102388e+002, 2.605565e+002
4.107209e+002, 2.601274e+002
4.112031e+002, 2.594474e+002
4.116852e+002, 2.583391e+002
4.121673e+002, 2.572111e+002
4.126494e+002, 2.564925e+002
4.131315e+002, 2.562703e+002
4.136136e+002, 2.562382e+002
4.140958e+002, 2.559471e+002
4.145779e+002, 2.552495e+002
4.150600e+002, 2.548855e+002
4.155421e+002, 2.549555e+002
4.160242e+002, 2.552827e+002
4.165063e+002, 2.560492e+002
4.169885e+002, 2.570356e+002
4.174706e+002, 2.577169e+002
4.179527e+002, 2.576404e+002
4.184348e+002, 2.571306e+002
4.189169e+002, 2.574730e+002
4.193990e+002, 2.593745e+002
4.198812e+002, 2.605358e+002
4.203633e+002, 2.596011e+002
4.208454e+002, 2.580001e+002
4.213275e+002, 2.571091e+002
4.218096e+002, 2.572746e+002
4.222917e+002, 2.575883e+002
4.227739e+002, 2.568485e+002
4.232560e+002, 2.551435e+002
4.237381e+002, 2.543806e+002
4.242202e+002, 2.553084e+002
4.247023e+002, 2.566178e+002
4.251844e+002, 2.573899e+002
4.256666e+002, 2.576984e+002
4.261487e+002, 2.577988e+002
4.266308e+002, 2.576966e+002
4.271129e+002, 2.574926e+002
4.275950e+002, 2.573867e+002
4.280771e+002, 2.573941e+002
4.285593e+002, 2.571951e+002
4.290414e+002, 2.563348e+002
4.295235e+002, 2.553216e+002
4.300056e+002, 2.552732e+002
4.304877e+002, 2.566375e+002
4.309698e+002, 2.579582e+002
4.314520e+002, 2.584402e+002
4.319341e+002, 2.583812e+002
4.324162e+002, 2.583401e+002
4.328983e+002, 2.584447e+002
4.333804e+002, 2.586723e+002
4.338625e+002, 2.591300e+002
4.343447e+002, 2.599013e+002
4.348268e+002, 2.599490e+002
4.353089e+002, 2.579529e+002
4.357910e+002, 2.563154e+002
4.362731e+002, 2.571599e+002
4.367552e+002, 2.598737e+002
4.372374e+002, 2.621732e+002
4.377195e+002, 2.626984e+002
4.382016e+002, 2.618827e+002
4.386837e+002, 2.613593e+002
4.391658e+002, 2.611230e+002
4.396479e+002, 2.611992e+002
4.401301e+002, 2.617115e+002
4.406122e+002, 2.624699e+002
4.410943e+002, 2.635491e+002
4.415764e+002, 2.648321e+002
4.420585e+002, 2.656911e+002
4.425406e+002, 2.652248e+002
4.430227e+002, 2.630963e+002
4.435049e+002, 2.621100e+002
4.439870e+002, 2.632059e+002
4.444691e+002, 2.644933e+002
4.449512e+002, 2.656575e+002
4.454333e+002, 2.665728e+002
4.459154e+002, 2.671248e+002
4.463976e+002, 2.672358e+002
4.468797e+002, 2.670060e+002
4.473618e+002, 2.664938e+002
4.478439e+002, 2.653340e+002
4.483260e+002, 2.649902e+002
4.488081e+002, 2.666553e+002
4.492903e+002, 2.685502e+002
4.497724e+002, 2.694844e+002
4.502545e+002, 2.694420e+002
4.507366e+002, 2.693037e+002
4.512187e+002, 2.697164e+002
4.517008e+002, 2.705851e+002
4.521830e+002, 2.716431e+002
4.526651e+002, 2.731647e+002
4.531472e+002, 2.741579e+002
4.536293e+002, 2.730668e+002
4.541114e+002, 2.713061e+002
4.545935e+002, 2.711115e+002
4.550757e+002, 2.736568e+002
4.555578e+002, 2.764779e+002
4.560399e+002, 2.776485e+002
4.565220e+002, 2.773753e+002
4.570041e+002, 2.762560e+002
4.574862e+002, 2.739074e+002
4.579684e+002, 2.719501e+002
4.584505e+002, 2.731676e+002
4.589326e+002, 2.775287e+002
4.594147e+002, 2.809008e+002
4.598968e+002, 2.825474e+002
4.603789e+002, 2.829034e+002
4.608611e+002, 2.816624e+002
4.613432e+002, 2.792161e+002
4.618253e+002, 2.772771e+002
4.623074e+002, 2.768659e+002
4.627895e+002, 2.777874e+002
4.632716e+002, 2.792672e+002
4.637538e+002, 2.823559e+002
4.642359e+002, 2.845967e+002
4.647180e+002, 2.853654e+002
4.652001e+002, 2.853607e+002
4.656822e+002, 2.850516e+002
4.661643e+002, 2.846474e+002
4.666465e+002, 2.844965e+002
4.671286e+002, 2.849977e+002
4.676107e+002, 2.862095e+002
4.680928e+002, 2.875509e+002
4.685749e+002, 2.894799e+002
4.690570e+002, 2.910397e+002
4.695392e+002, 2.915955e+002
4.700213e+002, 2.917137e+002
4.705034e+002, 2.923275e+002
4.709855e+002, 2.938719e+002
4.714676e+002, 2.956959e+002
4.719497e+002, 2.964941e+002
4.724319e+002, 2.959103e+002
4.729140e+002, 2.958662e+002
4.733961e+002, 2.968786e+002
4.738782e+002, 2.983317e+002
4.743603e+002, 3.000947e+002
4.748424e+002, 3.020381e+002
4.753246e+002, 3.038167e+002
4.758067e+002, 3.051133e+002
4.762888e+002, 3.061361e+002
4.767709e+002, 3.074495e+002
4.772530e+002, 3.091431e+002
4.777351e+002, 3.104918e+002
4.782173e+002, 3.106780e+002
4.786994e+002, 3.105914e+002
4.791815e+002, 3.119428e+002
4.796636e+002, 3.154872e+002
4.801457e+002, 3.179274e+002
4.806278e+002, 3.165170e+002
4.811100e+002, 3.131577e+002
4.815920e+002, 3.114444e+002
4.820742e+002, 3.120513e+002
4.825563e+002, 3.131685e+002
4.830384e+002, 3.131172e+002
4.835205e+002, 3.119335e+002
4.840026e+002, 3.116245e+002
4.844847e+002, 3.126857e+002
4.849669e+002, 3.140190e+002
4.854490e+002, 3.156783e+002
4.859311e+002, 3.172042e+002
4.864132e+002, 3.176560e+002
4.868953e+002, 3.166970e+002
4.873774e+002, 3.151832e+002
4.878596e+002, 3.146316e+002
4.883417e+002, 3.158900e+002
4.888238e+002, 3.157259e+002
4.893059e+002, 3.131865e+002
4.897880e+002, 3.103901e+002
4.902701e+002, 3.083356e+002
4.907523e+002, 3.068680e+002
4.912344e+002, 3.054520e+002
4.917165e+002, 3.038006e+002
4.921986e+002, 3.019108e+002
4.926807e+002, 2.996201e+002
4.931628e+002, 2.965136e+002
4.936450e+002, 2.941748e+002
4.941271e+002, 2.940349e+002
4.946092e+002, 2.939969e+002
4.950913e+002, 2.925436e+002
4.955734e+002, 2.896731e+002
4.960555e+002, 2.865640e+002
4.965377e+002, 2.840227e+002
4.970198e+002, 2.818781e+002
4.975019e+002, 2.797602e+002
4.979840e+002, 2.777196e+002
4.984661e+002, 2.753629e+002
4.989482e+002, 2.718070e+002
4.994304e+002, 2.680472e+002
4.999125e+002, 2.661791e+002
5.003946e+002, 2.672903e+002
5.008767e+002, 2.678635e+002
5.013588e+002, 2.652720e+002
5.018409e+002, 2.611971e+002
5.023231e+002, 2.589550e+002
5.028052e+002, 2.592512e+002
5.032873e+002, 2.596286e+002
5.037694e+002, 2.576027e+002
5.042515e+002, 2.530466e+002
5.047336e+002, 2.495937e+002
5.052158e+002, 2.475833e+002
5.056979e+002, 2.461560e+002
5.061800e+002, 2.454861e+002
5.066621e+002, 2.450573e+002
5.071442e+002, 2.440872e+002
5.076263e+002, 2.423075e+002
5.081085e+002, 2.401388e+002
5.085906e+002, 2.381716e+002
5.090727e+002, 2.363105e+002
5.095548e+002, 2.349900e+002
5.100369e+002, 2.349599e+002
5.105190e+002, 2.347227e+002
5.110012e+002, 2.332831e+002
5.114833e+002, 2.312722e+002
5.119654e+002, 2.299811e+002
5.124475e+002, 2.301434e+002
5.129296e+002, 2.310260e+002
5.134117e+002, 2.314250e+002
5.138939e+002, 2.313447e+002
5.143760e+002, 2.307126e+002
5.148581e+002, 2.290253e+002
5.153402e+002, 2.272590e+002
5.158223e+002, 2.264317e+002
5.163044e+002, 2.263718e+002
5.167866e+002, 2.259015e+002
5.172687e+002, 2.240062e+002
5.177508e+002, 2.217286e+002
5.182329e+002, 2.204940e+002
5.187150e+002, 2.202529e+002
5.191971e+002, 2.200254e+002
5.196793e+002, 2.192936e+002
5.201614e+002, 2.183654e+002
5.206435e+002, 2.179500e+002
5.211256e+002, 2.180500e+002
5.216077e+002, 2.184916e+002
5.220898e+002, 2.198703e+002
5.225720e+002, 2.211440e+002
5.230541e+002, 2.213386e+002
5.235362e+002, 2.204722e+002
5.240183e+002, 2.190359e+002
5.245004e+002, 2.172592e+002
5.249825e+002, 2.153830e+002
5.254647e+002, 2.146838e+002
5.259468e+002, 2.163662e+002
5.264289e+002, 2.175463e+002
5.269110e+002, 2.174911e+002
5.273931e+002, 2.171988e+002
5.278752e+002, 2.176128e+002
5.283574e+002, 2.187470e+002
5.288395e+002, 2.198179e+002
5.293216e+002, 2.201890e+002
5.298037e+002, 2.199082e+002
5.302858e+002, 2.192110e+002
5.307679e+002, 2.179764e+002
5.312501e+002, 2.166086e+002
5.317322e+002, 2.147913e+002
5.322143e+002, 2.131688e+002
5.326964e+002, 2.124256e+002
5.331785e+002, 2.126957e+002
5.336606e+002, 2.136471e+002
5.341428e+002, 2.158205e+002
5.346249e+002, 2.183754e+002
5.351070e+002, 2.192050e+002
5.355891e+002, 2.179199e+002
5.360712e+002, 2.165546e+002
5.365533e+002, 2.167060e+002
5.370355e+002, 2.181087e+002
5.375176e+002, 2.189768e+002
5.379997e+002, 2.193591e+002
5.384818e+002, 2.192102e+002
5.389639e+002, 2.180412e+002
5.394460e+002, 2.165521e+002
5.399282e+002, 2.154699e+002
5.404103e+002, 2.150053e+002
5.408924e+002, 2.152381e+002
5.413745e+002, 2.163696e+002
5.418566e+002, 2.184397e+002
5.423387e+002, 2.200424e+002
5.428209e+002, 2.214364e+002
5.433029e+002, 2.219693e+002
5.437850e+002, 2.204638e+002
5.442672e+002, 2.185354e+002
5.447493e+002, 2.181351e+002
5.452314e+002, 2.197362e+002
5.457135e+002, 2.219874e+002
5.461956e+002, 2.235888e+002
5.466777e+002, 2.245620e+002
5.471599e+002, 2.249468e+002
5.476420e+002, 2.243405e+002
5.481241e+002, 2.240071e+002
5.486062e+002, 2.252032e+002
5.490883e+002, 2.270965e+002
5.495704e+002, 2.283643e+002
5.500526e+002, 2.286823e+002
5.505347e+002, 2.285704e+002
5.510168e+002, 2.279961e+002
5.514989e+002, 2.272898e+002
5.519810e+002, 2.271348e+002
5.524631e+002, 2.276751e+002
5.529453e+002, 2.287334e+002
5.534274e+002, 2.303153e+002
5.539095e+002, 2.324266e+002
5.543916e+002, 2.336340e+002
5.548737e+002, 2.336247e+002
5.553558e+002, 2.332354e+002
5.558380e+002, 2.321554e+002
5.563201e+002, 2.310653e+002
5.568022e+002, 2.308662e+002
5.572843e+002, 2.317434e+002
5.577664e+002, 2.330904e+002
5.582485e+002, 2.342420e+002
5.587307e+002, 2.351822e+002
5.592128e+002, 2.362287e+002
5.596949e+002, 2.376551e+002
5.601770e+002, 2.387647e+002
5.606591e+002, 2.392891e+002
5.611412e+002, 2.394294e+002
5.616234e+002, 2.393443e+002
5.621055e+002, 2.390437e+002
5.625876e+002, 2.388481e+002
5.630697e+002, 2.392170e+002
5.635518e+002, 2.399285e+002
5.640339e+002, 2.400942e+002
5.645161e+002, 2.394671e+002
5.649982e+002, 2.390499e+002
5.654803e+002, 2.396320e+002
5.659624e+002, 2.410393e+002
5.664445e+002, 2.423524e+002
5.669266e+002, 2.438370e+002
5.674088e+002, 2.448544e+002
5.678909e+002, 2.448572e+002
5.683730e+002, 2.444277e+002
5.688551e+002, 2.441829e+002
5.693372e+002, 2.442823e+002
5.698193e+002, 2.448256e+002
5.703015e+002, 2.460401e+002
5.707836e+002, 2.478434e+002
5.712657e+002, 2.485728e+002
5.717478e+002, 2.477652e+002
5.722299e+002, 2.464202e+002
5.727120e+002, 2.436853e+002
5.731942e+002, 2.411274e+002
5.736763e+002, 2.406467e+002
5.741584e+002, 2.422882e+002
5.746405e+002, 2.438458e+002
5.751226e+002, 2.429666e+002
5.756047e+002, 2.403506e+002
5.760869e+002, 2.389712e+002
5.765690e+002, 2.390327e+002
5.770511e+002, 2.395250e+002
5.775332e+002, 2.405193e+002
5.780153e+002, 2.413347e+002
5.784974e+002, 2.408552e+002
5.789796e+002, 2.388159e+002
5.794617e+002, 2.366033e+002
5.799438e+002, 2.341065e+002
5.804259e+002, 2.320856e+002
5.809080e+002, 2.318197e+002
5.813901e+002, 2.331109e+002
5.818723e+002, 2.343331e+002
5.823544e+002, 2.345235e+002
5.828365e+002, 2.337641e+002
5.833186e+002, 2.322934e+002
5.838007e+002, 2.289167e+002
5.842828e+002, 2.266715e+002
5.847650e+002, 2.263577e+002
5.852471e+002, 2.264806e+002
5.857292e+002, 2.260099e+002
5.862113e+002, 2.250664e+002
5.866934e+002, 2.244315e+002
5.871755e+002, 2.247232e+002
5.876577e+002, 2.253844e+002
5.881398e+002, 2.249819e+002
5.886219e+002, 2.233073e+002
5.891040e+002, 2.219805e+002
5.895861e+002, 2.213827e+002
5.900682e+002, 2.212815e+002
5.905504e+002, 2.216529e+002
5.910325e+002, 2.223896e+002
5.915146e+002, 2.227715e+002
5.919967e+002, 2.223064e+002
5.924788e+002, 2.216298e+002
5.929609e+002, 2.214860e+002
5.934431e+002, 2.215948e+002
5.939252e+002, 2.209733e+002
5.944073e+002, 2.192210e+002
5.948894e+002, 2.170994e+002
5.953715e+002, 2.156502e+002
5.958536e+002, 2.149804e+002
5.963358e+002, 2.145256e+002
5.968179e+002, 2.146208e+002
5.973000e+002, 2.145285e+002
5.977821e+002, 2.135167e+002
5.982642e+002, 2.123250e+002
5.987463e+002, 2.122192e+002
5.992285e+002, 2.135881e+002
5.997106e+002, 2.151847e+002
6.001927e+002, 2.153147e+002
6.006748e+002, 2.140462e+002
6.011569e+002, 2.133878e+002
6.016390e+002, 2.137993e+002
6.021212e+002, 2.140215e+002
6.026033e+002, 2.131349e+002
6.030854e+002, 2.116556e+002
6.035675e+002, 2.103040e+002
6.040496e+002, 2.091028e+002
6.045317e+002, 2.081987e+002
6.050139e+002, 2.078430e+002
6.054960e+002, 2.077459e+002
6.059781e+002, 2.075096e+002
6.064602e+002, 2.070852e+002
6.069423e+002, 2.064680e+002
6.074244e+002, 2.055061e+002
6.079066e+002, 2.045104e+002
6.083887e+002, 2.049570e+002
6.088708e+002, 2.097068e+002
6.093529e+002, 2.117293e+002
6.098350e+002, 2.082381e+002
6.103171e+002, 2.040856e+002
6.107993e+002, 2.025946e+002
6.112814e+002, 2.036464e+002
6.117635e+002, 2.055206e+002
6.122456e+002, 2.074323e+002
6.127277e+002, 2.090050e+002
6.132098e+002, 2.092052e+002
6.136920e+002, 2.078873e+002
6.141741e+002, 2.069090e+002
6.146562e+002, 2.067398e+002
6.151383e+002, 2.070303e+002
6.156204e+002, 2.077635e+002
6.161025e+002, 2.087930e+002
6.165847e+002, 2.090758e+002
6.170668e+002, 2.078407e+002
6.175489e+002, 2.063534e+002
6.180310e+002, 2.050757e+002
6.185131e+002, 2.041970e+002
6.189952e+002, 2.042408e+002
6.194774e+002, 2.053285e+002
6.199595e+002, 2.066849e+002
6.204416e+002, 2.073868e+002
6.209237e+002, 2.073877e+002
6.214058e+002, 2.074907e+002
6.218879e+002, 2.078902e+002
6.223701e+002, 2.081523e+002
6.228522e+002, 2.081771e+002
6.233343e+002, 2.080307e+002
6.238164e+002, 2.076194e+002
6.242985e+002, 2.069873e+002
6.247806e+002, 2.066723e+002
6.252628e+002, 2.075779e+002
6.257448e+002, 2.090703e+002
6.262269e+002, 2.090054e+002
6.267090e+002, 2.071353e+002
6.271912e+002, 2.063359e+002
6.276733e+002, 2.083999e+002
6.281554e+002, 2.118301e+002
6.286375e+002, 2.138381e+002
6.291196e+002, 2.143198e+002
6.296017e+002, 2.143195e+002
6.300839e+002, 2.136963e+002
6.305660e+002, 2.129010e+002
6.310481e+002, 2.121090e+002
6.315302e+002, 2.114095e+002
6.320123e+002, 2.107888e+002
6.324944e+002, 2.102407e+002
6.329766e+002, 2.101856e+002
6.334587e+002, 2.116725e+002
6.339408e+002, 2.152676e+002
6.344229e+002, 2.175046e+002
6.349050e+002, 2.177796e+002
6.353871e+002, 2.173482e+002
6.358693e+002, 2.160694e+002
6.363514e+002, 2.147378e+002
6.368335e+002, 2.148961e+002
6.373156e+002, 2.173487e+002
6.377977e+002, 2.192747e+002
6.382798e+002, 2.173234e+002
6.387620e+002, 2.138680e+002
6.392441e+002, 2.138959e+002
6.397262e+002, 2.178589e+002
6.402083e+002, 2.221069e+002
6.406904e+002, 2.243936e+002
6.411725e+002, 2.250756e+002
6.416547e+002, 2.253410e+002
6.421368e+002, 2.247605e+002
6.426189e+002, 2.243806e+002
6.431010e+002, 2.240082e+002
6.435831e+002, 2.240030e+002
6.440652e+002, 2.247856e+002
6.445474e+002, 2.261214e+002
6.450295e+002, 2.274542e+002
6.455116e+002, 2.285081e+002
6.459937e+002, 2.293256e+002
6.464758e+002, 2.299469e+002
6.469579e+002, 2.303728e+002
6.474401e+002, 2.306968e+002
6.479222e+002, 2.309501e+002
6.484043e+002, 2.310671e+002
6.488864e+002, 2.310249e+002
6.493685e+002, 2.308016e+002
6.498506e+002, 2.302663e+002
6.503328e+002, 2.286302e+002
6.508149e+002, 2.278904e+002
6.512970e+002, 2.296472e+002
6.517791e+002, 2.322805e+002
6.522612e+002, 2.337581e+002
6.527433e+002, 2.339568e+002
6.532255e+002, 2.341046e+002
6.537076e+002, 2.351545e+002
6.541897e+002, 2.367600e+002
6.546718e+002, 2.375775e+002
6.551539e+002, 2.372055e+002
6.556360e+002, 2.370091e+002
6.561182e+002, 2.372213e+002
6.566003e+002, 2.376176e+002
6.570824e+002, 2.383329e+002
6.575645e+002, 2.391518e+002
6.580466e+002, 2.393795e+002
6.585287e+002, 2.381882e+002
6.590109e+002, 2.372174e+002
6.594930e+002, 2.382865e+002
6.599751e+002, 2.408056e+002
6.604572e+002, 2.433767e+002
6.609393e+002, 2.457184e+002
6.614214e+002, 2.472481e+002
6.619036e+002, 2.471867e+002
6.623857e+002, 2.457900e+002
6.628678e+002, 2.458170e+002
6.633499e+002, 2.491601e+002
6.638320e+002, 2.514318e+002
6.643141e+002, 2.514116e+002
6.647963e+002, 2.508445e+002
6.652784e+002, 2.511895e+002
6.657605e+002, 2.523531e+002
6.662426e+002, 2.532757e+002
6.667247e+002, 2.531892e+002
6.672068e+002, 2.526920e+002
6.676890e+002, 2.528856e+002
6.681711e+002, 2.537534e+002
6.686532e+002, 2.546835e+002
6.691353e+002, 2.554953e+002
6.696174e+002, 2.564392e+002
6.700995e+002, 2.577958e+002
6.705817e+002, 2.595320e+002
6.710638e+002, 2.611743e+002
6.715459e+002, 2.628949e+002
6.720280e+002, 2.642965e+002
6.725101e+002, 2.652032e+002
6.729922e+002, 2.657403e+002
6.734744e+002, 2.656231e+002
6.739565e+002, 2.651310e+002
6.744386e+002, 2.655811e+002
6.749207e+002, 2.682758e+002
6.754028e+002, 2.721633e+002
6.758849e+002, 2.734470e+002
6.763671e+002, 2.712959e+002
6.768492e+002, 2.702311e+002
6.773313e+002, 2.714082e+002
6.778134e+002, 2.736504e+002
6.782955e+002, 2.763943e+002
6.787776e+002, 2.794201e+002
6.792598e+002, 2.818998e+002
6.797419e+002, 2.833911e+002
6.802240e+002, 2.846200e+002
6.807061e+002, 2.858528e+002
6.811882e+002, 2.871596e+002
6.816703e+002, 2.885742e+002
6.821525e+002, 2.901408e+002
6.826346e+002, 2.921529e+002
6.831167e+002, 2.949256e+002
6.835988e+002, 2.982553e+002
6.840809e+002, 3.012282e+002
6.845630e+002, 3.040940e+002
6.850452e+002, 3.060428e+002
6.855273e+002, 3.054999e+002
6.860094e+002, 3.052902e+002
6.864915e+002, 3.077960e+002
6.869736e+002, 3.120394e+002
6.874557e+002, 3.148195e+002
6.879379e+002, 3.139354e+002
6.884200e+002, 3.129840e+002
6.889021e+002, 3.159049e+002
6.893842e+002, 3.210694e+002
6.898663e+002, 3.243711e+002
6.903484e+002, 3.251291e+002
6.908306e+002, 3.259563e+002
6.913127e+002, 3.290517e+002
6.917948e+002, 3.338270e+002
6.922769e+002, 3.373612e+002
6.927590e+002, 3.388672e+002
6.932411e+002, 3.403534e+002
6.937233e+002, 3.419207e+002
6.942054e+002, 3.434911e+002
6.946875e+002, 3.451266e+002
6.951696e+002, 3.467301e+002
6.956517e+002, 3.480629e+002
6.961339e+002, 3.489922e+002
6.966160e+002, 3.497151e+002
6.970981e+002, 3.506955e+002
6.975802e+002, 3.516726e+002
6.980623e+002, 3.515606e+002
6.985444e+002, 3.501363e+002
6.990266e+002, 3.485002e+002
6.995087e+002, 3.474186e+002
6.999908e+002, 3.467197e+002
7.004729e+002, 3.457757e+002
7.009550e+002, 3.447301e+002
7.014371e+002, 3.431914e+002
7.019193e+002, 3.409670e+002
7.024014e+002, 3.384191e+002
7.028835e+002, 3.357793e+002
7.033656e+002, 3.329936e+002
7.038477e+002, 3.298234e+002
7.043298e+002, 3.261638e+002
7.048120e+002, 3.223252e+002
7.052941e+002, 3.188568e+002
7.057762e+002, 3.156205e+002
7.062583e+002, 3.116230e+002
7.067404e+002, 3.065808e+002
7.072225e+002, 3.022870e+002
7.077046e+002, 3.001111e+002
7.081867e+002, 2.991201e+002
7.086688e+002, 2.968273e+002
7.091509e+002, 2.924097e+002
7.096331e+002, 2.888608e+002
7.101152e+002, 2.875357e+002
7.105973e+002, 2.859748e+002
7.110794e+002, 2.824493e+002
7.115615e+002, 2.777251e+002
7.120436e+002, 2.731600e+002
7.125258e+002, 2.692429e+002
7.130079e+002, 2.660361e+002
7.134900e+002, 2.640209e+002
7.139721e+002, 2.628712e+002
7.144542e+002, 2.604367e+002
7.149363e+002, 2.563776e+002
7.154185e+002, 2.529774e+002
7.159006e+002, 2.516908e+002
7.163827e+002, 2.512469e+002
7.168648e+002, 2.493237e+002
7.173469e+002, 2.455946e+002
7.178290e+002, 2.425598e+002
7.183112e+002, 2.409731e+002
7.187933e+002, 2.395526e+002
7.192754e+002, 2.375648e+002
7.197575e+002, 2.353841e+002
7.202396e+002, 2.335838e+002
7.207217e+002, 2.323103e+002
7.212039e+002, 2.312992e+002
7.216860e+002, 2.303926e+002
7.221681e+002, 2.295160e+002
7.226502e+002, 2.283640e+002
7.231323e+002, 2.269035e+002
7.236144e+002, 2.253788e+002
7.240966e+002, 2.238442e+002
7.245787e+002, 2.223183e+002
7.250608e+002, 2.208257e+002
7.255429e+002, 2.193564e+002
7.260250e+002, 2.179713e+002
7.265071e+002, 2.165905e+002
7.269893e+002, 2.153877e+002
7.274714e+002, 2.143517e+002
7.279535e+002, 2.135676e+002
7.284356e+002, 2.132874e+002
7.289177e+002, 2.134255e+002
7.293998e+002, 2.135270e+002
7.298820e+002, 2.133081e+002
7.303641e+002, 2.127466e+002
7.308462e+002, 2.115999e+002
7.313283e+002, 2.098340e+002
7.318104e+002, 2.085101e+002
7.322925e+002, 2.078287e+002
7.327747e+002, 2.076489e+002
7.332568e+002, 2.080924e+002
7.337389e+002, 2.089805e+002
7.342210e+002, 2.093868e+002
7.347031e+002, 2.093865e+002
7.351852e+002, 2.087919e+002
7.356674e+002, 2.071663e+002
7.361495e+002, 2.052455e+002
7.366316e+002, 2.032411e+002
7.371137e+002, 2.014890e+002
7.375958e+002, 2.007232e+002
7.380779e+002, 2.013591e+002
7.385601e+002, 2.025613e+002
7.390422e+002, 2.032148e+002
7.395243e+002, 2.033382e+002
7.400064e+002, 2.031076e+002
7.404885e+002, 2.025415e+002
7.409706e+002, 2.015732e+002
7.414528e+002, 2.000046e+002
7.419349e+002, 1.981270e+002
7.424170e+002, 1.965074e+002
7.428991e+002, 1.949889e+002
7.433812e+002, 1.942076e+002
7.438633e+002, 1.946727e+002
7.443455e+002, 1.954124e+002
7.448276e+002, 1.962570e+002
7.453097e+002, 1.969083e+002
7.457918e+002, 1.967231e+002
7.462739e+002, 1.956339e+002
7.467560e+002, 1.947890e+002
7.472382e+002, 1.958701e+002
7.477203e+002, 1.979659e+002
7.482024e+002, 1.979477e+002
7.486845e+002, 1.957559e+002
7.491666e+002, 1.939006e+002
7.496487e+002, 1.932394e+002
7.501309e+002, 1.931577e+002
7.506130e+002, 1.928428e+002
7.510951e+002, 1.922397e+002
7.515772e+002, 1.926768e+002
7.520593e+002, 1.963715e+002
7.525414e+002, 1.981423e+002
7.530236e+002, 1.948223e+002
7.535057e+002, 1.905640e+002
7.539878e+002, 1.893929e+002
7.544699e+002, 1.910925e+002
7.549520e+002, 1.927520e+002
7.554341e+002, 1.927678e+002
7.559163e+002, 1.918850e+002
7.563984e+002, 1.909556e+002
7.568805e+002, 1.900069e+002
7.573626e+002, 1.890514e+002
7.578447e+002, 1.880539e+002
7.583268e+002, 1.876997e+002
7.588090e+002, 1.887200e+002
7.592911e+002, 1.905136e+002
7.597732e+002, 1.910234e+002
7.602553e+002, 1.890710e+002
7.607374e+002, 1.879871e+002
7.612195e+002, 1.887793e+002
7.617017e+002, 1.893266e+002
7.621838e+002, 1.882284e+002
7.626659e+002, 1.863710e+002
7.631480e+002, 1.852631e+002
7.636301e+002, 1.853436e+002
7.641122e+002, 1.856198e+002
7.645944e+002, 1.850851e+002
7.650765e+002, 1.844239e+002
7.655586e+002, 1.850751e+002
7.660407e+002, 1.867652e+002
7.665228e+002, 1.877379e+002
7.670049e+002, 1.873039e+002
7.674871e+002, 1.860668e+002
7.679692e+002, 1.846080e+002
7.684513e+002, 1.828452e+002
7.689334e+002, 1.828585e+002
7.694155e+002, 1.862924e+002
7.698976e+002, 1.888129e+002
7.703798e+002, 1.890136e+002
7.708619e+002, 1.883542e+002
7.713440e+002, 1.879003e+002
7.718261e+002, 1.876180e+002
7.723082e+002, 1.869185e+002
7.727903e+002, 1.850409e+002
7.732725e+002, 1.834348e+002
7.737546e+002, 1.832344e+002
7.742367e+002, 1.839109e+002
7.747188e+002, 1.850134e+002
7.752009e+002, 1.862475e+002
7.756830e+002, 1.866461e+002
7.761652e+002, 1.854744e+002
7.766473e+002, 1.835371e+002
7.771294e+002, 1.828901e+002
7.776115e+002, 1.838195e+002
7.780936e+002, 1.840996e+002
7.785757e+002, 1.834007e+002
7.790579e+002, 1.823745e+002
7.795400e+002, 1.807348e+002
7.800221e+002, 1.792715e+002
7.805042e+002, 1.796106e+002
7.809863e+002, 1.823425e+002
7.814684e+002, 1.841467e+002
7.819506e+002, 1.834163e+002
7.824327e+002, 1.823215e+002
7.829148e+002, 1.824126e+002
7.833969e+002, 1.830486e+002
7.838790e+002, 1.828075e+002
7.843611e+002, 1.814616e+002
7.848433e+002, 1.804179e+002
7.853254e+002, 1.812284e+002
7.858075e+002, 1.831698e+002
7.862896e+002, 1.840936e+002
7.867717e+002, 1.839873e+002
7.872538e+002, 1.833257e+002
7.877360e+002, 1.819408e+002
7.882181e+002, 1.809143e+002
7.887002e+002, 1.814334e+002
7.891823e+002, 1.832705e+002
7.896644e+002, 1.844693e+002
7.901465e+002, 1.849570e+002
7.906286e+002, 1.849500e+002
7.911107e+002, 1.837298e+002
7.915928e+002, 1.826983e+002
7.920750e+002, 1.832573e+002
7.925571e+002, 1.846175e+002
7.930392e+002, 1.848813e+002
7.935213e+002, 1.832515e+002
7.940034e+002, 1.814722e+002
7.944855e+002, 1.813403e+002
7.949677e+002, 1.819891e+002
7.954498e+002, 1.813385e+002
7.959319e+002, 1.796394e+002
7.964140e+002, 1.796993e+002
7.968961e+002, 1.828501e+002
7.973782e+002, 1.863594e+002
7.978604e+002, 1.861273e+002
7.983425e+002, 1.818978e+002
7.988246e+002, 1.803024e+002
7.993067e+002, 1.834500e+002
7.997888e+002, 1.854027e+002
8.002709e+002, 1.833100e+002
8.007531e+002, 1.805829e+002
8.012352e+002, 1.800028e+002
8.017173e+002, 1.811478e+002
8.021994e+002, 1.815350e+002
8.026815e+002, 1.796245e+002
8.031636e+002, 1.781308e+002
8.036458e+002, 1.787528e+002
8.041279e+002, 1.803877e+002
8.046100e+002, 1.820941e+002
8.050921e+002, 1.835570e+002
8.055742e+002, 1.843815e+002
8.060563e+002, 1.843262e+002
8.065385e+002, 1.837863e+002
8.070206e+002, 1.832825e+002
8.075027e+002, 1.828278e+002
8.079848e+002, 1.826571e+002
8.084669e+002, 1.828359e+002
8.089490e+002, 1.830554e+002
8.094312e+002, 1.833479e+002
8.099133e+002, 1.833691e+002
8.103954e+002, 1.823575e+002
8.108775e+002, 1.799706e+002
8.113596e+002, 1.789131e+002
8.118417e+002, 1.803916e+002
8.123239e+002, 1.816451e+002
8.128060e+002, 1.817610e+002
8.132881e+002, 1.814370e+002
8.137702e+002, 1.813468e+002
8.142523e+002, 1.814894e+002
8.147344e+002, 1.813864e+002
8.152166e+002, 1.805144e+002
8.156987e+002, 1.799142e+002
8.161808e+002, 1.812727e+002
8.166629e+002, 1.835743e+002
8.171450e+002, 1.843792e+002
8.176271e+002, 1.835440e+002
8.181093e+002, 1.825800e+002
8.185914e+002, 1.823127e+002
8.190735e+002, 1.826292e+002
8.195556e+002, 1.835677e+002
8.200377e+002, 1.854791e+002
8.205198e+002, 1.856058e+002
8.210020e+002, 1.827386e+002
8.214841e+002, 1.803758e+002
8.219662e+002, 1.803743e+002
8.224483e+002, 1.811349e+002
8.229304e+002, 1.806796e+002
8.234125e+002, 1.790575e+002
8.238947e+002, 1.783134e+002
8.243768e+002, 1.795864e+002
8.248589e+002, 1.809362e+002
8.253410e+002, 1.815718e+002
8.258231e+002, 1.818143e+002
8.263052e+002, 1.821863e+002
8.267874e+002, 1.825667e+002
8.272695e+002, 1.821777e+002
8.277516e+002, 1.804263e+002
8.282337e+002, 1.784637e+002
8.287158e+002, 1.779884e+002
8.291979e+002, 1.787148e+002
8.296801e+002, 1.795409e+002
8.301622e+002, 1.803663e+002
8.306443e+002, 1.811228e+002
8.311264e+002, 1.818035e+002
8.316085e+002, 1.823081e+002
8.320906e+002, 1.824975e+002
8.325728e+002, 1.823929e+002
8.330549e+002, 1.817713e+002
8.335370e+002, 1.795675e+002
8.340191e+002, 1.784120e+002
8.345012e+002, 1.800282e+002
8.349833e+002, 1.819532e+002
8.354655e+002, 1.817468e+002
8.359476e+002, 1.798620e+002
8.364297e+002, 1.790861e+002
8.369118e+002, 1.811584e+002
8.373939e+002, 1.830652e+002
8.378760e+002, 1.830401e+002
8.383582e+002, 1.820565e+002
8.388403e+002, 1.809179e+002
8.393224e+002, 1.798980e+002
8.398045e+002, 1.794276e+002
8.402866e+002, 1.797149e+002
8.407687e+002, 1.801626e+002
8.412509e+002, 1.797083e+002
8.417330e+002, 1.786265e+002
8.422151e+002, 1.788201e+002
8.426972e+002, 1.804377e+002
8.431793e+002, 1.812155e+002
8.436614e+002, 1.801042e+002
8.441436e+002, 1.784977e+002
8.446257e+002, 1.779608e+002
8.451078e+002, 1.784728e+002
8.455899e+002, 1.792621e+002
8.460720e+002, 1.815522e+002
8.465541e+002, 1.822754e+002
8.470363e+002, 1.795396e+002
8.475184e+002, 1.767443e+002
8.480005e+002, 1.763774e+002
8.484826e+002, 1.775283e+002
8.489647e+002, 1.778047e+002
8.494468e+002, 1.763487e+002
8.499290e+002, 1.751335e+002
8.504111e+002, 1.755580e+002
8.508932e+002, 1.764732e+002
8.513753e+002, 1.765705e+002
8.518574e+002, 1.762118e+002
8.523395e+002, 1.765484e+002
8.528217e+002, 1.778497e+002
8.533038e+002, 1.791422e+002
8.537859e+002, 1.794340e+002
8.542680e+002, 1.790050e+002
8.547501e+002, 1.786895e+002
8.552322e+002, 1.784873e+002
8.557144e+002, 1.782937e+002
8.561965e+002, 1.781181e+002
8.566786e+002, 1.778012e+002
8.571607e+002, 1.771536e+002
8.576428e+002, 1.763269e+002
8.581249e+002, 1.758080e+002
8.586071e+002, 1.757114e+002
8.590892e+002, 1.756792e+002
8.595713e+002, 1.756888e+002
8.600534e+002, 1.757844e+002
8.605355e+002, 1.757698e+002
8.610176e+002, 1.759697e+002
8.614998e+002, 1.772144e+002
8.619819e+002, 1.794536e+002
8.624640e+002, 1.804966e+002
8.629461e+002, 1.784580e+002
8.634282e+002, 1.760263e+002
8.639103e+002, 1.748325e+002
8.643925e+002, 1.745013e+002
8.648746e+002, 1.749480e+002
8.653567e+002, 1.757849e+002
8.658388e+002, 1.757542e+002
8.663209e+002, 1.740493e+002
8.668030e+002, 1.717456e+002
8.672852e+002, 1.704490e+002
8.677673e+002, 1.700257e+002
8.682494e+002, 1.698804e+002
8.687315e+002, 1.699946e+002
8.692136e+002, 1.697339e+002
8.696957e+002, 1.686432e+002
8.701779e+002, 1.677775e+002
8.706600e+002, 1.687807e+002
8.711421e+002, 1.716830e+002
8.716242e+002, 1.729823e+002
8.721063e+002, 1.717275e+002
8.725884e+002, 1.705420e+002
8.730705e+002, 1.698196e+002
8.735526e+002, 1.693188e+002
8.740347e+002, 1.690783e+002
8.745168e+002, 1.689304e+002
8.749990e+002, 1.684306e+002
8.754811e+002, 1.673457e+002
8.759632e+002, 1.664173e+002
8.764453e+002, 1.658513e+002
8.769274e+002, 1.655893e+002
8.774095e+002, 1.656096e+002
8.778917e+002, 1.658979e+002
8.783738e+002, 1.667792e+002
8.788559e+002, 1.681223e+002
8.793380e+002, 1.686228e+002
8.798201e+002, 1.666510e+002
8.803022e+002, 1.639787e+002
8.807844e+002, 1.640270e+002
8.812665e+002, 1.659191e+002
8.817486e+002, 1.664111e+002
8.822307e+002, 1.650172e+002
8.827128e+002, 1.626890e+002
8.831949e+002, 1.598118e+002
8.836771e+002, 1.573204e+002
8.841592e+002, 1.575646e+002
8.846413e+002, 1.611287e+002
8.851234e+002, 1.629452e+002
8.856055e+002, 1.624442e+002
8.860876e+002, 1.615806e+002
8.865698e+002, 1.609436e+002
8.870519e+002, 1.603200e+002
8.875340e+002, 1.591871e+002
8.880161e+002, 1.576458e+002
8.884982e+002, 1.571978e+002
8.889803e+002, 1.587140e+002
8.894625e+002, 1.601534e+002
8.899446e+002, 1.616836e+002
8.904267e+002, 1.625484e+002
8.909088e+002, 1.616527e+002
8.913909e+002, 1.598586e+002
8.918730e+002, 1.589005e+002
8.923552e+002, 1.592731e+002
8.928373e+002, 1.598636e+002
8.933194e+002, 1.602318e+002
8.938015e+002, 1.602395e+002
8.942836e+002, 1.593584e+002
8.947657e+002, 1.581060e+002
8.952479e+002, 1.578174e+002
8.957300e+002, 1.585779e+002
8.962121e+002, 1.589026e+002
8.966942e+002, 1.575680e+002
8.971763e+002, 1.555446e+002
8.976584e+002, 1.548920e+002
8.981406e+002, 1.554638e+002
8.986227e+002, 1.558979e+002
8.991048e+002, 1.561100e+002
8.995869e+002, 1.556068e+002
9.000690e+002, 1.539994e+002
9.005511e+002, 1.519626e+002
9.010333e+002, 1.504064e+002
9.015154e+002, 1.493172e+002
9.019975e+002, 1.490580e+002
9.024796e+002, 1.500506e+002
9.029617e+002, 1.510996e+002
9.034438e+002, 1.522867e+002
9.039260e+002, 1.531664e+002
9.044081e+002, 1.536988e+002
9.048902e+002, 1.536740e+002
9.053723e+002, 1.523051e+002
9.058544e+002, 1.486369e+002
9.063365e+002, 1.461421e+002
9.068187e+002, 1.460998e+002
9.073008e+002, 1.470129e+002
9.077829e+002, 1.488405e+002
9.082650e+002, 1.506266e+002
9.087471e+002, 1.511623e+002
9.092292e+002, 1.503101e+002
9.097114e+002, 1.487388e+002
9.101935e+002, 1.461831e+002
9.106756e+002, 1.441308e+002
9.111577e+002, 1.446161e+002
9.116398e+002, 1.464684e+002
9.121219e+002, 1.477282e+002
9.126041e+002, 1.481603e+002
9.130862e+002, 1.479588e+002
9.135683e+002, 1.472134e+002
9.140504e+002, 1.464090e+002
9.145325e+002, 1.463625e+002
9.150146e+002, 1.468449e+002
9.154968e+002, 1.462141e+002
9.159789e+002, 1.444001e+002
9.164610e+002, 1.438217e+002
9.169431e+002, 1.454058e+002
9.174252e+002, 1.468173e+002
9.179073e+002, 1.459822e+002
9.183895e+002, 1.435779e+002
9.188716e+002, 1.420313e+002
9.193537e+002, 1.413441e+002
9.198358e+002, 1.415648e+002
9.203179e+002, 1.439179e+002
9.208000e+002, 1.454055e+002
9.212822e+002, 1.435999e+002
9.217643e+002, 1.411422e+002
9.222464e+002, 1.413953e+002
9.227285e+002, 1.442319e+002
9.232106e+002, 1.456209e+002
9.236927e+002, 1.436073e+002
9.241749e+002, 1.419783e+002
9.246570e+002, 1.419532e+002
9.251391e+002, 1.425615e+002
9.256212e+002, 1.437561e+002
9.261033e+002, 1.447836e+002
9.265854e+002, 1.439242e+002
9.270676e+002, 1.406101e+002
9.275497e+002, 1.378595e+002
9.280318e+002, 1.380199e+002
9.285139e+002, 1.393901e+002
9.289960e+002, 1.408252e+002
9.294781e+002, 1.419684e+002
9.299603e+002, 1.420469e+002
9.304424e+002, 1.411252e+002
9.309245e+002, 1.401529e+002
9.314066e+002, 1.396954e+002
9.318887e+002, 1.397181e+002
9.323708e+002, 1.405029e+002
9.328530e+002, 1.417394e+002
9.333351e+002, 1.419114e+002
9.338172e+002, 1.410201e+002
9.342993e+002, 1.406386e+002
9.347814e+002, 1.414092e+002
9.352635e+002, 1.422388e+002
9.357457e+002, 1.418883e+002
9.362278e+002, 1.405814e+002
9.367099e+002, 1.395812e+002
9.371920e+002, 1.388445e+002
9.376741e+002, 1.386953e+002
9.381563e+002, 1.395553e+002
9.386384e+002, 1.401119e+002
9.391205e+002, 1.393310e+002
9.396026e+002, 1.380651e+002
9.400847e+002, 1.379397e+002
9.405668e+002, 1.392494e+002
9.410490e+002, 1.399563e+002
9.415311e+002, 1.398653e+002
9.420132e+002, 1.394688e+002
9.424953e+002, 1.381250e+002
9.429774e+002, 1.371679e+002
9.434595e+002, 1.379697e+002
9.439417e+002, 1.398907e+002
9.444238e+002, 1.412527e+002
9.449059e+002, 1.417277e+002
9.453880e+002, 1.416602e+002
9.458701e+002, 1.412565e+002
9.463522e+002, 1.402660e+002
9.468344e+002, 1.375056e+002
9.473165e+002, 1.346301e+002
9.477986e+002, 1.342298e+002
9.482807e+002, 1.362100e+002
9.487628e+002, 1.381266e+002
9.492449e+002, 1.388659e+002
9.497271e+002, 1.385972e+002
9.502092e+002, 1.367195e+002
9.506913e+002, 1.343819e+002
9.511734e+002, 1.335830e+002
9.516555e+002, 1.339865e+002
9.521376e+002, 1.339100e+002
9.526198e+002, 1.328353e+002
9.531019e+002, 1.318553e+002
9.535840e+002, 1.320501e+002
9.540661e+002, 1.330404e+002
9.545482e+002, 1.340763e+002
9.550303e+002, 1.351034e+002
9.555124e+002, 1.358118e+002
9.559945e+002, 1.361581e+002
9.564766e+002, 1.358288e+002
9.569587e+002, 1.345315e+002
9.574409e+002, 1.331741e+002
9.579230e+002, 1.333741e+002
9.584051e+002, 1.350896e+002
9.588872e+002, 1.358394e+002
9.593693e+002, 1.355043e+002
9.598514e+002, 1.345713e+002
9.603336e+002, 1.326688e+002
9.608157e+002, 1.313299e+002
9.612978e+002, 1.320388e+002
9.617799e+002, 1.339713e+002
9.622620e+002, 1.347898e+002
9.627441e+002, 1.341216e+002
9.632263e+002, 1.334793e+002
9.637084e+002, 1.323425e+002
9.641905e+002, 1.319535e+002
9.646726e+002, 1.336912e+002
9.651547e+002, 1.354360e+002
9.656368e+002, 1.348554e+002
9.661190e+002, 1.325689e+002
9.666011e+002, 1.316157e+002
9.670832e+002, 1.331881e+002
9.675653e+002, 1.344300e+002
9.680474e+002, 1.349376e+002
9.685295e+002, 1.347371e+002
9.690117e+002, 1.329735e+002
9.694938e+002, 1.310011e+002
9.699759e+002, 1.308772e+002
9.704580e+002, 1.325863e+002
9.709401e+002, 1.339150e+002
9.714222e+002, 1.337003e+002
9.719044e+002, 1.331723e+002
9.723865e+002, 1.330733e+002
9.728686e+002, 1.330787e+002
9.733507e+002, 1.326442e+002
9.738328e+002, 1.320685e+002
9.743149e+002, 1.322617e+002
9.747971e+002, 1.333967e+002
9.752792e+002, 1.342958e+002
9.757613e+002, 1.338865e+002
9.762434e+002, 1.328851e+002
9.767255e+002, 1.319063e+002
9.772076e+002, 1.311809e+002
9.776898e+002, 1.314772e+002
9.781719e+002, 1.326241e+002
9.786540e+002, 1.334718e+002
9.791361e+002, 1.334765e+002
9.796182e+002, 1.328570e+002
9.801003e+002, 1.315271e+002
9.805825e+002, 1.299179e+002
9.810646e+002, 1.299047e+002
9.815467e+002, 1.312052e+002
9.820288e+002, 1.313145e+002
9.825109e+002, 1.297427e+002
9.829930e+002, 1.281571e+002
9.834752e+002, 1.276144e+002
9.839573e+002, 1.278570e+002
9.844394e+002, 1.285519e+002
9.849215e+002, 1.297047e+002
9.854036e+002, 1.303505e+002
9.858857e+002, 1.304541e+002
9.863679e+002, 1.301653e+002
9.868500e+002, 1.293676e+002
9.873321e+002, 1.286813e+002
9.878142e+002, 1.286337e+002
9.882963e+002, 1.290604e+002
9.887784e+002, 1.294336e+002
9.892606e+002, 1.296579e+002
9.897427e+002, 1.302588e+002
9.902248e+002, 1.320185e+002
9.907069e+002, 1.325665e+002
9.911890e+002, 1.301366e+002
9.916711e+002, 1.273303e+002
9.921533e+002, 1.266770e+002
9.926354e+002, 1.278651e+002
9.931175e+002, 1.290868e+002
9.935996e+002, 1.308143e+002
9.940817e+002, 1.317220e+002
9.945638e+002, 1.318246e+002
9.950460e+002, 1.310694e+002
9.955281e+002, 1.281485e+002
9.960102e+002, 1.252523e+002
9.964923e+002, 1.251281e+002
9.969744e+002, 1.274767e+002
9.974565e+002, 1.292418e+002
9.979387e+002, 1.296962e+002
9.984208e+002, 1.297857e+002
9.989029e+002, 1.293053e+002
9.993850e+002, 1.289888e+002
9.998671e+002, 1.297942e+002
1.000349e+003, 1.307940e+002
1.000831e+003, 1.303405e+002
1.001313e+003, 1.284361e+002
1.001796e+003, 1.271767e+002
1.002278e+003, 1.277585e+002
1.002760e+003, 1.286795e+002
1.003242e+003, 1.291892e+002
1.003724e+003, 1.296067e+002
1.004206e+003, 1.304631e+002
1.004688e+003, 1.313884e+002
1.005170e+003, 1.314946e+002
1.005653e+003, 1.306581e+002
1.006135e+003, 1.299349e+002
1.006617e+003, 1.301296e+002
1.007099e+003, 1.305237e+002
1.007581e+003, 1.304929e+002
1.008063e+003, 1.302066e+002
1.008545e+003, 1.296940e+002
1.009027e+003, 1.291686e+002
1.009509e+003, 1.292236e+002
1.009992e+003, 1.300199e+002
1.010474e+003, 1.308724e+002
1.010956e+003, 1.312973e+002
1.011438e+003, 1.312964e+002
1.011920e+003, 1.306035e+002
1.012402e+003, 1.295620e+002
1.012884e+003, 1.288784e+002
1.013366e+003, 1.286638e+002
1.013849e+003, 1.291942e+002
1.014331e+003, 1.305489e+002
1.014813e+003, 1.312794e+002
1.015295e+003, 1.291490e+002
1.015777e+003, 1.256761e+002
1.016259e+003, 1.249298e+002
1.016741e+003, 1.263483e+002
1.017223e+003, 1.274036e+002
1.017705e+003, 1.277166e+002
1.018188e+003, 1.276957e+002
1.018670e+003, 1.275223e+002
1.019152e+003, 1.276213e+002
1.019634e+003, 1.288808e+002
1.020116e+003, 1.308306e+002
1.020598e+003, 1.309355e+002
1.021080e+003, 1.292735e+002
1.021562e+003, 1.278837e+002
1.022044e+003, 1.271086e+002
1.022527e+003, 1.268434e+002
1.023009e+003, 1.270816e+002
1.023491e+003, 1.275310e+002
1.023973e+003, 1.277221e+002
1.024455e+003, 1.276719e+002
1.024937e+003, 1.276209e+002
1.025419e+003, 1.275471e+002
1.025901e+003, 1.277266e+002
1.026384e+003, 1.283061e+002
1.026866e+003, 1.286381e+002
1.027348e+003, 1.281410e+002
1.027830e+003, 1.275777e+002
1.028312e+003, 1.286148e+002
1.028794e+003, 1.314037e+002
1.029276e+003, 1.319706e+002
1.029758e+003, 1.295829e+002
1.030240e+003, 1.274628e+002
1.030723e+003, 1.259428e+002
1.031205e+003, 1.254882e+002
1.031687e+003, 1.267834e+002
1.032169e+003, 1.289483e+002
1.032651e+003, 1.302921e+002
1.033133e+003, 1.308368e+002
1.033615e+003, 1.302949e+002
1.034097e+003, 1.280628e+002
1.034579e+003, 1.259713e+002
1.035062e+003, 1.236818e+002
1.035544e+003, 1.227012e+002
1.036026e+003, 1.249252e+002
1.036508e+003, 1.286050e+002
1.036990e+003, 1.298895e+002
1.037472e+003, 1.281661e+002
1.037954e+003, 1.275170e+002
1.038436e+003, 1.295085e+002
1.038919e+003, 1.300290e+002
1.039401e+003, 1.266806e+002
1.039883e+003, 1.235190e+002
1.040365e+003, 1.233494e+002
1.040847e+003, 1.251332e+002
1.041329e+003, 1.269403e+002
1.041811e+003, 1.290302e+002
1.042293e+003, 1.298126e+002
1.042776e+003, 1.281264e+002
1.043258e+003, 1.267313e+002
1.043740e+003, 1.262829e+002
1.044222e+003, 1.261281e+002
1.044704e+003, 1.259010e+002
1.045186e+003, 1.256515e+002
1.045668e+003, 1.255208e+002
1.046150e+003, 1.255454e+002
1.046632e+003, 1.254935e+002
1.047115e+003, 1.248772e+002
1.047597e+003, 1.248209e+002
1.048079e+003, 1.260967e+002
1.048561e+003, 1.275347e+002
1.049043e+003, 1.285177e+002
1.049525e+003, 1.290188e+002
1.050007e+003, 1.290591e+002
1.050489e+003, 1.286243e+002
1.050971e+003, 1.278960e+002
1.051454e+003, 1.267511e+002
1.051936e+003, 1.255358e+002
1.052418e+003, 1.239591e+002
1.052900e+003, 1.227266e+002
1.053382e+003, 1.224709e+002
1.053864e+003, 1.228733e+002
1.054346e+003, 1.232865e+002
1.054828e+003, 1.236119e+002
1.055311e+003, 1.243299e+002
1.055793e+003, 1.263036e+002
1.056275e+003, 1.276920e+002
1.056757e+003, 1.275534e+002
1.057239e+003, 1.269060e+002
1.057721e+003, 1.262791e+002
1.058203e+003, 1.257905e+002
1.058685e+003, 1.256091e+002
1.059167e+003, 1.257456e+002
1.059650e+003, 1.256699e+002
1.060132e+003, 1.247374e+002
1.060614e+003, 1.242006e+002
1.061096e+003, 1.250807e+002
1.061578e+003, 1.259992e+002
1.062060e+003, 1.257423e+002
1.062542e+003, 1.248618e+002
1.063024e+003, 1.244092e+002
1.063506e+003, 1.245182e+002
1.063989e+003, 1.244829e+002
1.064471e+003, 1.241007e+002
1.064953e+003, 1.234494e+002
1.065435e+003, 1.218785e+002
1.065917e+003, 1.207237e+002
1.066399e+003, 1.214833e+002
1.066881e+003, 1.231105e+002
1.067363e+003, 1.240239e+002
1.067846e+003, 1.239798e+002
1.068328e+003, 1.234629e+002
1.068810e+003, 1.221267e+002
1.069292e+003, 1.212738e+002
1.069774e+003, 1.221017e+002
1.070256e+003, 1.230086e+002
1.070738e+003, 1.225963e+002
1.071220e+003, 1.216019e+002
1.071703e+003, 1.212157e+002
1.072185e+003, 1.214940e+002
1.072667e+003, 1.215473e+002
1.073149e+003, 1.207533e+002
1.073631e+003, 1.203739e+002
1.074113e+003, 1.216985e+002
1.074595e+003, 1.229138e+002
1.075077e+003, 1.223423e+002
1.075559e+003, 1.210857e+002
1.076042e+003, 1.206572e+002
1.076524e+003, 1.211056e+002
1.077006e+003, 1.216230e+002
1.077488e+003, 1.220620e+002
1.077970e+003, 1.221305e+002
1.078452e+003, 1.212550e+002
1.078934e+003, 1.204442e+002
1.079416e+003, 1.206344e+002
1.079898e+003, 1.210998e+002
1.080380e+003, 1.208639e+002
1.080863e+003, 1.200428e+002
1.081345e+003, 1.194255e+002
1.081827e+003, 1.192931e+002
1.082309e+003, 1.191815e+002
1.082791e+003, 1.184771e+002
1.083273e+003, 1.181984e+002
1.083755e+003, 1.197425e+002
1.084237e+003, 1.214376e+002
1.084720e+003, 1.211243e+002
1.085202e+003, 1.194349e+002
1.085684e+003, 1.185139e+002
1.086166e+003, 1.189802e+002
1.086648e+003, 1.196092e+002
1.087130e+003, 1.202812e+002
1.087612e+003, 1.204914e+002
1.088094e+003, 1.193359e+002
1.088577e+003, 1.181563e+002
1.089059e+003, 1.185558e+002
1.089541e+003, 1.198210e+002
1.090023e+003, 1.201584e+002
1.090505e+003, 1.191978e+002
1.090987e+003, 1.185218e+002
1.091469e+003, 1.191455e+002
1.091951e+003, 1.196107e+002
1.092433e+003, 1.191145e+002
1.092916e+003, 1.183946e+002
1.093398e+003, 1.178940e+002
1.093880e+003, 1.176538e+002
1.094362e+003, 1.179082e+002
1.094844e+003, 1.185851e+002
1.095326e+003, 1.184772e+002
1.095808e+003, 1.159580e+002
1.096290e+003, 1.144481e+002
1.096772e+003, 1.161687e+002
1.097255e+003, 1.180587e+002
1.097737e+003, 1.180374e+002
1.098219e+003, 1.170827e+002
1.098701e+003, 1.165504e+002
1.099183e+003, 1.165380e+002
1.099665e+003, 1.165195e+002
1.100147e+003, 1.162328e+002
1.100629e+003, 1.162293e+002
1.101112e+003, 1.169914e+002
1.101594e+003, 1.176633e+002
1.102076e+003, 1.178751e+002
1.102558e+003, 1.177464e+002
1.103040e+003, 1.170538e+002
1.103522e+003, 1.161376e+002
1.104004e+003, 1.162452e+002
1.104486e+003, 1.179732e+002
1.104969e+003, 1.193876e+002
1.105451e+003, 1.202731e+002
1.105933e+003, 1.206255e+002
1.106415e+003, 1.205111e+002
1.106897e+003, 1.198079e+002
1.107379e+003, 1.178018e+002
1.107861e+003, 1.152633e+002
1.108343e+003, 1.140756e+002
1.108825e+003, 1.145713e+002
1.109307e+003, 1.152565e+002
1.109790e+003, 1.167241e+002
1.110272e+003, 1.173406e+002
1.110754e+003, 1.158778e+002
1.111236e+003, 1.144249e+002
1.111718e+003, 1.143882e+002
1.112200e+003, 1.150916e+002
1.112682e+003, 1.153469e+002
1.113164e+003, 1.150970e+002
1.113647e+003, 1.153610e+002
1.114129e+003, 1.168490e+002
1.114611e+003, 1.176634e+002
1.115093e+003, 1.173139e+002
1.115575e+003, 1.167611e+002
1.116057e+003, 1.162271e+002
1.116539e+003, 1.158690e+002
1.117021e+003, 1.160594e+002
1.117504e+003, 1.166440e+002
1.117986e+003, 1.164069e+002
1.118468e+003, 1.145839e+002
1.118950e+003, 1.138373e+002
1.119432e+003, 1.149691e+002
1.119914e+003, 1.155674e+002
1.120396e+003, 1.145426e+002
1.120878e+003, 1.132776e+002
1.121360e+003, 1.129151e+002
1.121843e+003, 1.132503e+002
1.122325e+003, 1.137482e+002
1.122807e+003, 1.145136e+002
1.123289e+003, 1.147062e+002
1.123771e+003, 1.139965e+002
1.124253e+003, 1.139553e+002
1.124735e+003, 1.152390e+002
1.125217e+003, 1.162482e+002
1.125699e+003, 1.159072e+002
1.126182e+003, 1.148101e+002
1.126664e+003, 1.139090e+002
1.127146e+003, 1.132101e+002
1.127628e+003, 1.128512e+002
1.128110e+003, 1.128576e+002
1.128592e+003, 1.129787e+002
1.129074e+003, 1.131750e+002
1.129556e+003, 1.135862e+002
1.130039e+003, 1.143188e+002
1.130521e+003, 1.150536e+002
1.131003e+003, 1.154772e+002
1.131485e+003, 1.155290e+002
1.131967e+003, 1.147269e+002
1.132449e+003, 1.131662e+002
1.132931e+003, 1.127109e+002
1.133413e+003, 1.134332e+002
1.133896e+003, 1.140299e+002
1.134378e+003, 1.141018e+002
1.134860e+003, 1.138573e+002
1.135342e+003, 1.134436e+002
1.135824e+003, 1.128871e+002
1.136306e+003, 1.120094e+002
1.136788e+003, 1.110561e+002
1.137270e+003, 1.112928e+002
1.137752e+003, 1.123930e+002
1.138234e+003, 1.125288e+002
1.138717e+003, 1.115385e+002
1.139199e+003, 1.109545e+002
1.139681e+003, 1.115620e+002
1.140163e+003, 1.125167e+002
1.140645e+003, 1.132246e+002
1.141127e+003, 1.133206e+002
1.141609e+003, 1.112981e+002
1.142091e+003, 1.084873e+002
1.142574e+003, 1.081303e+002
1.143056e+003, 1.098609e+002
1.143538e+003, 1.111761e+002
1.144020e+003, 1.113690e+002
1.144502e+003, 1.119572e+002
1.144984e+003, 1.145160e+002
1.145466e+003, 1.167100e+002
1.145948e+003, 1.151730e+002
1.146431e+003, 1.126063e+002
1.146913e+003, 1.126910e+002
1.147395e+003, 1.142414e+002
1.147877e+003, 1.146529e+002
1.148359e+003, 1.137630e+002
1.148841e+003, 1.132076e+002
1.149323e+003, 1.137683e+002
1.149805e+003, 1.141550e+002
1.150287e+003, 1.132977e+002
1.150770e+003, 1.122672e+002
1.151252e+003, 1.116037e+002
1.151734e+003, 1.113651e+002
1.152216e+003, 1.118957e+002
1.152698e+003, 1.127905e+002
1.153180e+003, 1.131830e+002
1.153662e+003, 1.128923e+002
1.154144e+003, 1.123972e+002
1.154626e+003, 1.117428e+002
1.155109e+003, 1.110719e+002
1.155591e+003, 1.100628e+002
1.156073e+003, 1.094566e+002
1.156555e+003, 1.097570e+002
1.157037e+003, 1.107018e+002
1.157519e+003, 1.124065e+002
1.158001e+003, 1.145698e+002
1.158483e+003, 1.152900e+002
1.158966e+003, 1.133756e+002
1.159448e+003, 1.122094e+002
1.159930e+003, 1.126645e+002
1.160412e+003, 1.129722e+002
1.160894e+003, 1.124596e+002
1.161376e+003, 1.118682e+002
1.161858e+003, 1.116785e+002
1.162340e+003, 1.118444e+002
1.162822e+003, 1.124467e+002
1.163305e+003, 1.136581e+002
1.163787e+003, 1.132800e+002
1.164269e+003, 1.103129e+002
1.164751e+003, 1.088170e+002
1.165233e+003, 1.098548e+002
1.165715e+003, 1.108267e+002
1.166197e+003, 1.104451e+002
1.166679e+003, 1.096260e+002
1.167161e+003, 1.094495e+002
1.167644e+003, 1.097447e+002
1.168126e+003, 1.096739e+002
1.168608e+003, 1.091979e+002
1.169090e+003, 1.099109e+002
1.169572e+003, 1.119379e+002
1.170054e+003, 1.127539e+002
1.170536e+003, 1.116526e+002
1.171018e+003, 1.099238e+002
1.171500e+003, 1.083660e+002
1.171983e+003, 1.073107e+002
1.172465e+003, 1.075528e+002
1.172947e+003, 1.086275e+002
1.173429e+003, 1.088451e+002
1.173911e+003, 1.085121e+002
1.174393e+003, 1.089813e+002
1.174875e+003, 1.101921e+002
1.175357e+003, 1.108950e+002
1.175840e+003, 1.106409e+002
1.176322e+003, 1.100634e+002
1.176804e+003, 1.096140e+002
1.177286e+003, 1.092647e+002
1.177768e+003, 1.088955e+002
1.178250e+003, 1.086673e+002
1.178732e+003, 1.088818e+002
1.179214e+003, 1.093948e+002
1.179697e+003, 1.101333e+002
1.180179e+003, 1.108725e+002
1.180661e+003, 1.107522e+002
1.181143e+003, 1.092551e+002
1.181625e+003, 1.082195e+002
1.182107e+003, 1.091505e+002
1.182589e+003, 1.104471e+002
1.183071e+003, 1.115756e+002
1.183553e+003, 1.121117e+002
1.184036e+003, 1.112931e+002
1.184518e+003, 1.097685e+002
1.185000e+003, 1.086172e+002
1.185482e+003, 1.080177e+002
1.185964e+003, 1.079476e+002
1.186446e+003, 1.088321e+002
1.186928e+003, 1.095458e+002
1.187410e+003, 1.100078e+002
1.187892e+003, 1.101341e+002
1.188375e+003, 1.092372e+002
1.188857e+003, 1.085763e+002
1.189339e+003, 1.098601e+002
1.189821e+003, 1.121357e+002
1.190303e+003, 1.125176e+002
1.190785e+003, 1.106004e+002
1.191267e+003, 1.091147e+002
1.191749e+003, 1.078271e+002
1.192232e+003, 1.077609e+002
1.192714e+003, 1.094860e+002
1.193196e+003, 1.113250e+002
1.193678e+003, 1.125970e+002
1.194160e+003, 1.130800e+002
1.194642e+003, 1.123281e+002
1.195124e+003, 1.107560e+002
1.195606e+003, 1.102670e+002
1.196089e+003, 1.107768e+002
1.196571e+003, 1.094129e+002
1.197053e+003, 1.062268e+002
1.197535e+003, 1.051042e+002
1.198017e+003, 1.069214e+002
1.198499e+003, 1.090801e+002
1.198981e+003, 1.099886e+002
1.199463e+003, 1.101969e+002
1.199945e+003, 1.101804e+002
1.200427e+003, 1.101664e+002
1.200910e+003, 1.111392e+002
1.201392e+003, 1.122514e+002
1.201874e+003, 1.110967e+002
1.202356e+003, 1.083731e+002
1.202838e+003, 1.067479e+002
1.203320e+003, 1.068893e+002
1.203802e+003, 1.076440e+002
1.204284e+003, 1.085173e+002
1.204767e+003, 1.092635e+002
1.205249e+003, 1.097095e+002
1.205731e+003, 1.099333e+002
1.206213e+003, 1.098315e+002
1.206695e+003, 1.096670e+002
1.207177e+003, 1.097198e+002
1.207659e+003, 1.099836e+002
1.208141e+003, 1.104560e+002
1.208624e+003, 1.111724e+002
1.209106e+003, 1.114286e+002
1.209588e+003, 1.104111e+002
1.210070e+003, 1.098847e+002
1.210552e+003, 1.108178e+002
1.211034e+003, 1.116072e+002
1.211516e+003, 1.112431e+002
1.211998e+003, 1.105281e+002
1.212480e+003, 1.101815e+002
1.212963e+003, 1.101703e+002
1.213445e+003, 1.104484e+002
1.213927e+003, 1.112097e+002
1.214409e+003, 1.112137e+002
1.214891e+003, 1.102514e+002
1.215373e+003, 1.093007e+002
1.215855e+003, 1.084672e+002
1.216337e+003, 1.080030e+002
1.216819e+003, 1.080180e+002
1.217302e+003, 1.086710e+002
1.217784e+003, 1.103901e+002
1.218266e+003, 1.125152e+002
1.218748e+003, 1.127087e+002
1.219230e+003, 1.114217e+002
1.219712e+003, 1.109541e+002
1.220194e+003, 1.112633e+002
1.220676e+003, 1.114598e+002
1.221159e+003, 1.113170e+002
1.221641e+003, 1.108530e+002
1.222123e+003, 1.100607e+002
1.222605e+003, 1.093462e+002
1.223087e+003, 1.091930e+002
1.223569e+003, 1.092544e+002
1.224051e+003, 1.090259e+002
1.224533e+003, 1.088507e+002
1.225016e+003, 1.095488e+002
1.225498e+003, 1.105047e+002
1.225980e+003, 1.101336e+002
1.226462e+003, 1.085209e+002
1.226944e+003, 1.078796e+002
1.227426e+003, 1.094185e+002
1.227908e+003, 1.106672e+002
1.228390e+003, 1.104954e+002
1.228872e+003, 1.102325e+002
1.229354e+003, 1.105612e+002
1.229837e+003, 1.108901e+002
1.230319e+003, 1.106770e+002
1.230801e+003, 1.101735e+002
1.231283e+003, 1.098459e+002
1.231765e+003, 1.096882e+002
1.232247e+003, 1.094978e+002
1.232729e+003, 1.092756e+002
1.233211e+003, 1.089690e+002
1.233694e+003, 1.084242e+002
1.234176e+003, 1.083996e+002
1.234658e+003, 1.092322e+002
1.235140e+003, 1.101927e+002
1.235622e+003, 1.108103e+002
1.236104e+003, 1.110121e+002
1.236586e+003, 1.105173e+002
1.237068e+003, 1.095786e+002
1.237551e+003, 1.091773e+002
1.238033e+003, 1.092940e+002
1.238515e+003, 1.101507e+002
1.238997e+003, 1.114857e+002
1.239479e+003, 1.118520e+002
1.239961e+003, 1.110229e+002
1.240443e+003, 1.107380e+002
1.240925e+003, 1.122619e+002
1.241407e+003, 1.138264e+002
1.241890e+003, 1.138929e+002
1.242372e+003, 1.130133e+002
1.242854e+003, 1.108980e+002
1.243336e+003, 1.088148e+002
1.243818e+003, 1.082941e+002
1.244300e+003, 1.090336e+002
1.244782e+003, 1.104959e+002
1.245264e+003, 1.124231e+002
1.245746e+003, 1.131308e+002
1.246229e+003, 1.113884e+002
1.246711e+003, 1.098684e+002
1.247193e+003, 1.088457e+002
1.247675e+003, 1.083632e+002
1.248157e+003, 1.091627e+002
1.248639e+003, 1.095687e+002
1.249121e+003, 1.078462e+002
1.249603e+003, 1.055315e+002
1.250085e+003, 1.055686e+002
1.250568e+003, 1.077818e+002
1.251050e+003, 1.090705e+002
1.251532e+003, 1.093525e+002
1.252014e+003, 1.095002e+002
1.252496e+003, 1.095635e+002
1.252978e+003, 1.102025e+002
1.253460e+003, 1.116081e+002
1.253942e+003, 1.122197e+002
1.254425e+003, 1.108947e+002
1.254907e+003, 1.089800e+002
1.255389e+003, 1.082498e+002
1.255871e+003, 1.083048e+002
1.256353e+003, 1.085530e+002
1.256835e+003, 1.089471e+002
1.257317e+003, 1.094649e+002
1.257799e+003, 1.100249e+002
1.258281e+003, 1.104169e+002
1.258764e+003, 1.106476e+002
1.259246e+003, 1.110667e+002
1.259728e+003, 1.119487e+002
1.260210e+003, 1.125429e+002
1.260692e+003, 1.121812e+002
1.261174e+003, 1.118707e+002
1.261656e+003, 1.126237e+002
1.262138e+003, 1.130662e+002
1.262620e+003, 1.112078e+002
1.263103e+003, 1.088911e+002
1.263585e+003, 1.095184e+002
1.264067e+003, 1.126186e+002
1.264549e+003, 1.140615e+002
1.265031e+003, 1.132472e+002
1.265513e+003, 1.129039e+002
1.265995e+003, 1.133076e+002
1.266477e+003, 1.127765e+002
1.266960e+003, 1.106980e+002
1.267442e+003, 1.094182e+002
1.267924e+003, 1.103208e+002
1.268406e+003, 1.119455e+002
1.268888e+003, 1.126862e+002
1.269370e+003, 1.126484e+002
1.269852e+003, 1.114019e+002
1.270334e+003, 1.098701e+002
1.270817e+003, 1.109955e+002
1.271299e+003, 1.137416e+002
1.271781e+003, 1.149029e+002
1.272263e+003, 1.143225e+002
1.272745e+003, 1.139979e+002
1.273227e+003, 1.146912e+002
1.273709e+003, 1.149785e+002
1.274191e+003, 1.129741e+002
1.274673e+003, 1.117942e+002
1.275156e+003, 1.142766e+002
1.275638e+003, 1.166480e+002
1.276120e+003, 1.160376e+002
1.276602e+003, 1.142353e+002
1.277084e+003, 1.128730e+002
1.277566e+003, 1.122361e+002
1.278048e+003, 1.130736e+002
1.278530e+003, 1.156922e+002
1.279012e+003, 1.168175e+002
1.279495e+003, 1.158433e+002
1.279977e+003, 1.156255e+002
1.280459e+003, 1.166354e+002
1.280941e+003, 1.175315e+002
1.281423e+003, 1.178426e+002
1.281905e+003, 1.177326e+002
1.282387e+003, 1.172704e+002
1.282869e+003, 1.168241e+002
1.283352e+003, 1.172670e+002
1.283834e+003, 1.180503e+002
1.284316e+003, 1.179892e+002
1.284798e+003, 1.170890e+002
##END=



