##NAMES=Tridymite
##RRUFFID=R090042
##IDEAL CHEMISTRY=SiO_2_
##LOCALITY=The Fukang Pallasite meteorite, Gobi Desert, China, found in 2001
##OWNER=RRUFF
##SOURCE=Dante Lauretta
##DESCRIPTION=Colorless micro-crystal, as an inclusion in olivine. Masami Kanzaki (Okayama University) suggests this is polytype tridymite MC.
##STATUS=The identification of this mineral has been confirmed by single-crystal X-ray diffraction.
##URL=rruff.info/R090042
92.06543, 981.6409
92.54755, 981.6823
93.02966, 986.4216
93.51178, 986.7730
93.99390, 982.6231
94.47601, 977.0851
94.95813, 970.7765
95.44025, 962.7864
95.92236, 952.1709
96.40448, 938.3718
96.88660, 926.2980
97.36871, 917.9728
97.85082, 910.2745
98.33294, 900.9244
98.81506, 889.1108
99.29717, 875.0654
99.77929, 862.8519
100.2614, 852.4926
100.7435, 843.1005
101.2256, 834.7606
101.7078, 826.9755
102.1899, 818.6035
102.6720, 808.4008
103.1541, 798.8611
103.6362, 791.7560
104.1183, 786.9943
104.6005, 783.9113
105.0826, 782.7079
105.5647, 783.7396
106.0468, 783.5159
106.5289, 779.9509
107.0110, 775.4737
107.4931, 771.3015
107.9753, 767.7676
108.4574, 764.7352
108.9395, 761.9850
109.4216, 759.7867
109.9037, 757.3737
110.3858, 754.1204
110.8680, 750.7824
111.3501, 748.3073
111.8322, 747.2418
112.3143, 747.2729
112.7964, 746.3836
113.2785, 743.5381
113.7607, 740.9438
114.2428, 739.1105
114.7249, 737.9728
115.2070, 737.2863
115.6891, 736.9711
116.1712, 737.0057
116.6534, 736.7796
117.1355, 736.1273
117.6176, 735.3419
118.0997, 734.5351
118.5818, 733.6970
119.0639, 733.0869
119.5461, 732.7930
120.0282, 732.8691
120.5103, 733.7623
120.9924, 736.4245
121.4745, 739.9666
121.9566, 742.2537
122.4388, 742.5907
122.9209, 742.3279
123.4030, 742.6437
123.8851, 743.3138
124.3672, 743.5488
124.8493, 742.4171
125.3315, 739.7754
125.8136, 737.7953
126.2957, 737.0955
126.7778, 736.7760
127.2599, 736.5101
127.7420, 736.2575
128.2242, 736.1561
128.7063, 736.4266
129.1884, 737.2961
129.6705, 738.0870
130.1526, 738.8624
130.6347, 739.5336
131.1169, 740.0585
131.5990, 740.4178
132.0811, 740.5824
132.5632, 740.4811
133.0453, 739.9567
133.5274, 739.3389
134.0096, 738.1974
134.4917, 737.0622
134.9738, 736.8196
135.4559, 737.9924
135.9380, 740.0981
136.4201, 741.4589
136.9023, 741.8508
137.3844, 742.0155
137.8665, 742.1867
138.3486, 742.3710
138.8307, 742.6442
139.3128, 743.3304
139.7950, 743.9710
140.2771, 743.5711
140.7592, 741.2403
141.2413, 738.7057
141.7234, 737.8107
142.2055, 738.7930
142.6877, 740.2110
143.1698, 741.7246
143.6519, 743.0951
144.1340, 743.9308
144.6161, 743.8030
145.0982, 743.1960
145.5803, 743.5965
146.0625, 746.2842
146.5446, 747.8352
147.0267, 746.4778
147.5088, 743.4435
147.9909, 740.5683
148.4730, 739.0182
148.9552, 738.7461
149.4373, 738.8175
149.9194, 739.8517
150.4015, 740.6779
150.8836, 741.1836
151.3657, 741.2500
151.8479, 740.6867
152.3300, 739.2557
152.8121, 736.7474
153.2942, 734.5721
153.7763, 732.6395
154.2584, 731.0060
154.7406, 729.7214
155.2227, 728.7769
155.7048, 728.1039
156.1869, 727.6780
156.6690, 727.6342
157.1511, 727.3036
157.6333, 726.4063
158.1154, 725.3834
158.5975, 724.4570
159.0796, 723.6578
159.5617, 723.3636
160.0438, 724.6199
160.5260, 727.6110
161.0081, 729.2859
161.4902, 727.7063
161.9723, 724.5323
162.4544, 722.8445
162.9365, 723.5948
163.4187, 725.5450
163.9008, 727.5983
164.3829, 729.7587
164.8650, 731.2319
165.3471, 731.1403
165.8292, 729.7458
166.3113, 728.7653
166.7935, 728.5963
167.2756, 728.9650
167.7577, 729.9016
168.2398, 731.3561
168.7219, 732.5471
169.2040, 732.3456
169.6862, 730.3977
170.1683, 729.4594
170.6504, 731.0316
171.1325, 733.0439
171.6146, 734.6229
172.0967, 735.5275
172.5789, 735.7614
173.0610, 735.1200
173.5431, 732.8196
174.0252, 731.4719
174.5073, 732.0167
174.9894, 732.9254
175.4716, 732.8796
175.9537, 731.5225
176.4358, 729.7065
176.9179, 729.2166
177.4000, 731.7172
177.8821, 733.3182
178.3643, 733.1057
178.8464, 732.3431
179.3285, 732.4135
179.8106, 733.8862
180.2927, 736.1522
180.7748, 737.5313
181.2570, 737.2875
181.7391, 737.0851
182.2212, 737.0215
182.7033, 737.1163
183.1854, 737.4320
183.6675, 738.0214
184.1497, 738.7938
184.6318, 739.4451
185.1139, 739.7287
185.5960, 740.2648
186.0781, 741.3204
186.5602, 742.8004
187.0423, 744.4061
187.5245, 745.8962
188.0066, 747.5349
188.4887, 749.9606
188.9708, 753.7494
189.4529, 757.2715
189.9350, 759.0912
190.4172, 759.3795
190.8993, 760.1179
191.3814, 762.3254
191.8635, 765.4720
192.3456, 768.9108
192.8277, 772.9198
193.3099, 776.5003
193.7920, 778.1766
194.2741, 777.5980
194.7562, 777.7766
195.2383, 780.5408
195.7204, 784.4524
196.2026, 788.5702
196.6847, 792.7782
197.1668, 796.7914
197.6489, 800.1018
198.1310, 802.4631
198.6131, 804.8258
199.0953, 807.4288
199.5774, 810.1882
200.0595, 813.0071
200.5416, 815.8580
201.0237, 818.7842
201.5058, 821.8029
201.9880, 824.6552
202.4701, 828.1545
202.9522, 833.0725
203.4343, 838.3113
203.9164, 842.7136
204.3985, 845.7407
204.8807, 847.7955
205.3628, 850.0931
205.8449, 853.2802
206.3270, 855.7981
206.8091, 857.4021
207.2912, 858.3041
207.7733, 858.8115
208.2555, 859.0803
208.7376, 858.9588
209.2197, 857.8640
209.7018, 854.8637
210.1839, 851.8728
210.6660, 849.6379
211.1482, 847.4136
211.6303, 843.9603
212.1124, 838.5469
212.5945, 831.8119
213.0766, 826.2328
213.5587, 823.3121
214.0409, 819.7010
214.5230, 814.3311
215.0051, 807.8506
215.4872, 801.3728
215.9693, 795.4670
216.4514, 789.9329
216.9336, 784.0388
217.4157, 777.2819
217.8978, 770.8599
218.3799, 765.1799
218.8620, 760.1283
219.3441, 755.2524
219.8263, 750.1884
220.3084, 745.4183
220.7905, 742.2557
221.2726, 741.7333
221.7547, 740.8341
222.2368, 737.7731
222.7190, 732.9813
223.2011, 728.0639
223.6832, 723.2365
224.1653, 719.1752
224.6474, 717.1593
225.1295, 718.2917
225.6117, 718.8258
226.0938, 715.0427
226.5759, 707.6080
227.0580, 702.4617
227.5401, 703.4277
228.0222, 706.5975
228.5043, 706.7523
228.9865, 703.0538
229.4686, 698.7233
229.9507, 696.5652
230.4328, 696.5641
230.9149, 696.4407
231.3970, 695.5561
231.8792, 694.2254
232.3613, 692.6569
232.8434, 690.8625
233.3255, 689.0046
233.8076, 687.1661
234.2897, 685.3275
234.7719, 683.7478
235.2540, 682.2439
235.7361, 681.2294
236.2182, 681.3947
236.7003, 682.7633
237.1824, 683.9849
237.6646, 683.2328
238.1467, 679.9785
238.6288, 677.7086
239.1109, 677.6259
239.5930, 678.1716
240.0751, 678.9225
240.5573, 679.6790
241.0394, 679.9777
241.5215, 678.8554
242.0036, 675.5566
242.4857, 673.9243
242.9678, 675.5344
243.4500, 677.7379
243.9321, 679.4675
244.4142, 680.5132
244.8963, 681.0922
245.3784, 681.3622
245.8605, 681.1790
246.3427, 681.2277
246.8248, 681.9826
247.3069, 682.5715
247.7890, 682.3293
248.2711, 681.3845
248.7532, 680.5017
249.2354, 680.5350
249.7175, 681.7516
250.1996, 682.7786
250.6817, 683.5811
251.1638, 684.2565
251.6459, 684.9811
252.1281, 685.6647
252.6102, 685.9471
253.0923, 685.3696
253.5744, 683.6575
254.0565, 682.8224
254.5386, 683.4921
255.0208, 684.2776
255.5029, 684.3902
255.9850, 683.9859
256.4671, 683.8209
256.9492, 684.6062
257.4313, 686.4579
257.9135, 687.8637
258.3956, 688.5634
258.8777, 689.1768
259.3598, 689.8994
259.8419, 690.7560
260.3240, 691.7012
260.8062, 692.6647
261.2883, 693.6558
261.7704, 695.2379
262.2525, 698.1173
262.7346, 700.7615
263.2167, 702.2797
263.6989, 703.0215
264.1810, 703.9848
264.6631, 705.8638
265.1452, 708.5244
265.6273, 710.7513
266.1094, 711.9652
266.5916, 713.4504
267.0737, 715.8175
267.5558, 718.8094
268.0379, 721.8567
268.5200, 724.6971
269.0021, 727.3108
269.4843, 729.6199
269.9664, 731.1596
270.4485, 733.0095
270.9306, 735.7104
271.4127, 738.9552
271.8948, 742.1016
272.3770, 744.8692
272.8591, 747.3605
273.3412, 749.8897
273.8233, 752.4498
274.3054, 755.0259
274.7875, 757.9000
275.2697, 760.7476
275.7518, 762.8924
276.2339, 764.0326
276.7160, 764.5484
277.1981, 765.1010
277.6802, 765.7593
278.1623, 766.2164
278.6444, 766.1402
279.1266, 765.8647
279.6087, 766.0120
280.0908, 766.8038
280.5729, 767.8189
281.0550, 768.5108
281.5371, 768.9073
282.0193, 769.1702
282.5014, 769.5850
282.9835, 769.8124
283.4656, 769.1668
283.9477, 767.4063
284.4298, 765.4820
284.9120, 764.1158
285.3941, 763.3077
285.8762, 763.7369
286.3583, 766.3341
286.8404, 769.8777
287.3225, 772.9747
287.8047, 775.4965
288.2868, 777.6631
288.7689, 779.5834
289.2510, 781.2718
289.7331, 782.8250
290.2152, 783.6180
290.6974, 784.6569
291.1795, 787.2539
291.6616, 791.4770
292.1437, 795.7181
292.6258, 799.0150
293.1079, 801.6315
293.5901, 804.2802
294.0722, 807.1376
294.5543, 809.9252
295.0364, 812.2311
295.5185, 814.1055
296.0006, 816.3204
296.4828, 819.4064
296.9649, 822.9681
297.4470, 826.3098
297.9291, 829.4586
298.4112, 832.2665
298.8933, 834.6486
299.3755, 836.5975
299.8576, 838.0622
300.3397, 838.7259
300.8218, 839.2017
301.3039, 840.4610
301.7860, 842.6458
302.2682, 844.5278
302.7503, 845.4147
303.2324, 845.4543
303.7145, 845.1017
304.1966, 844.2545
304.6787, 843.3707
305.1609, 843.6078
305.6430, 844.7507
306.1251, 844.1453
306.6072, 839.4384
307.0893, 832.3282
307.5714, 826.6856
308.0536, 823.4283
308.5357, 820.2708
309.0178, 814.7312
309.4999, 807.6698
309.9820, 801.3967
310.4641, 797.3625
310.9463, 794.2810
311.4284, 790.1066
311.9105, 784.5711
312.3926, 779.3126
312.8747, 775.9103
313.3568, 773.4525
313.8390, 770.2704
314.3211, 765.2707
314.8032, 760.2424
315.2853, 757.2125
315.7674, 756.2223
316.2495, 755.4543
316.7317, 754.3338
317.2138, 752.7957
317.6959, 750.6974
318.1780, 747.7711
318.6601, 744.9485
319.1422, 742.8672
319.6243, 741.4803
320.1064, 740.5865
320.5886, 740.3320
321.0707, 740.3308
321.5528, 739.9588
322.0349, 739.1562
322.5170, 738.7213
322.9991, 739.1902
323.4813, 740.3583
323.9634, 741.8574
324.4455, 743.9874
324.9276, 745.6205
325.4097, 744.8384
325.8918, 742.2152
326.3740, 740.8138
326.8561, 742.3871
327.3382, 745.6086
327.8203, 748.3988
328.3024, 750.5396
328.7845, 752.6661
329.2667, 755.3705
329.7488, 758.4297
330.2309, 761.3035
330.7130, 763.6720
331.1951, 765.9574
331.6772, 768.6254
332.1594, 771.6678
332.6415, 774.6613
333.1236, 777.2374
333.6057, 779.7132
334.0878, 782.7535
334.5699, 786.5828
335.0521, 790.5596
335.5342, 794.1034
336.0163, 797.3829
336.4984, 801.2238
336.9805, 805.8865
337.4626, 811.2690
337.9448, 817.4601
338.4269, 824.7611
338.9090, 831.1813
339.3911, 834.8751
339.8732, 837.3593
340.3553, 841.7648
340.8375, 849.0268
341.3196, 856.9166
341.8017, 862.8442
342.2838, 867.0068
342.7659, 871.2817
343.2480, 876.2594
343.7302, 881.3868
344.2123, 885.9575
344.6944, 889.9085
345.1765, 893.8689
345.6586, 898.2742
346.1407, 903.0940
346.6229, 907.9653
347.1050, 914.1312
347.5871, 919.1824
348.0692, 921.3635
348.5513, 921.0883
349.0334, 919.8941
349.5156, 918.3427
349.9977, 916.5502
350.4798, 914.9658
350.9619, 914.2614
351.4440, 912.4847
351.9261, 908.0582
352.4083, 902.3909
352.8904, 898.0178
353.3725, 895.8368
353.8546, 894.2473
354.3367, 890.8965
354.8188, 885.4446
355.3010, 879.6589
355.7831, 872.9841
356.2652, 866.4886
356.7473, 861.3537
357.2294, 857.6192
357.7115, 854.0821
358.1937, 849.6241
358.6758, 844.1935
359.1579, 839.2482
359.6400, 835.2552
360.1221, 831.2327
360.6042, 827.0676
361.0863, 822.5157
361.5685, 816.8810
362.0506, 809.5550
362.5327, 801.1866
363.0148, 794.4861
363.4969, 790.3147
363.9790, 786.6176
364.4612, 783.5135
364.9433, 780.5762
365.4254, 777.3690
365.9075, 773.7422
366.3896, 769.7693
366.8717, 765.5112
367.3539, 760.5925
367.8360, 756.3103
368.3181, 752.8220
368.8002, 749.8092
369.2823, 747.2864
369.7644, 745.1149
370.2466, 742.8394
370.7287, 739.9866
371.2108, 736.4996
371.6929, 733.4133
372.1750, 731.4220
372.6571, 729.0449
373.1393, 724.9752
373.6214, 720.3295
374.1035, 717.3567
374.5856, 717.4570
375.0677, 719.1774
375.5498, 717.6030
376.0320, 709.0883
376.5141, 702.6201
376.9962, 700.1924
377.4783, 699.2448
377.9604, 697.5829
378.4425, 694.6544
378.9247, 691.3976
379.4068, 689.1992
379.8889, 688.5398
380.3710, 687.2550
380.8531, 684.7742
381.3352, 682.1786
381.8174, 679.7459
382.2995, 677.5850
382.7816, 675.8110
383.2637, 674.5333
383.7458, 673.7224
384.2279, 673.2406
384.7101, 673.3766
385.1922, 673.4067
385.6743, 673.4005
386.1564, 673.0814
386.6385, 671.9355
387.1206, 669.6536
387.6028, 667.0855
388.0849, 665.7745
388.5670, 666.1025
389.0491, 665.8669
389.5312, 663.6610
390.0133, 661.3654
390.4955, 660.4991
390.9776, 661.0639
391.4597, 661.4603
391.9418, 659.9685
392.4239, 657.0344
392.9060, 655.5043
393.3882, 656.3394
393.8703, 657.2393
394.3524, 656.5925
394.8345, 654.9120
395.3166, 653.2615
395.7987, 652.2077
396.2809, 651.2446
396.7630, 649.2250
397.2451, 645.9848
397.7272, 644.1051
398.2093, 645.6827
398.6914, 648.7770
399.1736, 650.2579
399.6557, 649.7167
400.1378, 648.6100
400.6199, 647.4098
401.1020, 646.2971
401.5841, 645.9164
402.0662, 646.6086
402.5483, 647.4700
403.0305, 647.2513
403.5126, 646.0331
403.9947, 645.2338
404.4768, 645.5145
404.9589, 646.0463
405.4410, 646.1840
405.9232, 645.8660
406.4053, 644.9932
406.8874, 643.2827
407.3695, 641.0222
407.8516, 639.6445
408.3337, 639.5924
408.8159, 639.7750
409.2980, 640.3459
409.7801, 640.8201
410.2622, 640.1978
410.7443, 638.1022
411.2264, 635.5169
411.7086, 634.0720
412.1907, 634.6173
412.6728, 634.1880
413.1549, 631.3976
413.6370, 628.7591
414.1191, 628.1318
414.6013, 629.3751
415.0834, 631.2001
415.5655, 632.6659
416.0476, 633.7673
416.5297, 634.3129
417.0118, 633.1610
417.4940, 632.7571
417.9761, 634.1687
418.4582, 636.3157
418.9403, 637.7179
419.4224, 637.8380
419.9045, 637.5063
420.3867, 638.0393
420.8688, 639.2268
421.3509, 641.9068
421.8330, 647.9709
422.3151, 653.8621
422.7972, 657.4910
423.2794, 659.0850
423.7615, 660.2070
424.2436, 661.9325
424.7257, 664.2234
425.2078, 666.8642
425.6899, 669.9584
426.1721, 673.2332
426.6542, 677.0251
427.1363, 680.7635
427.6184, 683.6168
428.1005, 685.1931
428.5826, 686.5064
429.0648, 689.0060
429.5469, 692.7305
430.0290, 695.7688
430.5111, 697.6005
430.9932, 698.6591
431.4753, 699.5524
431.9575, 700.2151
432.4396, 700.1022
432.9217, 698.9652
433.4038, 696.8914
433.8859, 693.6934
434.3680, 689.2457
434.8502, 684.9753
435.3323, 681.9967
435.8144, 679.8143
436.2965, 677.0030
436.7786, 673.4519
437.2607, 669.3696
437.7429, 664.5667
438.2250, 659.3401
438.7071, 654.2964
439.1892, 649.5899
439.6713, 645.3209
440.1534, 641.8044
440.6356, 639.3008
441.1177, 636.3304
441.5998, 631.9501
442.0819, 627.7780
442.5640, 625.2000
443.0461, 624.0236
443.5282, 623.0982
444.0103, 621.6977
444.4925, 619.8818
444.9746, 617.9804
445.4567, 615.5945
445.9388, 613.6336
446.4209, 612.3172
446.9030, 611.4194
447.3852, 610.8854
447.8673, 610.6250
448.3494, 610.2259
448.8315, 609.1345
449.3136, 607.2283
449.7957, 605.2307
450.2779, 602.3817
450.7600, 600.1868
451.2421, 599.3792
451.7242, 599.5912
452.2063, 600.1823
452.6884, 600.8969
453.1706, 601.5305
453.6527, 601.6480
454.1348, 601.3135
454.6169, 600.2625
455.0990, 597.4576
455.5811, 594.5474
456.0633, 592.6907
456.5454, 591.9881
457.0275, 591.7048
457.5096, 591.3822
457.9917, 591.0554
458.4738, 590.8631
458.9560, 590.8616
459.4381, 590.8613
459.9202, 590.6216
460.4023, 590.3107
460.8844, 590.3052
461.3665, 591.0364
461.8487, 591.5540
462.3308, 591.0953
462.8129, 589.8173
463.2950, 588.1301
463.7771, 585.9711
464.2592, 583.9378
464.7414, 582.9756
465.2235, 583.2089
465.7056, 583.4752
466.1877, 583.7882
466.6698, 583.9802
467.1519, 584.0628
467.6341, 583.9438
468.1162, 583.1682
468.5983, 581.3047
469.0804, 578.7601
469.5625, 577.4777
470.0446, 578.6412
470.5268, 579.6051
471.0089, 580.4218
471.4910, 580.8167
471.9731, 580.1598
472.4552, 578.5423
472.9373, 577.1302
473.4195, 577.3986
473.9016, 579.5532
474.3837, 580.5524
474.8658, 579.3860
475.3479, 578.0918
475.8300, 576.9828
476.3122, 576.1705
476.7943, 575.8367
477.2764, 576.1064
477.7585, 576.5572
478.2406, 576.6163
478.7227, 576.2881
479.2049, 575.4763
479.6870, 573.6607
480.1691, 571.8678
480.6512, 570.7266
481.1333, 570.2305
481.6154, 570.2474
482.0976, 571.3292
482.5797, 572.6242
483.0618, 572.6328
483.5439, 571.3146
484.0260, 569.9075
484.5081, 568.9270
484.9902, 568.2929
485.4724, 567.8679
485.9545, 567.8513
486.4366, 567.4627
486.9187, 566.1947
487.4008, 564.5002
487.8829, 562.7288
488.3651, 560.9969
488.8472, 559.9686
489.3293, 560.4056
489.8114, 562.2920
490.2935, 563.2894
490.7756, 562.7243
491.2578, 562.2271
491.7399, 562.4102
492.2220, 562.8698
492.7041, 562.9811
493.1862, 562.5547
493.6683, 562.0047
494.1505, 561.9919
494.6326, 562.7421
495.1147, 563.1396
495.5968, 562.7908
496.0789, 562.4667
496.5610, 562.6446
497.0432, 563.0287
497.5253, 563.0072
498.0074, 562.2199
498.4895, 561.0110
498.9716, 559.8649
499.4537, 558.6895
499.9359, 558.2028
500.4180, 559.2351
500.9001, 560.4214
501.3822, 560.5212
501.8643, 559.6204
502.3464, 558.7731
502.8286, 558.2305
503.3107, 558.1472
503.7928, 559.1618
504.2749, 561.2833
504.7570, 562.6998
505.2391, 562.2760
505.7213, 560.6194
506.2034, 559.3258
506.6855, 558.3911
507.1676, 557.7549
507.6497, 557.2282
508.1318, 557.0812
508.6140, 558.0339
509.0961, 559.9818
509.5782, 561.4949
510.0603, 561.2021
510.5424, 559.2260
511.0245, 558.0989
511.5067, 558.6758
511.9888, 559.0735
512.4709, 558.9273
512.9530, 558.4757
513.4351, 557.7382
513.9172, 556.8277
514.3994, 556.3875
514.8815, 557.6667
515.3636, 560.9431
515.8457, 562.1776
516.3278, 559.8282
516.8099, 557.4417
517.2921, 556.6504
517.7742, 556.7154
518.2563, 556.4327
518.7384, 555.2986
519.2205, 554.0754
519.7026, 553.8129
520.1848, 554.3398
520.6669, 554.1643
521.1490, 552.5680
521.6311, 551.0194
522.1132, 551.5608
522.5953, 553.7169
523.0775, 554.8158
523.5596, 553.7599
524.0417, 552.0781
524.5238, 550.3348
525.0059, 548.8152
525.4880, 548.3497
525.9702, 549.3572
526.4523, 551.0645
526.9344, 552.2065
527.4165, 552.7101
527.8986, 552.7280
528.3807, 551.8664
528.8629, 550.9333
529.3450, 550.2853
529.8271, 549.9376
530.3092, 549.8445
530.7913, 549.9988
531.2734, 550.2911
531.7556, 550.4506
532.2377, 550.4385
532.7198, 550.4032
533.2019, 550.4705
533.6840, 550.4266
534.1661, 550.0070
534.6483, 549.3205
535.1304, 548.8522
535.6125, 549.2720
536.0946, 549.8289
536.5767, 548.6387
537.0588, 545.5610
537.5410, 543.7977
538.0231, 545.2568
538.5052, 548.0603
538.9873, 549.2097
539.4694, 548.5530
539.9515, 547.8304
540.4337, 547.6520
540.9158, 547.5482
541.3979, 546.8595
541.8800, 545.7104
542.3621, 544.9280
542.8442, 545.0632
543.3264, 545.8594
543.8085, 546.4437
544.2906, 546.7379
544.7726, 546.9054
545.2548, 547.2180
545.7369, 547.2014
546.2190, 546.1566
546.7011, 544.3624
547.1832, 542.8790
547.6653, 542.5374
548.1475, 543.1242
548.6296, 543.8616
549.1117, 544.8521
549.5938, 545.7172
550.0759, 546.6410
550.5580, 547.1874
551.0402, 546.6530
551.5223, 545.0873
552.0044, 543.9782
552.4865, 544.5191
552.9686, 545.9519
553.4507, 547.1102
553.9329, 547.9451
554.4150, 548.1672
554.8971, 547.4465
555.3792, 546.1513
555.8613, 545.1942
556.3434, 544.5424
556.8256, 544.2131
557.3077, 544.4371
557.7898, 544.8245
558.2719, 544.8957
558.7540, 544.7332
559.2361, 544.9554
559.7183, 546.0845
560.2004, 547.7571
560.6825, 548.4092
561.1646, 547.2979
561.6467, 546.4014
562.1288, 546.3641
562.6110, 546.2309
563.0931, 544.8995
563.5752, 542.6589
564.0573, 541.1293
564.5394, 541.9522
565.0215, 544.0139
565.5037, 544.1949
565.9858, 542.1584
566.4679, 540.4356
566.9500, 539.8713
567.4321, 540.1872
567.9142, 541.1496
568.3964, 542.8342
568.8785, 544.0729
569.3606, 544.0399
569.8427, 543.6690
570.3248, 544.0985
570.8069, 545.1720
571.2891, 545.8279
571.7712, 545.4447
572.2533, 544.3994
572.7354, 543.6179
573.2175, 543.0922
573.6996, 542.8732
574.1818, 543.5637
574.6639, 544.0062
575.1460, 543.1783
575.6281, 541.4928
576.1102, 540.1514
576.5923, 539.8974
577.0745, 540.2667
577.5566, 540.2177
578.0387, 539.6525
578.5208, 539.1941
579.0029, 538.8380
579.4850, 538.7779
579.9672, 539.2926
580.4493, 540.2440
580.9314, 541.0427
581.4135, 541.5350
581.8956, 541.7325
582.3777, 541.6454
582.8599, 541.2760
583.3420, 540.5964
583.8241, 539.5710
584.3062, 538.3224
584.7883, 536.8683
585.2704, 534.9533
585.7526, 534.2767
586.2347, 536.1542
586.7168, 537.7777
587.1989, 537.5865
587.6810, 536.4449
588.1631, 535.9265
588.6453, 536.5811
589.1274, 537.4571
589.6095, 537.0060
590.0916, 535.0068
590.5737, 533.7634
591.0558, 533.6830
591.5380, 533.8162
592.0201, 533.5672
592.5022, 533.2738
592.9843, 533.6068
593.4664, 534.9732
593.9485, 536.0471
594.4307, 535.4361
594.9128, 533.8270
595.3949, 532.7458
595.8770, 532.4301
596.3591, 532.7382
596.8412, 533.8037
597.3234, 535.4223
597.8055, 536.0522
598.2876, 535.1114
598.7697, 534.1232
599.2518, 532.8326
599.7339, 531.9247
600.2161, 532.4719
600.6982, 534.2537
601.1803, 535.6669
601.6624, 535.2504
602.1445, 533.5721
602.6266, 533.4841
603.1088, 535.9139
603.5909, 537.4998
604.0730, 536.8337
604.5551, 535.3680
605.0372, 533.9160
605.5193, 532.5674
606.0015, 531.4898
606.4836, 530.8016
606.9657, 530.3928
607.4478, 530.1147
607.9299, 529.9852
608.4120, 530.2111
608.8942, 530.9716
609.3763, 531.8071
609.8584, 531.9764
610.3405, 531.2322
610.8226, 530.7215
611.3047, 530.4521
611.7869, 530.4086
612.2690, 531.1411
612.7511, 531.9427
613.2332, 531.3948
613.7153, 529.0126
614.1974, 526.3411
614.6796, 525.7396
615.1617, 527.3443
615.6438, 528.0908
616.1259, 527.3781
616.6080, 526.7072
617.0901, 527.1746
617.5723, 528.0450
618.0544, 528.2284
618.5365, 527.4277
619.0186, 526.3734
619.5007, 524.9658
619.9828, 523.7729
620.4650, 523.9174
620.9471, 525.4271
621.4292, 527.2357
621.9113, 528.7476
622.3934, 529.8579
622.8755, 530.1400
623.3577, 529.0145
623.8398, 527.8455
624.3219, 526.0667
624.8040, 524.7567
625.2861, 525.1065
625.7682, 526.5966
626.2504, 527.6532
626.7325, 527.3340
627.2145, 526.1801
627.6967, 524.9131
628.1788, 523.4946
628.6609, 523.0067
629.1430, 524.1003
629.6251, 525.4800
630.1072, 526.0839
630.5894, 526.0258
631.0715, 525.5905
631.5536, 524.5715
632.0357, 523.4525
632.5178, 522.3901
632.9999, 521.4108
633.4821, 520.4072
633.9642, 519.4202
634.4463, 518.9545
634.9284, 519.6047
635.4105, 521.2634
635.8926, 522.3154
636.3748, 522.6282
636.8569, 522.5012
637.3390, 521.3984
637.8211, 520.3578
638.3032, 520.5310
638.7853, 521.7811
639.2675, 522.6180
639.7496, 521.6851
640.2317, 520.0430
640.7138, 519.4847
641.1959, 519.9308
641.6780, 520.3243
642.1602, 520.3369
642.6423, 520.0641
643.1244, 519.5475
643.6065, 518.7050
644.0886, 518.1982
644.5707, 518.1077
645.0529, 518.2586
645.5350, 518.8448
646.0171, 519.5200
646.4992, 519.7725
646.9813, 519.4857
647.4634, 519.0284
647.9456, 518.8896
648.4277, 519.0001
648.9098, 518.3928
649.3919, 516.6147
649.8740, 515.3021
650.3561, 515.3786
650.8383, 516.0739
651.3204, 516.6042
651.8025, 516.9267
652.2846, 517.1301
652.7667, 517.5880
653.2488, 517.6820
653.7310, 516.2980
654.2131, 513.9580
654.6952, 512.4373
655.1773, 512.4922
655.6594, 513.4744
656.1415, 514.4420
656.6237, 515.4599
657.1058, 516.1560
657.5879, 516.5497
658.0700, 516.5748
658.5521, 515.8749
659.0342, 514.9459
659.5164, 514.4608
659.9985, 514.5716
660.4806, 514.7120
660.9627, 514.3489
661.4448, 513.6941
661.9269, 513.2635
662.4091, 513.0831
662.8912, 512.8470
663.3733, 512.3452
663.8554, 511.7902
664.3375, 511.6225
664.8196, 511.9994
665.3018, 512.3229
665.7839, 512.4090
666.2660, 512.6142
666.7481, 513.5927
667.2302, 514.6993
667.7123, 514.5355
668.1945, 512.6346
668.6766, 510.6079
669.1587, 510.8565
669.6408, 513.1730
670.1229, 514.1565
670.6050, 513.2317
671.0872, 512.4459
671.5693, 513.2654
672.0514, 514.5849
672.5335, 514.1227
673.0156, 511.1273
673.4977, 507.0038
673.9799, 510.7233
674.4620, 512.7348
674.9441, 513.1301
675.4262, 507.0683
675.9083, 509.3445
676.3904, 508.2791
676.8726, 507.0768
677.3547, 510.5264
677.8368, 505.4038
678.3189, 508.7797
678.8010, 508.7631
679.2831, 510.2992
679.7653, 508.4731
680.2474, 507.6856
680.7295, 510.2612
681.2116, 510.9745
681.6937, 508.7615
682.1758, 510.3962
682.6580, 505.1562
683.1401, 505.9489
683.6222, 505.3054
684.1043, 504.7731
684.5864, 504.4892
685.0685, 504.6455
685.5507, 505.7187
686.0328, 508.2098
686.5149, 509.5882
686.9970, 508.9782
687.4791, 508.2032
687.9612, 507.2484
688.4434, 506.6762
688.9255, 507.6126
689.4076, 510.2465
689.8897, 512.2242
690.3718, 511.0809
690.8539, 508.2582
691.3361, 506.5766
691.8182, 506.0739
692.3003, 505.6719
692.7824, 504.8526
693.2645, 504.0555
693.7466, 504.0685
694.2288, 505.2525
694.7109, 505.7408
695.1930, 505.1116
695.6751, 504.3352
696.1572, 503.5936
696.6393, 502.9742
697.1215, 502.5020
697.6036, 502.2054
698.0857, 502.2343
698.5678, 502.9790
699.0499, 504.1090
699.5320, 504.5704
700.0142, 504.3257
700.4963, 504.1511
700.9784, 504.3134
701.4605, 504.7010
701.9426, 505.2783
702.4247, 506.1227
702.9069, 506.4168
703.3890, 506.1361
703.8711, 505.3250
704.3532, 503.0399
704.8353, 500.7319
705.3174, 500.5302
705.7996, 502.5667
706.2817, 504.7519
706.7638, 505.1303
707.2459, 504.3161
707.7280, 504.4315
708.2101, 505.6369
708.6923, 506.2090
709.1743, 505.3854
709.6564, 504.1784
710.1385, 503.6473
710.6207, 503.7444
711.1028, 503.9238
711.5849, 504.5870
712.0670, 504.7978
712.5491, 503.8082
713.0313, 502.3991
713.5134, 501.4587
713.9955, 501.0815
714.4776, 500.8506
714.9597, 500.4471
715.4418, 499.9663
715.9240, 499.6329
716.4061, 499.4367
716.8882, 499.5068
717.3703, 499.9745
717.8524, 500.5481
718.3345, 501.0458
718.8167, 501.4618
719.2988, 501.7904
719.7809, 502.4186
720.2630, 502.3727
720.7451, 500.3489
721.2272, 498.1685
721.7094, 497.9979
722.1915, 499.5511
722.6736, 500.9415
723.1557, 501.0429
723.6378, 500.3635
724.1199, 499.7342
724.6021, 499.0965
725.0842, 499.3128
725.5663, 500.9994
726.0484, 502.4597
726.5305, 502.2829
727.0126, 501.2715
727.4948, 501.2112
727.9769, 502.7722
728.4590, 503.4565
728.9411, 501.7849
729.4232, 499.5609
729.9053, 497.7567
730.3875, 496.7386
730.8696, 497.3890
731.3517, 500.0419
731.8338, 502.9565
732.3159, 503.4841
732.7980, 501.6291
733.2802, 500.2262
733.7623, 499.3148
734.2444, 498.7817
734.7265, 498.9256
735.2086, 499.1798
735.6907, 498.6271
736.1729, 497.1899
736.6550, 496.1075
737.1371, 495.3160
737.6192, 495.2664
738.1013, 492.0485
738.5834, 495.8932
739.0656, 498.0298
739.5477, 498.5503
740.0298, 492.6137
740.5119, 495.0151
740.9940, 494.0750
741.4761, 492.9978
741.9583, 496.5726
742.4404, 491.5753
742.9225, 495.0763
743.4046, 494.3633
743.8867, 494.7803
744.3688, 497.0272
744.8510, 498.2779
745.3331, 497.0128
745.8152, 496.3500
746.2973, 498.5790
746.7794, 501.0525
747.2615, 500.3773
747.7437, 497.1008
748.2258, 494.6375
748.7079, 495.1535
749.1900, 497.2288
749.6721, 498.5229
750.1542, 499.0386
750.6364, 498.6076
751.1185, 496.7811
751.6006, 495.4120
752.0827, 495.9483
752.5648, 497.6555
753.0469, 498.4819
753.5291, 498.0749
754.0112, 497.8061
754.4933, 498.1182
754.9754, 498.3459
755.4575, 497.8272
755.9396, 497.0002
756.4218, 496.7582
756.9039, 497.3629
757.3860, 498.0675
757.8681, 497.7116
758.3502, 496.8207
758.8323, 497.8244
759.3145, 500.8651
759.7966, 502.2355
760.2787, 500.0125
760.7608, 496.8235
761.2429, 496.1598
761.7250, 498.3393
762.2072, 499.3213
762.6893, 498.0457
763.1714, 497.0348
763.6535, 496.9833
764.1356, 497.3716
764.6177, 497.6713
765.0999, 497.9044
765.5820, 498.5179
766.0641, 499.9673
766.5462, 501.5309
767.0283, 501.9457
767.5104, 501.6333
767.9926, 502.4911
768.4747, 504.8698
768.9568, 506.7527
769.4389, 506.5901
769.9210, 505.0193
770.4031, 504.1360
770.8853, 504.1888
771.3674, 504.4521
771.8495, 505.4990
772.3316, 506.1368
772.8137, 505.1596
773.2958, 503.7198
773.7780, 503.8463
774.2601, 506.0911
774.7422, 508.0628
775.2243, 507.8598
775.7064, 506.8004
776.1885, 506.3407
776.6707, 506.5253
777.1528, 507.2778
777.6349, 508.5717
778.1170, 510.1764
778.5991, 511.9102
779.0812, 513.7358
779.5634, 514.7933
780.0455, 514.8661
780.5276, 514.6202
781.0097, 513.5228
781.4918, 512.7770
781.9739, 513.6514
782.4561, 515.7374
782.9382, 517.2730
783.4203, 517.5231
783.9024, 517.6538
784.3845, 518.0983
784.8666, 518.8034
785.3488, 519.9060
785.8309, 521.2363
786.3130, 522.2260
786.7951, 522.5491
787.2772, 522.5494
787.7593, 522.7855
788.2415, 523.2535
788.7236, 523.7346
789.2057, 524.2147
789.6878, 524.7489
790.1699, 525.4836
790.6520, 526.1750
791.1342, 526.3280
791.6162, 525.8311
792.0983, 525.5067
792.5804, 526.0946
793.0626, 526.0453
793.5447, 524.2414
794.0268, 521.7697
794.5089, 519.9584
794.9910, 518.8986
795.4731, 517.6405
795.9553, 515.4457
796.4374, 512.8644
796.9195, 510.6228
797.4016, 508.7181
797.8837, 507.3564
798.3658, 506.5922
798.8480, 505.5829
799.3301, 503.5487
799.8122, 501.0308
800.2943, 499.9606
800.7764, 501.4184
801.2585, 501.9984
801.7407, 500.8613
802.2228, 499.7167
802.7049, 499.2534
803.1870, 499.1545
803.6691, 498.9813
804.1512, 498.6610
804.6334, 498.2764
805.1155, 497.6456
805.5976, 497.1671
806.0797, 497.4870
806.5618, 498.1933
807.0439, 498.3474
807.5261, 497.7267
808.0082, 496.8620
808.4903, 496.2220
808.9724, 495.7716
809.4545, 495.3572
809.9366, 494.9438
810.4188, 494.8257
810.9009, 495.2057
811.3830, 495.5982
811.8651, 495.7310
812.3472, 495.5757
812.8293, 495.0164
813.3115, 493.6291
813.7936, 492.7463
814.2757, 493.1004
814.7578, 493.4738
815.2399, 493.0099
815.7220, 492.0806
816.2042, 491.4142
816.6863, 491.2075
817.1684, 491.0219
817.6505, 490.2518
818.1326, 489.3686
818.6147, 489.3054
819.0969, 489.9632
819.5790, 490.8476
820.0611, 491.8322
820.5432, 492.7373
821.0253, 493.4209
821.5074, 493.8575
821.9896, 493.8326
822.4717, 493.0190
822.9538, 492.5001
823.4359, 493.0092
823.9180, 493.1602
824.4001, 491.8395
824.8823, 489.7408
825.3644, 488.1657
825.8465, 487.3297
826.3286, 486.9589
826.8107, 486.9788
827.2928, 487.3980
827.7750, 488.7468
828.2571, 490.3574
828.7392, 490.8077
829.2213, 489.7963
829.7034, 488.5549
830.1855, 488.3143
830.6677, 488.6790
831.1498, 488.3512
831.6319, 487.3661
832.1140, 487.2120
832.5961, 488.4923
833.0782, 489.3790
833.5604, 488.1012
834.0425, 485.3417
834.5246, 484.0254
835.0067, 484.9494
835.4888, 485.9980
835.9709, 487.8563
836.4531, 489.0715
836.9352, 488.3851
837.4173, 486.9377
837.8994, 486.7250
838.3815, 488.1447
838.8636, 488.6815
839.3458, 485.8101
839.8279, 482.6353
840.3100, 481.9598
840.7921, 483.1211
841.2742, 485.1786
841.7563, 487.6364
842.2385, 489.2899
842.7206, 489.0303
843.2027, 487.6044
843.6848, 486.9986
844.1669, 487.2441
844.6490, 486.6764
845.1312, 484.7336
845.6133, 483.3603
846.0954, 484.0175
846.5775, 485.7252
847.0596, 486.3356
847.5417, 485.4219
848.0239, 484.6946
848.5060, 483.8278
848.9881, 483.5260
849.4702, 484.5052
849.9523, 485.8389
850.4344, 486.6456
850.9166, 486.8235
851.3987, 486.5996
851.8808, 485.7347
852.3629, 484.9906
852.8450, 485.3789
853.3271, 486.1324
853.8093, 485.9018
854.2914, 484.7052
854.7735, 483.2965
855.2556, 482.0595
855.7377, 481.4379
856.2198, 482.5681
856.7020, 485.3448
857.1841, 486.9664
857.6662, 487.2417
858.1483, 487.1124
858.6304, 486.7610
859.1125, 486.4467
859.5947, 486.6570
860.0768, 487.3969
860.5589, 487.1016
861.0410, 484.7865
861.5231, 482.8531
862.0052, 481.0529
862.4874, 480.1833
862.9695, 481.2676
863.4516, 483.6029
863.9337, 485.8245
864.4158, 487.7316
864.8979, 488.5266
865.3801, 486.6053
865.8622, 484.2008
866.3443, 484.0531
866.8264, 485.3945
867.3085, 486.2441
867.7906, 485.9847
868.2728, 484.8753
868.7549, 482.8514
869.2370, 480.5501
869.7191, 479.9496
870.2012, 481.0409
870.6833, 482.3192
871.1655, 483.6171
871.6476, 484.7346
872.1297, 485.6319
872.6118, 486.1306
873.0939, 485.6884
873.5760, 483.7719
874.0581, 482.4907
874.5402, 482.4152
875.0223, 482.3055
875.5045, 481.5647
875.9866, 480.8100
876.4687, 480.8325
876.9508, 481.5546
877.4329, 481.9341
877.9150, 481.3801
878.3972, 480.7296
878.8793, 480.1989
879.3614, 479.9633
879.8435, 480.7713
880.3256, 482.0460
880.8077, 481.9754
881.2899, 479.7251
881.7720, 476.9014
882.2541, 474.9755
882.7362, 474.0412
883.2183, 474.9032
883.7004, 477.3278
884.1826, 478.8811
884.6647, 478.7553
885.1468, 478.1406
885.6289, 478.1724
886.1110, 478.7374
886.5931, 479.2862
887.0753, 479.9597
887.5574, 480.2097
888.0395, 480.1256
888.5216, 479.4031
889.0037, 477.0851
889.4858, 474.3486
889.9680, 473.3754
890.4501, 474.5922
890.9322, 475.1085
891.4143, 473.5732
891.8964, 472.3984
892.3785, 473.0149
892.8607, 474.1979
893.3428, 474.6212
893.8249, 474.2992
894.3070, 474.0218
894.7891, 474.1992
895.2712, 474.3959
895.7534, 474.0530
896.2355, 473.5685
896.7176, 473.9563
897.1997, 474.8478
897.6818, 474.4943
898.1639, 472.2830
898.6461, 469.7636
899.1282, 468.6150
899.6103, 468.6760
900.0924, 469.4682
900.5745, 471.0434
901.0566, 472.2014
901.5388, 472.7557
902.0209, 472.6156
902.5030, 471.5331
902.9851, 469.8776
903.4672, 468.6507
903.9493, 467.7113
904.4315, 467.5992
904.9136, 469.3125
905.3957, 470.5566
905.8778, 470.4808
906.3599, 469.7337
906.8420, 468.5089
907.3242, 467.0277
907.8063, 466.6820
908.2884, 469.0153
908.7705, 470.8819
909.2526, 470.7334
909.7347, 469.9092
910.2169, 469.6523
910.6990, 469.6868
911.1811, 468.8492
911.6632, 466.7875
912.1453, 465.3315
912.6274, 467.1534
913.1096, 469.7510
913.5917, 468.5670
914.0738, 465.0331
914.5559, 463.5935
915.0380, 465.0006
915.5201, 466.7495
916.0023, 467.0699
916.4844, 466.4872
916.9665, 466.0224
917.4486, 465.6749
917.9307, 465.6585
918.4128, 466.0170
918.8950, 466.5367
919.3771, 467.2296
919.8592, 467.8388
920.3413, 468.0829
920.8234, 467.9615
921.3055, 467.3446
921.7877, 465.6234
922.2698, 464.4898
922.7519, 464.1294
923.2340, 464.4074
923.7161, 466.0851
924.1982, 468.0800
924.6804, 468.1894
925.1625, 465.8023
925.6446, 464.1849
926.1267, 465.0015
926.6088, 465.7660
927.0909, 464.8750
927.5731, 463.5137
928.0552, 463.1601
928.5373, 463.7018
929.0194, 463.9327
929.5015, 463.1725
929.9836, 462.4297
930.4658, 462.8011
930.9479, 463.5694
931.4300, 463.8327
931.9121, 463.5540
932.3942, 462.5880
932.8763, 461.0163
933.3585, 459.8976
933.8406, 460.3539
934.3227, 461.7523
934.8048, 462.5460
935.2869, 462.8006
935.7690, 463.1500
936.2512, 463.6883
936.7333, 464.1065
937.2154, 464.2827
937.6975, 464.0648
938.1796, 463.1188
938.6617, 461.3979
939.1439, 459.8630
939.6260, 458.2503
940.1081, 457.5499
940.5902, 458.2340
941.0723, 459.5467
941.5544, 461.3290
942.0366, 463.2310
942.5187, 463.9971
943.0008, 463.2347
943.4829, 462.3549
943.9650, 461.0022
944.4471, 460.0365
944.9293, 460.1127
945.4114, 460.5074
945.8935, 460.3263
946.3756, 459.6570
946.8577, 459.4861
947.3398, 460.6595
947.8220, 461.4142
948.3041, 460.3332
948.7862, 458.9644
949.2683, 458.7348
949.7504, 459.3055
950.2325, 459.9285
950.7147, 460.3428
951.1968, 460.3448
951.6789, 459.4110
952.1610, 458.3962
952.6431, 458.4160
953.1252, 459.1525
953.6074, 460.2084
954.0895, 461.3381
954.5716, 461.7127
955.0537, 460.9008
955.5358, 459.8359
956.0179, 459.8592
956.5000, 460.7238
956.9821, 461.4810
957.4642, 462.1087
957.9464, 461.8121
958.4285, 460.2977
958.9106, 459.2015
959.3927, 459.9438
959.8748, 461.5885
960.3569, 461.4182
960.8391, 458.8543
961.3212, 457.8206
961.8033, 458.9144
962.2854, 459.8964
962.7675, 460.1627
963.2496, 459.7610
963.7318, 458.3237
964.2139, 456.1470
964.6960, 455.4870
965.1781, 457.8190
965.6602, 459.2516
966.1423, 458.9782
966.6245, 458.7038
967.1066, 459.3425
967.5887, 460.2245
968.0708, 460.5587
968.5529, 460.2961
969.0350, 459.6680
969.5172, 458.3459
969.9993, 457.1642
970.4814, 456.4547
970.9635, 455.9239
971.4456, 455.2045
971.9277, 454.5421
972.4099, 454.5014
972.8920, 455.2095
973.3741, 455.9835
973.8562, 456.7843
974.3383, 457.1463
974.8204, 456.1141
975.3026, 454.7619
975.7847, 454.7692
976.2668, 455.9180
976.7489, 456.9427
977.2310, 457.2910
977.7131, 456.9547
978.1953, 455.2282
978.6774, 453.2293
979.1595, 453.2781
979.6416, 454.6663
980.1237, 455.0555
980.6058, 454.1072
981.0880, 453.1212
981.5701, 452.8913
982.0522, 453.4121
982.5343, 455.1193
983.0164, 457.6493
983.4985, 458.9535
983.9807, 459.0069
984.4628, 458.5362
984.9449, 457.7129
985.4270, 457.0273
985.9091, 456.9982
986.3912, 457.2304
986.8734, 456.3862
987.3555, 454.2817
987.8376, 452.5831
988.3197, 451.2356
988.8018, 450.8343
989.2839, 451.8924
989.7661, 453.3671
990.2482, 454.1278
990.7303, 454.2797
991.2124, 454.7077
991.6945, 456.2313
992.1766, 455.9601
992.6588, 451.8273
993.1409, 448.8625
993.6230, 450.1475
994.1051, 453.0848
994.5872, 454.3253
995.0693, 453.8922
995.5515, 453.7110
996.0336, 453.6848
996.5157, 454.0917
996.9978, 455.7645
997.4799, 457.0145
997.9620, 456.6060
998.4442, 455.3701
998.9263, 454.5009
999.4084, 454.1308
999.8905, 453.8878
1000.373, 454.1090
1000.855, 453.8817
1001.337, 451.9125
1001.819, 450.2636
1002.301, 451.0838
1002.783, 453.3195
1003.265, 454.9900
1003.747, 455.6167
1004.230, 455.1865
1004.712, 452.3745
1005.194, 450.0191
1005.676, 450.4990
1006.158, 452.0712
1006.640, 452.8410
1007.122, 452.8109
1007.604, 452.7623
1008.086, 452.9651
1008.569, 452.8188
1009.051, 451.1324
1009.533, 449.5247
1010.015, 450.3185
1010.497, 452.1991
1010.979, 452.6818
1011.461, 451.8422
1011.943, 451.4302
1012.426, 452.2614
1012.908, 453.5778
1013.390, 455.0224
1013.872, 456.1462
1014.354, 455.7249
1014.836, 454.3338
1015.318, 453.6446
1015.800, 453.8836
1016.282, 454.4464
1016.765, 455.0152
1017.247, 455.2991
1017.729, 454.7343
1018.211, 453.5630
1018.693, 452.4006
1019.175, 451.3729
1019.657, 451.6139
1020.139, 453.2814
1020.622, 454.3940
1021.104, 453.5807
1021.586, 451.9096
1022.068, 451.2381
1022.550, 451.4953
1023.032, 452.0417
1023.514, 452.8919
1023.996, 453.1813
1024.478, 452.6705
1024.961, 451.8266
1025.443, 450.8578
1025.925, 450.1616
1026.407, 450.9216
1026.889, 453.2729
1027.371, 454.1230
1027.853, 453.2994
1028.335, 451.7623
1028.818, 449.3657
1029.300, 447.7354
1029.782, 448.3146
1030.264, 450.3160
1030.746, 451.7459
1031.228, 452.6117
1031.710, 452.8340
1032.192, 452.2741
1032.674, 451.4120
1033.156, 450.0732
1033.639, 449.0717
1034.121, 449.2118
1034.603, 450.0804
1035.085, 450.3921
1035.567, 449.7380
1036.049, 450.2262
1036.531, 453.2478
1037.013, 454.6371
1037.496, 452.0418
1037.978, 449.0818
1038.460, 448.7123
1038.942, 450.2386
1039.424, 451.6237
1039.906, 453.2160
1040.388, 453.5431
1040.870, 450.9755
1041.353, 449.5015
1041.835, 451.4689
1042.317, 453.5970
1042.799, 452.7413
1043.281, 450.0811
1043.763, 449.1454
1044.245, 450.5700
1044.727, 451.9235
1045.209, 453.8046
1045.692, 454.6837
1046.174, 453.2956
1046.656, 451.5204
1047.138, 450.9478
1047.620, 451.1632
1048.102, 450.8114
1048.584, 449.4615
1049.066, 448.7896
1049.548, 449.6044
1050.031, 450.3547
1050.513, 450.5951
1050.995, 450.5291
1051.477, 449.8585
1051.959, 449.1103
1052.441, 449.8397
1052.923, 452.8237
1053.405, 454.3617
1053.888, 451.8352
1054.370, 450.1069
1054.852, 451.7509
1055.334, 454.2548
1055.816, 455.9965
1056.298, 456.7661
1056.780, 456.2929
1057.262, 454.3495
1057.745, 452.6041
1058.227, 450.7899
1058.709, 450.2117
1059.191, 452.8145
1059.673, 455.6421
1060.155, 455.9311
1060.637, 454.5246
1061.119, 453.5390
1061.601, 453.3952
1062.083, 453.5429
1062.566, 454.1756
1063.048, 454.5669
1063.530, 454.1154
1064.012, 453.5378
1064.494, 453.5790
1064.976, 453.9323
1065.458, 454.0117
1065.940, 450.2570
1066.423, 454.2317
1066.905, 456.4982
1067.387, 457.1485
1067.869, 451.3418
1068.351, 453.8730
1068.833, 453.0627
1069.315, 452.1153
1069.797, 455.8200
1070.280, 447.4738
1070.762, 451.4226
1071.244, 453.6634
1071.726, 454.2880
1072.208, 448.4555
1072.690, 450.9609
1073.172, 450.1249
1073.654, 449.1519
1074.136, 452.8308
1074.619, 447.9376
1075.101, 447.6221
1075.583, 451.2950
1076.065, 453.2599
1076.547, 453.6086
1077.029, 447.5003
1077.511, 449.7299
1077.993, 448.6180
1078.475, 447.3692
1078.958, 450.7719
1079.440, 445.6028
1079.922, 448.9321
1080.404, 448.8690
1080.886, 450.3586
1081.368, 448.4860
1081.850, 447.6520
1082.332, 450.1810
1082.814, 450.8480
1083.297, 448.5879
1083.779, 450.1762
1084.261, 446.5739
1084.743, 446.2191
1085.225, 446.7909
1085.707, 447.3063
1086.189, 446.9889
1086.671, 446.3642
1087.154, 446.0692
1087.636, 446.0620
1088.118, 445.8600
1088.600, 445.2003
1089.082, 445.0569
1089.564, 446.1968
1090.046, 447.5270
1090.528, 448.9697
1091.010, 449.8651
1091.493, 449.2017
1091.975, 447.5378
1092.457, 446.1486
1092.939, 445.2753
1093.421, 445.2461
1093.903, 447.0997
1094.385, 448.6294
1094.867, 448.7607
1095.349, 448.2127
1095.832, 447.1113
1096.314, 445.9908
1096.796, 446.0186
1097.278, 447.3393
1097.760, 447.6538
1098.242, 445.5034
1098.724, 443.2891
1099.206, 441.1376
1099.689, 439.8633
1100.171, 440.7608
1100.653, 442.4751
1101.135, 442.7621
1101.617, 441.6322
1102.099, 441.5764
1102.581, 444.5342
1103.063, 446.2701
1103.546, 444.7789
1104.028, 443.0053
1104.510, 442.4357
1104.992, 442.4403
1105.474, 442.3835
1105.956, 442.1843
1106.438, 441.6630
1106.920, 440.1389
1107.402, 439.9471
1107.885, 442.6988
1108.367, 445.2199
1108.849, 446.8099
1109.331, 447.3123
1109.813, 445.8506
1110.295, 443.3280
1110.777, 442.4025
1111.259, 443.9254
1111.741, 444.1797
1112.224, 441.4039
1112.706, 439.4669
1113.188, 439.8149
1113.670, 440.5753
1114.152, 440.5676
1114.634, 440.1797
1115.116, 440.1736
1115.598, 440.6147
1116.081, 440.6563
1116.563, 439.7916
1117.045, 439.4115
1117.527, 439.9563
1118.009, 440.5428
1118.491, 440.6352
1118.973, 440.6981
1119.455, 441.6110
1119.938, 443.1369
1120.420, 442.9481
1120.902, 439.7331
1121.384, 438.1110
1121.866, 438.8482
1122.348, 439.7755
1122.830, 440.1678
1123.312, 440.4818
1123.794, 441.1340
1124.276, 442.0422
1124.759, 443.0655
1125.241, 444.4480
1125.723, 444.3143
1126.205, 441.9625
1126.687, 440.9520
1127.169, 442.4142
1127.651, 444.3731
1128.133, 445.7045
1128.616, 446.2820
1129.098, 445.7738
1129.580, 444.2470
1130.062, 442.6116
1130.544, 440.7972
1131.026, 439.9861
1131.508, 440.4487
1131.990, 440.7950
1132.473, 440.3345
1132.955, 439.7633
1133.437, 439.9061
1133.919, 440.5849
1134.401, 441.4764
1134.883, 442.4716
1135.365, 441.8575
1135.847, 439.6582
1136.329, 438.2768
1136.812, 438.4561
1137.294, 439.3393
1137.776, 440.3734
1138.258, 441.1070
1138.740, 440.3266
1139.222, 438.6674
1139.704, 438.3617
1140.186, 439.1451
1140.668, 439.7948
1141.151, 440.0587
1141.633, 440.1288
1142.115, 440.1052
1142.597, 439.6451
1143.079, 437.6701
1143.561, 435.6349
1144.043, 436.5903
1144.525, 439.0359
1145.008, 439.7647
1145.490, 439.0750
1145.972, 439.1593
1146.454, 440.5909
1146.936, 441.9413
1147.418, 442.3191
1147.900, 442.0356
1148.382, 441.1148
1148.865, 439.9337
1149.347, 438.5322
1149.829, 437.3956
1150.311, 437.5562
1150.793, 438.8180
1151.275, 439.7471
1151.757, 439.6732
1152.239, 439.7758
1152.721, 441.1595
1153.203, 442.4269
1153.686, 442.6797
1154.168, 442.3433
1154.650, 441.8600
1155.132, 441.1817
1155.614, 439.8170
1156.096, 437.6589
1156.578, 436.5209
1157.060, 437.6834
1157.543, 438.8223
1158.025, 439.2080
1158.507, 439.4955
1158.989, 440.3281
1159.471, 441.1138
1159.953, 440.9273
1160.435, 439.9083
1160.917, 439.2529
1161.400, 439.1088
1161.882, 439.1508
1162.364, 439.4478
1162.846, 439.8192
1163.328, 440.3639
1163.810, 440.7813
1164.292, 440.9257
1164.774, 440.7212
1165.256, 439.8278
1165.739, 438.1370
1166.221, 437.8832
1166.703, 439.6841
1167.185, 440.4606
1167.667, 439.4361
1168.149, 438.9222
1168.631, 440.1507
1169.113, 441.7235
1169.595, 442.0775
1170.078, 441.5327
1170.560, 441.1541
1171.042, 440.9417
1171.524, 440.7013
1172.006, 440.4374
1172.488, 440.6130
1172.970, 441.3329
1173.452, 441.7877
1173.934, 441.4190
1174.417, 440.8929
1174.899, 441.4548
1175.381, 442.4465
1175.863, 441.9247
1176.345, 440.3693
1176.827, 438.8427
1177.309, 437.7053
1177.791, 437.8785
1178.274, 439.5350
1178.756, 441.2438
1179.238, 441.9786
1179.720, 442.1930
1180.202, 442.1781
1180.684, 442.0911
1181.166, 442.3358
1181.648, 442.5475
1182.130, 441.9033
1182.613, 440.5678
1183.095, 439.4547
1183.577, 438.8542
1184.059, 438.8643
1184.541, 440.2326
1185.023, 441.3395
1185.505, 441.2495
1185.987, 440.5824
1186.469, 439.1939
1186.952, 437.9377
1187.434, 438.6164
1187.916, 441.1766
1188.398, 442.3380
1188.880, 440.2953
1189.362, 439.0569
1189.844, 439.9019
1190.326, 440.4350
1190.809, 439.5556
1191.291, 438.4219
1191.773, 437.8402
1192.255, 437.7547
1192.737, 438.0523
1193.219, 438.7455
1193.701, 439.7843
1194.183, 441.5115
1194.666, 442.1289
1195.148, 441.1118
1195.630, 440.1669
1196.112, 440.0824
1196.594, 440.3096
1197.076, 440.2069
1197.558, 440.0493
1198.040, 440.8508
1198.522, 442.4334
1199.005, 443.2958
1199.487, 443.4169
1199.969, 443.1641
1200.451, 442.5816
1200.933, 440.9240
1201.415, 437.7506
1201.897, 435.2806
1202.379, 436.7321
1202.861, 439.6107
1203.344, 439.6970
1203.826, 438.4925
1204.308, 438.6867
1204.790, 439.8851
1205.272, 440.5854
1205.754, 440.4444
1206.236, 439.8276
1206.718, 438.7154
1207.201, 437.9036
1207.683, 438.2147
1208.165, 438.6081
1208.647, 437.8417
1209.129, 437.2694
1209.611, 439.0637
1210.093, 441.8972
1210.575, 442.5194
1211.057, 440.4366
1211.540, 438.9743
1212.022, 438.8756
1212.504, 439.0230
1212.986, 439.9607
1213.468, 440.2128
1213.950, 438.8615
1214.432, 437.0939
1214.914, 435.7587
1215.396, 434.9878
1215.879, 435.3666
1216.361, 437.0993
1216.843, 436.8523
1217.325, 434.0435
1217.807, 433.4798
1218.289, 436.1139
1218.771, 438.8102
1219.253, 440.1877
1219.736, 440.7759
1220.218, 441.1519
1220.700, 441.0222
1221.182, 439.1461
1221.664, 436.3658
1222.146, 435.5359
1222.628, 436.3445
1223.110, 437.5091
1223.593, 438.7038
1224.075, 439.9904
1224.557, 441.3842
1225.039, 442.0960
1225.521, 440.6195
1226.003, 439.3256
1226.485, 441.0715
1226.967, 443.4147
1227.449, 444.0129
1227.932, 443.3207
1228.414, 442.0619
1228.896, 440.5240
1229.378, 439.1885
1229.860, 438.1591
1230.342, 437.3848
1230.824, 436.9568
1231.306, 436.6268
1231.788, 436.3174
1232.271, 436.0885
1232.753, 435.9569
1233.235, 435.9379
1233.717, 436.0693
1234.199, 436.3358
1234.681, 436.5900
1235.163, 436.7374
1235.645, 437.4739
1236.128, 438.9843
1236.610, 440.0427
1237.092, 440.3712
1237.574, 440.0349
1238.056, 439.0064
1238.538, 437.8851
1239.020, 437.4087
1239.502, 437.4793
1239.984, 438.2724
1240.467, 439.2762
1240.949, 438.6212
1241.431, 436.8600
1241.913, 436.2110
1242.395, 436.9304
1242.877, 437.3524
1243.359, 436.5827
1243.841, 436.1272
1244.323, 437.5571
1244.806, 439.1729
1245.288, 439.9648
1245.770, 440.1271
1246.252, 439.6375
1246.734, 438.7982
1247.216, 437.8055
1247.698, 436.8282
1248.180, 436.7272
1248.662, 438.3560
1249.145, 439.0554
1249.627, 438.4147
1250.109, 437.1981
1250.591, 434.8182
1251.073, 433.2636
1251.555, 433.9442
1252.037, 435.5806
1252.519, 436.5438
1253.002, 436.8470
1253.484, 436.2146
1253.966, 434.6964
1254.448, 435.1306
1254.930, 437.4298
1255.412, 438.4601
1255.894, 437.6934
1256.376, 437.7209
1256.859, 439.9205
1257.341, 441.9413
1257.823, 441.2032
1258.305, 439.1750
1258.787, 436.9139
1259.269, 435.2726
1259.751, 435.7369
1260.233, 437.5152
1260.715, 439.5716
1261.198, 441.4029
1261.680, 442.1190
1262.162, 441.3428
1262.644, 440.3359
1263.126, 438.8217
1263.608, 438.0985
1264.090, 439.0103
1264.572, 440.2714
1265.054, 441.6976
1265.537, 442.6014
1266.019, 441.9458
1266.501, 440.3245
1266.983, 439.7603
1267.465, 440.3337
1267.947, 441.3805
1268.429, 443.0753
1268.911, 442.7503
1269.394, 439.9691
1269.876, 438.1575
1270.358, 438.7277
1270.840, 439.4677
1271.322, 438.2819
1271.804, 436.6421
1272.286, 436.8088
1272.768, 438.0283
1273.250, 439.6346
1273.733, 440.9677
1274.215, 440.4319
1274.697, 438.7371
1275.179, 438.2310
1275.661, 439.3993
1276.143, 440.4993
1276.625, 440.7684
1277.107, 441.0321
1277.589, 441.9567
1278.072, 442.4204
1278.554, 441.2778
1279.036, 440.1559
1279.518, 440.6338
1280.000, 441.6869
1280.482, 441.5264
1280.964, 440.3001
1281.446, 439.4368
1281.929, 438.7733
1282.411, 439.7942
1282.893, 442.6897
1283.375, 444.7340
1283.857, 445.2772
1284.339, 446.1174
1284.821, 448.3377
1285.303, 450.9246
1285.786, 452.9697
1286.268, 454.3931
##END=



