##NAMES=Tridymite
##RRUFFID=R090042
##IDEAL CHEMISTRY=SiO_2_
##LOCALITY=The Fukang Pallasite meteorite, Gobi Desert, China, found in 2001
##OWNER=RRUFF
##SOURCE=Dante Lauretta
##DESCRIPTION=Colorless micro-crystal, as an inclusion in olivine. Masami Kanzaki (Okayama University) suggests this is polytype tridymite MC.
##STATUS=The identification of this mineral has been confirmed by single-crystal X-ray diffraction.
##URL=rruff.info/R090042
91.11523, 13.04360
91.59735, 13.37950
92.07947, 13.16457
92.56158, 12.53458
93.04370, 11.91464
93.52582, 11.56103
94.00793, 11.38833
94.49006, 11.15582
94.97218, 10.74884
95.45429, 10.48501
95.93641, 11.18135
96.41853, 12.80688
96.90064, 14.09353
97.38276, 13.67045
97.86488, 11.75199
98.34699, 10.81338
98.82911, 11.52644
99.31123, 13.33533
99.79334, 14.43897
100.2755, 14.75727
100.7576, 14.61347
101.2397, 14.13953
101.7218, 13.20055
102.2039, 12.56730
102.6861, 12.46734
103.1682, 12.89434
103.6503, 13.28675
104.1324, 13.76615
104.6145, 14.08152
105.0966, 13.85679
105.5788, 12.65832
106.0609, 11.67634
106.5430, 11.28713
107.0251, 11.71887
107.5072, 11.90109
107.9893, 11.53054
108.4715, 10.98650
108.9536, 10.94151
109.4357, 11.39647
109.9178, 12.35398
110.3999, 13.94960
110.8820, 17.23277
111.3642, 19.40647
111.8463, 19.76279
112.3284, 18.87062
112.8105, 18.32174
113.2926, 17.73831
113.7747, 17.93224
114.2569, 19.33882
114.7390, 23.27698
115.2211, 26.99473
115.7032, 29.56387
116.1853, 31.23986
116.6674, 33.31005
117.1496, 36.13416
117.6317, 39.60023
118.1138, 43.58153
118.5959, 48.00579
119.0780, 52.99879
119.5602, 58.71896
120.0423, 65.19157
120.5244, 71.94682
121.0065, 79.28695
121.4886, 86.64311
121.9707, 93.29243
122.4529, 98.37236
122.9350, 102.8870
123.4171, 107.7297
123.8992, 112.9815
124.3813, 117.9986
124.8634, 121.8834
125.3456, 125.1003
125.8277, 128.7200
126.3098, 133.5366
126.7919, 138.9715
127.2740, 143.9671
127.7561, 148.2582
128.2383, 152.8439
128.7204, 159.1656
129.2025, 166.9757
129.6846, 174.9726
130.1667, 182.1710
130.6488, 188.8476
131.1310, 196.4280
131.6131, 205.3156
132.0952, 214.7271
132.5773, 223.0375
133.0594, 230.2579
133.5415, 237.7005
134.0237, 246.9013
134.5058, 257.7220
134.9879, 267.2425
135.4700, 274.8166
135.9521, 280.9754
136.4343, 287.4803
136.9164, 294.3470
137.3985, 301.5934
137.8806, 309.7154
138.3627, 319.0686
138.8448, 327.1554
139.3270, 333.3812
139.8091, 337.9595
140.2912, 342.6968
140.7733, 347.8080
141.2554, 352.7767
141.7375, 356.9865
142.2197, 360.3082
142.7018, 363.2739
143.1839, 365.6566
143.6660, 367.3008
144.1481, 370.6280
144.6302, 376.3447
145.1124, 383.1282
145.5945, 389.2417
146.0766, 394.4362
146.5587, 399.4440
147.0408, 404.4743
147.5230, 409.5818
148.0051, 414.3394
148.4872, 416.9989
148.9693, 416.8395
149.4514, 416.2112
149.9335, 415.2156
150.4157, 413.7226
150.8978, 411.6317
151.3799, 408.3284
151.8620, 405.7074
152.3441, 404.2476
152.8262, 403.4037
153.3084, 402.1787
153.7905, 400.2124
154.2726, 398.1339
154.7547, 396.1354
155.2368, 394.3181
155.7189, 392.4789
156.2011, 390.4981
156.6832, 388.4491
157.1653, 386.5772
157.6474, 384.5605
158.1295, 382.9615
158.6116, 382.1234
159.0938, 382.9396
159.5759, 383.3230
160.0580, 382.2245
160.5401, 380.1395
161.0222, 378.7760
161.5044, 378.8713
161.9865, 379.7515
162.4686, 381.0058
162.9507, 383.4355
163.4328, 385.2069
163.9149, 384.9173
164.3971, 383.0536
164.8792, 382.0451
165.3613, 384.0507
165.8434, 386.9760
166.3255, 388.9087
166.8076, 388.2088
167.2898, 387.2603
167.7719, 387.4109
168.2540, 388.5689
168.7361, 389.9462
169.2182, 391.3652
169.7003, 392.6646
170.1825, 393.6498
170.6646, 394.3318
171.1467, 394.6206
171.6288, 394.2211
172.1109, 393.1634
172.5931, 392.2260
173.0752, 392.1652
173.5573, 392.5661
174.0394, 392.7602
174.5215, 392.0742
175.0036, 391.2435
175.4858, 391.4121
175.9679, 392.6235
176.4500, 393.4392
176.9321, 391.7286
177.4142, 388.6348
177.8963, 386.7938
178.3785, 388.7459
178.8606, 392.1684
179.3427, 393.2122
179.8248, 391.6945
180.3069, 389.4460
180.7890, 388.0779
181.2712, 387.4780
181.7533, 387.3246
182.2354, 387.6778
182.7175, 388.3474
183.1996, 388.8500
183.6818, 389.1269
184.1639, 389.5114
184.6460, 390.5335
185.1281, 392.0767
185.6102, 393.5879
186.0923, 394.5139
186.5745, 395.1638
187.0566, 396.6281
187.5387, 399.1242
188.0208, 401.8781
188.5029, 403.6678
188.9850, 404.5988
189.4672, 405.9843
189.9493, 409.0116
190.4314, 413.2406
190.9135, 416.3100
191.3956, 417.8223
191.8777, 418.8503
192.3599, 421.1844
192.8420, 424.8219
193.3241, 428.6725
193.8062, 431.9185
194.2883, 434.7036
194.7704, 438.5374
195.2526, 443.7569
195.7347, 449.5351
196.2168, 454.0709
196.6989, 457.2079
197.1810, 460.8850
197.6632, 466.7727
198.1453, 474.9050
198.6274, 481.0197
199.1095, 484.2800
199.5916, 486.2994
200.0737, 490.5608
200.5559, 497.4007
201.0380, 504.4423
201.5201, 510.2027
202.0022, 514.6063
202.4843, 519.8359
202.9664, 526.4427
203.4486, 533.5273
203.9307, 538.9581
204.4128, 542.4717
204.8949, 545.2562
205.3770, 547.6262
205.8591, 549.3946
206.3413, 552.3073
206.8234, 557.0643
207.3055, 562.5504
207.7876, 565.8453
208.2697, 566.5590
208.7519, 566.1420
209.2340, 565.3080
209.7161, 564.0870
210.1982, 562.2906
210.6803, 559.9893
211.1624, 557.0621
211.6446, 553.1619
212.1267, 548.2877
212.6088, 542.5427
213.0909, 535.8440
213.5730, 528.0178
214.0551, 519.9089
214.5373, 511.3711
215.0194, 502.6904
215.5015, 494.4507
215.9836, 486.7002
216.4657, 479.2308
216.9478, 471.8085
217.4300, 464.4151
217.9121, 457.0437
218.3942, 449.6271
218.8763, 442.2910
219.3584, 435.5688
219.8405, 429.8011
220.3227, 424.0738
220.8048, 417.8341
221.2869, 410.6026
221.7690, 404.0526
222.2511, 398.2062
222.7333, 393.1038
223.2154, 389.2570
223.6975, 387.4925
224.1796, 385.5289
224.6617, 382.0760
225.1438, 376.2541
225.6260, 371.3365
226.1081, 367.6055
226.5902, 364.7961
227.0723, 362.3051
227.5544, 360.2313
228.0365, 358.2862
228.5187, 356.3450
229.0008, 354.4233
229.4829, 352.4320
229.9650, 350.1540
230.4471, 347.8422
230.9292, 346.2158
231.4114, 345.6637
231.8935, 345.1471
232.3756, 344.1674
232.8577, 342.3485
233.3398, 340.9253
233.8220, 340.1203
234.3041, 339.6298
234.7862, 338.7057
235.2683, 337.1017
235.7504, 335.4570
236.2325, 333.9698
236.7147, 332.5652
237.1968, 331.6148
237.6789, 331.2416
238.1610, 331.2901
238.6431, 331.4320
239.1252, 331.7343
239.6074, 332.0454
240.0895, 332.1762
240.5716, 331.6832
241.0537, 332.4200
241.5358, 335.2643
242.0179, 338.9152
242.5001, 340.6742
242.9822, 339.3574
243.4643, 338.0478
243.9464, 337.7742
244.4285, 338.6752
244.9106, 340.2032
245.3928, 342.7131
245.8749, 345.6298
246.3570, 347.9372
246.8391, 349.3584
247.3212, 350.6281
247.8034, 351.9750
248.2855, 353.4372
248.7676, 354.7918
249.2497, 355.8122
249.7318, 356.9058
250.2139, 358.8200
250.6961, 362.2728
251.1782, 365.2563
251.6603, 367.1564
252.1424, 367.8223
252.6245, 368.2460
253.1066, 367.9245
253.5888, 367.8195
254.0709, 369.3675
254.5530, 373.4894
255.0351, 377.3878
255.5172, 380.1724
255.9993, 381.7093
256.4815, 383.7953
256.9636, 386.8410
257.4457, 389.9633
257.9278, 392.0759
258.4099, 392.6710
258.8921, 393.4547
259.3742, 395.0854
259.8563, 397.5801
260.3384, 398.7364
260.8205, 397.8151
261.3026, 396.5259
261.7848, 396.5572
262.2669, 398.1770
262.7490, 400.3969
263.2311, 403.0989
263.7132, 406.2705
264.1953, 409.6019
264.6775, 413.1730
265.1596, 416.7345
265.6417, 420.0360
266.1238, 422.9713
266.6059, 425.9081
267.0880, 428.5848
267.5702, 431.2446
268.0523, 435.4503
268.5344, 441.5949
269.0165, 448.6066
269.4986, 456.0356
269.9807, 464.2817
270.4629, 471.3852
270.9450, 476.7308
271.4271, 480.8597
271.9092, 485.7353
272.3913, 491.4991
272.8734, 497.6018
273.3556, 503.9242
273.8377, 510.6315
274.3198, 516.2019
274.8019, 520.0374
275.2840, 523.0328
275.7661, 528.1636
276.2483, 536.0482
276.7304, 543.4368
277.2125, 548.2685
277.6946, 550.4642
278.1768, 551.5477
278.6589, 551.1823
279.1410, 550.3237
279.6231, 551.2431
280.1052, 554.2647
280.5873, 556.9601
281.0695, 558.2113
281.5516, 558.0383
282.0337, 556.4271
282.5158, 552.8386
282.9979, 548.9702
283.4800, 547.5764
283.9622, 548.7225
284.4443, 550.8477
284.9264, 553.4894
285.4085, 556.5844
285.8906, 559.7194
286.3727, 562.7849
286.8549, 566.2515
287.3370, 570.9971
287.8191, 576.9537
288.3012, 582.7721
288.7833, 587.5771
289.2654, 591.8133
289.7476, 597.1806
290.2297, 603.7069
290.7118, 611.1622
291.1939, 620.0646
291.6760, 629.9933
292.1581, 638.7411
292.6403, 644.9836
293.1224, 649.9690
293.6045, 657.1506
294.0866, 666.4883
294.5687, 675.7604
295.0508, 682.7436
295.5330, 688.0297
296.0151, 693.4537
296.4972, 699.3622
296.9793, 705.8441
297.4614, 713.3077
297.9435, 721.6496
298.4257, 729.5090
298.9078, 735.6396
299.3899, 740.5588
299.8720, 745.2281
300.3541, 749.9194
300.8362, 754.3177
301.3184, 757.9825
301.8005, 761.0304
302.2826, 763.7794
302.7647, 766.7306
303.2469, 769.4293
303.7290, 771.3727
304.2111, 772.5549
304.6932, 772.6417
305.1753, 771.1641
305.6574, 768.3076
306.1396, 764.5621
306.6217, 760.2441
307.1038, 755.0723
307.5859, 748.6959
308.0680, 741.0020
308.5501, 732.4479
309.0323, 722.9379
309.5144, 712.8470
309.9965, 702.8151
310.4786, 692.7200
310.9607, 682.9406
311.4428, 673.8011
311.9250, 665.3324
312.4071, 657.0330
312.8892, 648.8363
313.3713, 640.7769
313.8534, 632.8199
314.3355, 624.5804
314.8177, 616.8780
315.2998, 610.2186
315.7819, 604.5274
316.2640, 599.2208
316.7461, 594.5261
317.2282, 589.9049
317.7104, 584.8309
318.1925, 578.5499
318.6746, 572.7542
319.1567, 568.2145
319.6388, 564.5916
320.1209, 561.1120
320.6031, 556.7917
321.0852, 553.1061
321.5673, 550.8195
322.0494, 550.3461
322.5315, 550.5494
323.0136, 551.9658
323.4958, 553.7960
323.9779, 554.7391
324.4600, 553.3716
324.9421, 552.1884
325.4242, 551.9188
325.9064, 552.6084
326.3885, 554.1771
326.8706, 557.3699
327.3527, 561.1365
327.8348, 564.4081
328.3170, 566.2108
328.7991, 568.5350
329.2812, 571.7020
329.7633, 575.7320
330.2454, 580.0477
330.7275, 584.4333
331.2097, 589.2055
331.6918, 594.6340
332.1739, 601.4102
332.6560, 607.6880
333.1381, 612.7687
333.6202, 617.0732
334.1024, 622.5115
334.5845, 629.4214
335.0666, 636.8468
335.5487, 644.1716
336.0308, 650.8082
336.5129, 658.9424
336.9951, 669.2017
337.4772, 680.5833
337.9593, 691.4922
338.4414, 701.8889
338.9235, 712.0714
339.4056, 722.1257
339.8878, 731.9147
340.3699, 742.4822
340.8520, 754.0314
341.3341, 766.0930
341.8162, 778.3430
342.2983, 790.6118
342.7805, 803.8382
343.2626, 818.6838
343.7447, 834.7264
344.2268, 848.7497
344.7089, 860.6077
345.1910, 872.0058
345.6732, 885.3019
346.1553, 900.1287
346.6374, 911.8175
347.1195, 918.7636
347.6016, 923.0261
348.0837, 929.3441
348.5659, 937.5814
349.0480, 944.4308
349.5301, 947.1063
350.0122, 946.7018
350.4944, 945.9629
350.9765, 945.4472
351.4586, 944.0187
351.9407, 939.9805
352.4228, 933.7958
352.9049, 926.9743
353.3871, 920.4265
353.8692, 913.6251
354.3513, 905.6690
354.8334, 896.4618
355.3155, 887.0939
355.7976, 878.6331
356.2798, 870.4571
356.7619, 861.4769
357.2440, 850.4998
357.7261, 839.2598
358.2082, 829.3676
358.6903, 820.5716
359.1725, 811.1873
359.6546, 799.3370
360.1367, 786.9387
360.6188, 775.8539
361.1009, 767.4355
361.5830, 759.1628
362.0652, 750.1929
362.5473, 740.5977
363.0294, 730.5463
363.5115, 719.6508
363.9936, 708.6320
364.4757, 697.8976
364.9579, 687.3185
365.4400, 677.3072
365.9221, 667.8847
366.4042, 659.0318
366.8863, 650.7215
367.3684, 643.3754
367.8506, 636.1561
368.3327, 628.6870
368.8148, 620.9324
369.2969, 613.9531
369.7790, 608.2645
370.2611, 602.9412
370.7433, 597.3389
371.2254, 591.5412
371.7075, 585.3757
372.1896, 578.3561
372.6717, 570.8770
373.1538, 564.9198
373.6360, 561.6037
374.1181, 557.9883
374.6002, 552.5579
375.0823, 544.6096
375.5645, 537.2253
376.0466, 530.5623
376.5287, 524.3844
377.0108, 518.3824
377.4929, 512.7165
377.9750, 506.9455
378.4572, 500.7300
378.9393, 494.2067
379.4214, 489.0198
379.9035, 485.3658
380.3856, 482.4205
380.8677, 479.7223
381.3499, 477.2158
381.8320, 474.0894
382.3141, 469.8379
382.7962, 465.1998
383.2783, 461.5128
383.7604, 458.7787
384.2426, 456.7743
384.7247, 456.0883
385.2068, 455.9494
385.6889, 454.2601
386.1710, 450.5055
386.6531, 446.4325
387.1353, 443.6977
387.6174, 442.0957
388.0995, 441.0531
388.5816, 440.8933
389.0637, 440.8123
389.5458, 439.8073
390.0280, 437.8847
390.5101, 436.0601
390.9922, 435.1372
391.4743, 434.6328
391.9564, 434.0190
392.4385, 433.3084
392.9207, 432.2484
393.4028, 430.5277
393.8849, 428.3307
394.3670, 426.1948
394.8491, 424.5392
395.3312, 422.8568
395.8134, 420.6007
396.2955, 417.0001
396.7776, 414.8079
397.2597, 415.8014
397.7418, 418.1982
398.2239, 419.6794
398.7061, 419.6704
399.1882, 418.9977
399.6703, 417.3740
400.1524, 414.7165
400.6346, 413.2785
401.1167, 413.8378
401.5988, 414.9562
402.0809, 415.6381
402.5630, 415.3379
403.0451, 415.7347
403.5273, 417.3924
404.0094, 419.6750
404.4915, 420.7083
404.9736, 420.1743
405.4557, 419.1382
405.9378, 417.9782
406.4200, 416.6820
406.9021, 415.3789
407.3842, 414.0870
407.8663, 412.7831
408.3484, 411.5133
408.8305, 410.2811
409.3127, 408.8238
409.7948, 407.1543
410.2769, 405.1827
410.7590, 402.4757
411.2411, 399.0234
411.7232, 395.6098
412.2054, 392.5092
412.6875, 389.8553
413.1696, 388.1982
413.6517, 387.7119
414.1338, 387.7993
414.6159, 387.6850
415.0981, 387.5648
415.5802, 387.9885
416.0623, 389.2129
416.5444, 391.1255
417.0265, 393.6407
417.5086, 396.7603
417.9908, 400.2712
418.4729, 404.5991
418.9550, 408.9961
419.4371, 412.5192
419.9192, 413.4933
420.4013, 415.3306
420.8835, 420.0226
421.3656, 426.7798
421.8477, 433.3359
422.3298, 438.1219
422.8119, 443.2017
423.2940, 449.6911
423.7762, 458.0712
424.2583, 466.5372
424.7404, 474.4698
425.2225, 482.4634
425.7047, 491.4399
426.1868, 502.2826
426.6689, 512.8094
427.1510, 522.6615
427.6331, 531.8743
428.1152, 541.3043
428.5974, 551.2281
429.0795, 561.1340
429.5616, 571.1602
430.0437, 581.7957
430.5258, 590.3116
431.0079, 596.3576
431.4901, 600.4213
431.9722, 603.4475
432.4543, 605.5002
432.9364, 605.8456
433.4185, 604.4109
433.9006, 601.0435
434.3828, 594.4916
434.8649, 584.5906
435.3470, 573.5660
435.8291, 563.7708
436.3112, 554.5094
436.7933, 543.5532
437.2755, 529.9769
437.7576, 515.5012
438.2397, 502.1565
438.7218, 489.8479
439.2039, 478.2495
439.6860, 467.2792
440.1682, 456.7886
440.6503, 446.7883
441.1324, 437.1570
441.6145, 428.3334
442.0966, 420.7194
442.5787, 413.9832
443.0609, 407.7705
443.5430, 402.1089
444.0251, 396.7919
444.5072, 391.7480
444.9893, 386.9924
445.4714, 382.5243
445.9536, 378.5657
446.4357, 374.6740
446.9178, 370.5594
447.3999, 365.8371
447.8820, 361.9301
448.3641, 359.4142
448.8463, 357.4060
449.3284, 354.8836
449.8105, 351.4528
450.2926, 348.2810
450.7747, 345.5016
451.2569, 343.1217
451.7390, 341.3291
452.2211, 340.2639
452.7032, 339.3707
453.1853, 338.6008
453.6674, 338.0145
454.1496, 335.9124
454.6317, 331.7656
455.1138, 327.2256
455.5959, 324.8913
456.0780, 324.5751
456.5602, 324.4607
457.0423, 324.1288
457.5244, 323.4620
458.0065, 321.9979
458.4886, 319.8207
458.9707, 317.6791
459.4529, 316.3062
459.9350, 315.2828
460.4171, 313.9025
460.8992, 311.8506
461.3813, 310.1223
461.8634, 310.1661
462.3456, 310.9546
462.8277, 310.7527
463.3098, 307.4309
463.7919, 304.1872
464.2740, 303.0601
464.7561, 303.9099
465.2383, 304.1274
465.7204, 302.0414
466.2025, 299.6759
466.6846, 298.3433
467.1667, 299.1569
467.6488, 299.4339
468.1310, 298.5433
468.6131, 297.1615
469.0952, 296.3575
469.5773, 296.4133
470.0594, 296.6185
470.5415, 296.9738
471.0237, 297.4490
471.5058, 297.0596
471.9879, 295.4058
472.4700, 293.7838
472.9521, 293.4869
473.4342, 294.6298
473.9164, 294.6149
474.3985, 292.8904
474.8806, 290.5779
475.3627, 289.5941
475.8448, 289.8336
476.3270, 290.2116
476.8091, 290.2811
477.2912, 290.1704
477.7733, 290.1828
478.2554, 290.3012
478.7375, 290.2656
479.2197, 289.8159
479.7018, 289.1107
480.1839, 288.3073
480.6660, 287.3214
481.1481, 286.5764
481.6302, 286.8097
482.1124, 287.4067
482.5945, 287.3269
483.0766, 285.4567
483.5587, 283.4959
484.0408, 282.0964
484.5229, 281.2862
485.0051, 280.8658
485.4872, 281.4782
485.9693, 281.9880
486.4514, 281.6470
486.9335, 279.2723
487.4156, 278.1385
487.8978, 279.0184
488.3799, 280.7316
488.8620, 281.3783
489.3441, 280.5225
489.8262, 279.7043
490.3083, 279.4077
490.7905, 279.5097
491.2726, 278.9930
491.7547, 277.7213
492.2368, 276.4860
492.7189, 275.8075
493.2010, 275.6646
493.6832, 276.1961
494.1653, 277.6067
494.6474, 278.9391
495.1295, 278.7903
495.6116, 277.5351
496.0938, 276.3347
496.5759, 275.4932
497.0580, 275.0396
497.5401, 275.3636
498.0222, 276.2667
498.5044, 276.7245
498.9865, 275.5235
499.4686, 274.0413
499.9507, 273.4420
500.4328, 274.1044
500.9149, 274.8403
501.3971, 275.4544
501.8792, 275.8567
502.3613, 275.9475
502.8434, 275.4180
503.3255, 274.9061
503.8076, 274.4233
504.2898, 274.0133
504.7719, 273.9212
505.2540, 274.3903
505.7361, 274.8102
506.2182, 274.8801
506.7003, 274.5128
507.1825, 274.3673
507.6646, 274.5010
508.1467, 274.7357
508.6288, 274.8513
509.1109, 274.8510
509.5930, 275.0187
510.0752, 275.5424
510.5573, 276.0779
511.0394, 275.8287
511.5215, 274.9124
512.0037, 274.0576
512.4858, 273.6794
512.9679, 273.6020
513.4500, 273.6554
513.9321, 273.8279
514.4142, 273.9136
514.8964, 273.6253
515.3785, 273.2343
515.8606, 273.0624
516.3427, 273.3886
516.8248, 273.5723
517.3069, 273.1939
517.7891, 272.5226
518.2712, 272.0573
518.7533, 272.0719
519.2354, 272.1406
519.7175, 272.1979
520.1996, 272.2427
520.6818, 272.1378
521.1639, 271.9440
521.6460, 271.5251
522.1281, 270.7084
522.6102, 269.2678
523.0923, 268.2879
523.5745, 267.8144
524.0566, 267.7650
524.5387, 268.0804
525.0208, 268.7599
525.5029, 269.6302
525.9850, 270.9155
526.4672, 272.1166
526.9493, 271.8987
527.4314, 270.4049
527.9135, 268.9559
528.3956, 268.4118
528.8777, 268.3683
529.3599, 268.3104
529.8420, 268.1928
530.3241, 268.0934
530.8062, 268.2166
531.2883, 268.3255
531.7704, 268.1302
532.2526, 266.9868
532.7347, 266.2723
533.2168, 266.6045
533.6989, 267.6628
534.1810, 268.7030
534.6631, 270.0391
535.1453, 270.8965
535.6274, 270.9532
536.1095, 270.1894
536.5916, 269.4127
537.0737, 268.3188
537.5558, 267.6725
538.0380, 268.2480
538.5201, 270.3453
539.0022, 271.5085
539.4843, 271.3547
539.9664, 270.7710
540.4485, 271.2874
540.9307, 272.7226
541.4128, 273.5786
541.8949, 273.2393
542.3770, 272.1498
542.8591, 270.6116
543.3412, 268.8059
543.8234, 267.5805
544.3055, 267.9945
544.7876, 268.9144
545.2697, 269.2726
545.7518, 268.9424
546.2339, 268.3705
546.7161, 267.3640
547.1982, 266.4370
547.6803, 266.0325
548.1624, 266.8948
548.6445, 267.4767
549.1266, 267.4615
549.6088, 267.0558
550.0909, 266.6734
550.5730, 266.4157
551.0551, 266.0074
551.5372, 265.1821
552.0193, 264.0581
552.5015, 264.0130
552.9836, 265.3258
553.4657, 266.7375
553.9478, 267.4200
554.4299, 267.4214
554.9120, 267.1927
555.3942, 266.7176
555.8763, 266.2207
556.3584, 265.9950
556.8405, 265.9462
557.3226, 265.8169
557.8047, 265.4020
558.2869, 265.0632
558.7690, 265.0651
559.2511, 265.4013
559.7332, 266.0628
560.2154, 267.8331
560.6975, 269.2539
561.1796, 269.4029
561.6617, 268.2165
562.1439, 267.0975
562.6260, 266.1607
563.1081, 265.5063
563.5902, 265.1739
564.0723, 265.2853
564.5544, 265.4990
565.0366, 265.9747
565.5187, 266.3964
566.0008, 266.1235
566.4829, 264.8907
566.9650, 264.5172
567.4471, 265.7224
567.9293, 267.7036
568.4114, 268.2636
568.8935, 267.4995
569.3756, 266.7433
569.8577, 266.8548
570.3398, 267.4335
570.8220, 267.9654
571.3041, 268.4221
571.7862, 268.3537
572.2683, 266.8199
572.7504, 264.9353
573.2325, 263.8372
573.7147, 263.9925
574.1968, 264.3304
574.6789, 264.6091
575.1610, 264.7965
575.6431, 264.8536
576.1252, 264.4041
576.6074, 264.2881
577.0895, 264.9467
577.5716, 266.0431
578.0537, 266.1543
578.5358, 264.7197
579.0179, 263.6226
579.5001, 263.8104
579.9822, 265.1718
580.4643, 265.7871
580.9464, 265.5623
581.4285, 265.2274
581.9106, 265.5164
582.3928, 266.2128
582.8749, 266.5981
583.3570, 266.5645
583.8391, 266.2875
584.3212, 265.7896
584.8033, 265.1915
585.2855, 264.6910
585.7676, 264.1926
586.2497, 263.9915
586.7318, 264.6153
587.2139, 265.6875
587.6960, 266.1308
588.1782, 264.5528
588.6603, 263.3920
589.1424, 263.8465
589.6245, 266.0258
590.1066, 267.1313
590.5887, 266.7426
591.0709, 265.8678
591.5530, 265.0111
592.0351, 264.1279
592.5172, 263.6134
592.9993, 263.5273
593.4814, 263.6717
593.9636, 263.8346
594.4457, 264.0206
594.9278, 264.2697
595.4099, 264.6385
595.8920, 265.0015
596.3741, 265.1753
596.8563, 265.2147
597.3384, 265.2523
597.8205, 265.5506
598.3026, 265.7094
598.7847, 265.3184
599.2668, 264.4515
599.7490, 263.8219
600.2311, 263.3954
600.7132, 263.4530
601.1953, 264.3226
601.6774, 266.4601
602.1595, 267.7938
602.6417, 268.0849
603.1238, 267.8652
603.6059, 267.5133
604.0880, 266.9470
604.5701, 266.7541
605.0522, 267.1277
605.5344, 267.6563
606.0165, 267.5666
606.4986, 266.9505
606.9807, 266.3902
607.4628, 266.2248
607.9449, 266.1244
608.4271, 265.3273
608.9092, 264.1036
609.3913, 263.5310
609.8735, 264.9286
610.3556, 266.6264
610.8377, 267.5754
611.3198, 267.6791
611.8019, 267.3651
612.2841, 266.0738
612.7662, 264.8838
613.2483, 264.5283
613.7304, 265.4748
614.2125, 266.2047
614.6946, 266.7462
615.1768, 267.0399
615.6589, 266.9767
616.1410, 266.5131
616.6231, 265.9030
617.1052, 265.0271
617.5873, 264.2836
618.0695, 264.7670
618.5516, 266.2521
619.0337, 267.4662
619.5158, 267.7953
619.9979, 267.5665
620.4800, 266.9301
620.9622, 265.9928
621.4443, 265.3110
621.9264, 265.5392
622.4085, 265.8303
622.8906, 265.4380
623.3727, 264.0961
623.8549, 263.5399
624.3370, 264.8195
624.8191, 266.4641
625.3012, 267.4853
625.7833, 267.5357
626.2654, 267.8456
626.7476, 268.6783
627.2297, 269.4224
627.7118, 268.9417
628.1939, 267.1890
628.6760, 266.1912
629.1581, 266.6198
629.6403, 267.6815
630.1224, 268.0955
630.6045, 267.9829
631.0866, 267.7851
631.5687, 267.7224
632.0508, 267.6794
632.5330, 267.6037
633.0151, 267.4781
633.4972, 267.2030
633.9793, 266.4517
634.4614, 265.7766
634.9435, 265.4785
635.4257, 265.6407
635.9078, 265.8991
636.3899, 266.2570
636.8720, 266.6866
637.3541, 267.2204
637.8362, 267.9657
638.3184, 268.2944
638.8005, 268.0842
639.2826, 267.6738
639.7647, 267.4136
640.2468, 267.3147
640.7289, 267.5307
641.2111, 268.2780
641.6932, 268.9774
642.1753, 268.6393
642.6574, 267.6893
643.1395, 267.1631
643.6216, 268.0084
644.1038, 268.9596
644.5859, 269.3443
645.0680, 269.2265
645.5501, 268.9698
646.0322, 268.2594
646.5143, 267.8217
646.9965, 268.0553
647.4786, 269.0275
647.9607, 269.4388
648.4428, 269.0434
648.9249, 268.5980
649.4070, 268.6738
649.8892, 269.2562
650.3713, 269.6135
650.8534, 269.7014
651.3355, 269.6758
651.8176, 269.7083
652.2997, 269.7520
652.7819, 269.6443
653.2640, 269.2198
653.7461, 269.0006
654.2282, 269.7727
654.7103, 270.9041
655.1924, 271.4533
655.6746, 270.5341
656.1567, 269.6779
656.6388, 269.1725
657.1209, 269.0326
657.6030, 269.3635
658.0851, 270.7515
658.5673, 271.5080
659.0494, 270.7972
659.5316, 269.0125
660.0137, 268.7585
660.4958, 270.1695
660.9779, 271.6510
661.4600, 272.3195
661.9421, 272.3213
662.4243, 271.8299
662.9064, 270.8689
663.3885, 270.1383
663.8706, 270.4203
664.3527, 271.0595
664.8348, 271.4348
665.3170, 271.4359
665.7991, 271.2114
666.2812, 270.3289
666.7633, 269.4991
667.2454, 269.4528
667.7275, 270.9986
668.2097, 271.8777
668.6918, 271.6706
669.1739, 271.1165
669.6560, 271.5035
670.1381, 272.9510
670.6202, 274.0804
671.1024, 274.5851
671.5845, 274.5498
672.0666, 273.7391
672.5487, 272.4127
673.0308, 271.5952
673.5129, 272.3234
673.9951, 273.3713
674.4772, 273.6007
674.9593, 273.1974
675.4414, 272.9894
675.9235, 273.5680
676.4056, 274.1683
676.8878, 274.4388
677.3699, 274.3502
677.8520, 274.2203
678.3341, 274.0997
678.8162, 273.8623
679.2983, 273.2161
679.7805, 272.0616
680.2626, 272.2721
680.7447, 274.0988
681.2268, 275.9116
681.7089, 275.7733
682.1910, 274.3862
682.6732, 273.6591
683.1553, 274.0071
683.6374, 274.3685
684.1195, 273.7066
684.6016, 272.6337
685.0837, 271.9037
685.5659, 271.9092
686.0480, 272.0353
686.5301, 272.3367
687.0122, 272.6142
687.4943, 272.4937
687.9764, 271.5654
688.4586, 271.1134
688.9407, 271.5226
689.4228, 272.4254
689.9049, 272.7944
690.3870, 272.6195
690.8691, 272.5062
691.3513, 272.7925
691.8334, 273.2247
692.3155, 273.3042
692.7976, 273.1025
693.2797, 272.9685
693.7618, 273.2162
694.2440, 273.5108
694.7261, 273.5875
695.2082, 273.4443
695.6903, 273.3839
696.1724, 273.5116
696.6545, 273.7233
697.1367, 274.0553
697.6188, 274.5964
698.1009, 274.5816
698.5830, 273.7769
699.0651, 272.9615
699.5472, 272.8544
700.0294, 273.3588
700.5115, 273.6195
700.9936, 273.5474
701.4757, 273.4254
701.9578, 273.5475
702.4399, 273.7990
702.9221, 273.9612
703.4042, 273.8594
703.8863, 273.9965
704.3684, 275.0172
704.8505, 276.2535
705.3326, 276.9150
705.8148, 276.2606
706.2969, 275.8283
706.7790, 275.7909
707.2611, 275.9749
707.7432, 276.0313
708.2253, 275.9082
708.7075, 276.0800
709.1896, 276.8187
709.6718, 277.7246
710.1539, 277.9131
710.6360, 277.5160
711.1181, 277.0653
711.6002, 276.6976
712.0823, 276.4856
712.5645, 276.4995
713.0466, 276.7221
713.5287, 277.0834
714.0108, 278.0655
714.4929, 278.6906
714.9750, 278.2937
715.4572, 276.9904
715.9393, 276.2013
716.4214, 275.9509
716.9035, 276.1557
717.3856, 277.0433
717.8677, 278.4893
718.3499, 278.8455
718.8320, 278.0859
719.3141, 277.2544
719.7962, 277.2684
720.2783, 277.6771
720.7604, 277.8289
721.2426, 277.6629
721.7247, 277.2713
722.2068, 276.5175
722.6889, 275.6928
723.1710, 274.9186
723.6531, 273.9258
724.1353, 273.8806
724.6174, 275.5510
725.0995, 277.4267
725.5816, 278.2108
726.0637, 277.7428
726.5458, 277.0614
727.0280, 276.1027
727.5101, 275.3673
727.9922, 275.7444
728.4743, 276.8531
728.9564, 277.5859
729.4385, 277.5753
729.9207, 277.3839
730.4028, 277.3698
730.8849, 277.4836
731.3670, 277.6585
731.8491, 278.1038
732.3312, 278.3303
732.8134, 277.8638
733.2955, 277.2544
733.7776, 277.5670
734.2597, 279.3781
734.7418, 280.2486
735.2239, 279.3745
735.7061, 277.6142
736.1882, 276.8105
736.6703, 276.8943
737.1524, 277.3596
737.6345, 278.2689
738.1166, 279.1859
738.5988, 279.6496
739.0809, 279.7231
739.5630, 279.5857
740.0451, 279.0902
740.5272, 278.6136
741.0093, 278.2123
741.4915, 277.9350
741.9736, 278.1049
742.4557, 279.0676
742.9378, 279.7832
743.4199, 279.7364
743.9020, 279.1201
744.3842, 279.1469
744.8663, 279.8173
745.3484, 280.4788
745.8305, 280.5516
746.3126, 280.4607
746.7947, 281.0223
747.2769, 282.1502
747.7590, 282.9683
748.2411, 282.5031
748.7232, 282.0011
749.2053, 282.3400
749.6874, 283.7311
750.1696, 284.6556
750.6517, 284.8852
751.1338, 284.9096
751.6159, 284.9135
752.0980, 284.8826
752.5801, 285.2536
753.0623, 286.0803
753.5444, 286.8340
754.0265, 286.9398
754.5086, 286.6930
754.9907, 286.6797
755.4728, 286.9657
755.9550, 287.2674
756.4371, 287.3521
756.9192, 287.4092
757.4013, 287.5783
757.8835, 287.8513
758.3656, 288.3578
758.8477, 289.4056
759.3298, 290.3681
759.8120, 290.6013
760.2941, 289.9523
760.7762, 289.8758
761.2583, 290.4518
761.7404, 291.5978
762.2225, 293.8526
762.7047, 296.5368
763.1868, 297.7546
763.6689, 296.7666
764.1510, 296.0562
764.6331, 297.6911
765.1152, 300.3075
765.5974, 302.4283
766.0795, 303.2021
766.5616, 304.4181
767.0437, 306.4681
767.5258, 308.7451
768.0079, 310.5135
768.4901, 311.7162
768.9722, 312.8396
769.4543, 313.9123
769.9364, 314.9697
770.4185, 315.9159
770.9006, 316.8854
771.3828, 318.2715
771.8649, 320.2960
772.3470, 322.4719
772.8291, 324.8414
773.3112, 327.0449
773.7933, 328.5849
774.2755, 328.8671
774.7576, 329.1404
775.2397, 329.7094
775.7218, 330.2018
776.2039, 329.8050
776.6860, 328.3461
777.1682, 327.6776
777.6503, 328.3813
778.1324, 329.5684
778.6145, 329.8022
779.0966, 329.3816
779.5787, 329.1365
780.0609, 329.6209
780.5430, 329.9701
781.0251, 329.2033
781.5072, 328.0268
781.9893, 327.7366
782.4714, 329.2825
782.9536, 330.8620
783.4357, 332.4440
783.9178, 333.8430
784.3999, 334.4278
784.8820, 334.0967
785.3641, 334.5869
785.8463, 336.6814
786.3284, 339.3320
786.8105, 340.9414
787.2926, 341.7059
787.7747, 342.0595
788.2568, 341.4947
788.7390, 341.2811
789.2211, 342.7733
789.7032, 345.0160
790.1853, 345.6859
790.6674, 343.5305
791.1495, 341.4258
791.6317, 339.7327
792.1138, 338.4520
792.5959, 337.9169
793.0780, 338.1194
793.5601, 337.6594
794.0422, 335.8548
794.5244, 333.4310
795.0065, 331.3656
795.4886, 329.4665
795.9707, 327.3238
796.4528, 324.1220
796.9349, 321.3006
797.4171, 319.7873
797.8992, 319.0719
798.3813, 317.7381
798.8634, 315.3460
799.3455, 313.1830
799.8276, 311.3861
800.3098, 310.1250
800.7919, 310.3561
801.2740, 311.8424
801.7561, 312.2571
802.2382, 309.8727
802.7203, 307.0978
803.2025, 306.7689
803.6846, 308.0381
804.1667, 308.9611
804.6488, 308.7731
805.1309, 308.2059
805.6130, 307.1471
806.0952, 305.9225
806.5773, 305.2589
807.0594, 305.3813
807.5416, 305.3192
808.0237, 304.7885
808.5058, 303.9923
808.9879, 303.4095
809.4700, 302.9596
809.9521, 302.2754
810.4343, 300.6670
810.9164, 299.4252
811.3985, 300.1555
811.8806, 301.9191
812.3627, 302.7457
812.8448, 301.2306
813.3270, 299.8206
813.8091, 298.7694
814.2912, 298.1592
814.7733, 298.4560
815.2554, 299.8062
815.7375, 300.4848
816.2197, 299.8752
816.7018, 298.6431
817.1839, 297.7512
817.6660, 297.1214
818.1481, 296.5988
818.6302, 296.2762
819.1124, 295.8577
819.5945, 294.9195
820.0766, 293.8474
820.5587, 293.4362
821.0408, 294.1681
821.5229, 294.6947
822.0051, 294.8112
822.4872, 294.6899
822.9693, 294.6761
823.4514, 294.7422
823.9335, 294.5895
824.4156, 294.0732
824.8978, 293.4498
825.3799, 292.8463
825.8620, 292.3443
826.3441, 292.0819
826.8262, 292.0204
827.3083, 292.2955
827.7905, 293.3640
828.2726, 294.5705
828.7547, 295.0959
829.2368, 294.8061
829.7189, 294.3000
830.2010, 293.5537
830.6832, 292.8831
831.1653, 292.8773
831.6474, 293.3033
832.1295, 293.4471
832.6116, 292.9517
833.0938, 292.6894
833.5759, 293.8887
834.0580, 295.3287
834.5401, 295.6229
835.0222, 292.8116
835.5043, 291.6285
835.9865, 292.9121
836.4686, 294.7726
836.9507, 295.1083
837.4328, 293.9727
837.9149, 292.4951
838.3970, 290.6425
838.8792, 289.4263
839.3613, 290.5266
839.8434, 292.6269
840.3255, 293.8834
840.8076, 293.7900
841.2897, 293.5431
841.7719, 293.4673
842.2540, 293.4152
842.7361, 293.2665
843.2182, 292.9747
843.7003, 292.7187
844.1824, 292.4520
844.6646, 292.3945
845.1467, 293.0640
845.6288, 294.0567
846.1109, 294.0807
846.5930, 293.0205
847.0751, 292.2918
847.5573, 293.2480
848.0394, 294.5981
848.5215, 295.4868
849.0036, 295.8217
849.4857, 295.4793
849.9678, 293.8388
850.4500, 292.5674
850.9321, 292.8474
851.4142, 294.4868
851.8963, 295.2552
852.3784, 295.1714
852.8605, 294.6607
853.3427, 293.4084
853.8248, 292.3085
854.3069, 292.4738
854.7890, 293.8265
855.2711, 295.2021
855.7532, 296.5823
856.2354, 297.4697
856.7175, 297.4942
857.1996, 296.8189
857.6818, 296.7954
858.1639, 297.5619
858.6460, 297.8904
859.1281, 296.8490
859.6102, 295.2687
860.0923, 294.6344
860.5745, 294.8016
861.0566, 295.3018
861.5387, 296.2219
862.0208, 297.1052
862.5029, 297.8112
862.9850, 298.3238
863.4672, 298.6251
863.9493, 298.6190
864.4314, 298.7033
864.9135, 299.0676
865.3956, 299.4487
865.8777, 299.1921
866.3599, 298.4341
866.8420, 297.7672
867.3241, 297.3844
867.8062, 297.1387
868.2883, 296.9597
868.7704, 296.8267
869.2526, 296.7135
869.7347, 296.7946
870.2168, 296.5803
870.6989, 295.8242
871.1810, 295.0261
871.6631, 294.8777
872.1453, 295.3497
872.6274, 296.0093
873.1095, 296.8896
873.5916, 297.3878
874.0737, 296.4112
874.5558, 294.9015
875.0380, 294.0301
875.5201, 294.1533
876.0022, 294.5062
876.4843, 295.2878
876.9664, 295.9344
877.4485, 295.9969
877.9307, 295.3493
878.4128, 295.1240
878.8949, 295.3815
879.3770, 295.5819
879.8591, 295.1083
880.3412, 294.3542
880.8234, 294.0738
881.3055, 294.2829
881.7876, 294.1686
882.2697, 292.4183
882.7518, 291.1264
883.2339, 291.7655
883.7161, 294.1794
884.1982, 295.4438
884.6803, 295.2765
885.1624, 295.1161
885.6445, 295.9269
886.1266, 297.0870
886.6088, 297.0343
887.0909, 295.9769
887.5730, 294.7823
888.0551, 293.7679
888.5372, 292.8515
889.0193, 291.7411
889.5015, 290.7087
889.9836, 290.6200
890.4657, 292.0657
890.9478, 292.9747
891.4299, 292.7265
891.9120, 292.0180
892.3942, 292.1513
892.8763, 292.9941
893.3584, 294.0730
893.8405, 295.5473
894.3226, 296.5485
894.8047, 295.9633
895.2869, 294.7269
895.7690, 293.9973
896.2511, 294.4537
896.7332, 294.6403
897.2153, 294.4430
897.6974, 294.1465
898.1796, 294.0652
898.6617, 294.1659
899.1438, 294.2543
899.6259, 294.3237
900.1080, 294.2383
900.5901, 293.7124
901.0723, 293.0997
901.5544, 292.7082
902.0365, 292.5915
902.5186, 292.6400
903.0007, 292.9169
903.4828, 293.2477
903.9650, 293.6854
904.4471, 294.1512
904.9292, 293.7718
905.4113, 292.5824
905.8935, 291.4305
906.3756, 290.4710
906.8577, 290.0847
907.3398, 291.2120
907.8220, 293.3749
908.3041, 294.6777
908.7862, 293.6629
909.2683, 292.9585
909.7504, 293.2849
910.2325, 294.1602
910.7147, 294.4267
911.1968, 294.0898
911.6789, 293.3942
912.1610, 292.2673
912.6431, 291.1613
913.1252, 290.4487
913.6074, 290.1469
914.0895, 290.3155
914.5716, 291.4391
915.0537, 292.2412
915.5358, 292.5059
916.0179, 292.4305
916.5001, 292.1118
916.9822, 291.5296
917.4643, 291.1279
917.9464, 290.9366
918.4285, 290.8965
918.9106, 291.2131
919.3928, 291.5067
919.8749, 291.1134
920.3570, 289.9418
920.8391, 289.2875
921.3212, 290.1651
921.8033, 290.9912
922.2855, 291.0008
922.7676, 290.3156
923.2497, 290.3116
923.7318, 291.0080
924.2139, 291.6101
924.6960, 291.7353
925.1782, 291.5048
925.6603, 290.6471
926.1424, 289.5490
926.6245, 289.2583
927.1066, 291.4625
927.5887, 292.8337
928.0709, 292.2923
928.5530, 290.8205
929.0351, 290.1848
929.5172, 290.4062
929.9993, 290.8142
930.4814, 291.3442
930.9636, 291.7801
931.4457, 291.8846
931.9278, 291.7396
932.4099, 291.3748
932.8920, 290.6131
933.3741, 290.2521
933.8563, 290.9740
934.3384, 291.6854
934.8205, 291.6094
935.3026, 290.6989
935.7847, 290.1126
936.2668, 289.8510
936.7490, 289.7941
937.2311, 289.8180
937.7132, 290.0170
938.1953, 290.9835
938.6774, 292.4342
939.1595, 292.6083
939.6417, 289.4243
940.1238, 286.7192
940.6059, 285.4529
941.0880, 285.3850
941.5701, 286.0644
942.0522, 287.4702
942.5344, 288.6900
943.0165, 289.6186
943.4986, 289.9081
943.9807, 288.4372
944.4628, 286.3414
944.9449, 285.3434
945.4271, 286.9373
945.9092, 287.8451
946.3913, 287.5414
946.8734, 286.8419
947.3555, 286.3220
947.8376, 286.0108
948.3198, 286.7344
948.8019, 288.5816
949.2840, 290.0184
949.7661, 289.2856
950.2482, 287.9111
950.7303, 287.2554
951.2125, 287.4142
951.6946, 287.5865
952.1767, 287.6751
952.6588, 287.7578
953.1409, 287.8664
953.6230, 287.9821
954.1052, 288.0563
954.5873, 288.0860
955.0695, 288.0518
955.5516, 287.8689
956.0337, 287.7264
956.5158, 287.7668
956.9979, 287.9427
957.4800, 288.1935
957.9622, 288.6896
958.4443, 288.8763
958.9264, 288.6054
959.4085, 288.2573
959.8906, 288.2287
960.3727, 288.4798
960.8549, 288.9546
961.3370, 289.6568
961.8191, 290.1892
962.3012, 290.0877
962.7833, 289.8963
963.2654, 290.1207
963.7476, 290.7829
964.2297, 290.8485
964.7118, 290.1690
965.1939, 289.3954
965.6760, 288.7246
966.1581, 288.2237
966.6403, 287.9064
967.1224, 287.8648
967.6045, 288.3597
968.0866, 290.4907
968.5687, 292.0283
969.0508, 291.6994
969.5330, 290.5264
970.0151, 289.9016
970.4972, 289.9425
970.9793, 289.9701
971.4614, 289.9157
971.9435, 289.8717
972.4257, 289.8451
972.9078, 289.9290
973.3899, 290.4366
973.8720, 291.4284
974.3541, 291.9420
974.8362, 290.8779
975.3184, 290.0780
975.8005, 290.5846
976.2826, 292.0972
976.7647, 292.4062
977.2468, 291.5247
977.7289, 290.4796
978.2111, 289.5770
978.6932, 288.9585
979.1753, 288.7899
979.6574, 289.0217
980.1395, 289.5558
980.6216, 290.8310
981.1038, 291.7744
981.5859, 292.3747
982.0680, 292.5629
982.5501, 292.0683
983.0322, 291.0112
983.5143, 290.2086
983.9965, 289.7323
984.4786, 289.5091
984.9607, 289.4410
985.4428, 289.6349
985.9249, 290.4233
986.4070, 291.8150
986.8892, 292.2344
987.3713, 291.2521
987.8534, 290.4303
988.3355, 290.3657
988.8176, 290.8277
989.2997, 291.5773
989.7819, 292.4274
990.2640, 292.7977
990.7461, 291.9088
991.2282, 291.3223
991.7103, 291.9691
992.1924, 293.0979
992.6746, 293.7892
993.1567, 293.9072
993.6388, 294.4881
994.1209, 295.7067
994.6030, 296.5851
995.0851, 295.7754
995.5673, 294.3547
996.0494, 293.8488
996.5315, 294.2824
997.0136, 294.5772
997.4957, 293.8200
997.9778, 293.6089
998.4600, 294.6002
998.9421, 296.3524
999.4242, 297.6105
999.9063, 298.3788
1000.388, 298.7555
1000.871, 298.5740
1001.353, 298.4697
1001.835, 299.2970
1002.317, 300.3751
1002.799, 300.8758
1003.281, 300.4994
1003.763, 299.9427
1004.245, 299.1908
1004.728, 298.2920
1005.210, 296.9576
1005.692, 295.5460
1006.174, 295.5449
1006.656, 296.7173
1007.138, 297.2677
1007.620, 295.0753
1008.102, 293.2845
1008.584, 294.0685
1009.067, 296.1814
1009.549, 296.4040
1010.031, 294.3306
1010.513, 293.9318
1010.995, 296.4127
1011.477, 299.3255
1011.959, 299.8256
1012.441, 298.7914
1012.924, 297.1379
1013.406, 294.6552
1013.888, 293.4225
1014.370, 294.7091
1014.852, 295.9024
1015.334, 295.3188
1015.816, 293.4619
1016.298, 293.7539
1016.780, 295.8963
1017.263, 297.6779
1017.745, 297.8205
1018.227, 297.2967
1018.709, 296.2198
1019.191, 295.0341
1019.673, 294.6190
1020.155, 295.2478
1020.637, 295.9553
1021.120, 296.7308
1021.602, 297.3575
1022.084, 297.3587
1022.566, 297.1282
1023.048, 297.7152
1023.530, 299.2013
1024.012, 299.7397
1024.494, 297.4227
1024.976, 295.2463
1025.458, 294.3680
1025.941, 294.5718
1026.423, 295.0823
1026.905, 295.8872
1027.387, 296.7763
1027.869, 297.7695
1028.351, 298.5933
1028.833, 299.0011
1029.316, 299.0727
1029.798, 298.8544
1030.280, 297.9238
1030.762, 297.7656
1031.244, 298.5457
1031.726, 299.6774
1032.208, 301.0448
1032.690, 302.3614
1033.172, 302.5789
1033.655, 301.9004
1034.137, 301.4512
1034.619, 302.0739
1035.101, 302.7244
1035.583, 303.1168
1036.065, 303.2271
1036.547, 302.9373
1037.029, 302.2418
1037.511, 301.2644
1037.994, 299.8912
1038.476, 299.1032
1038.958, 300.7295
1039.440, 302.9381
1039.922, 303.7130
1040.404, 302.6403
1040.886, 301.7002
1041.368, 300.9645
1041.851, 300.4447
1042.333, 300.0982
1042.815, 300.0037
1043.297, 300.5228
1043.779, 301.4718
1044.261, 302.2789
1044.743, 302.6141
1045.225, 302.9423
1045.708, 303.5324
1046.190, 304.1229
1046.672, 304.4362
1047.154, 304.4337
1047.636, 304.5392
1048.118, 304.7642
1048.600, 304.9910
1049.082, 305.1624
1049.564, 305.2615
1050.047, 305.2519
1050.529, 305.1484
1051.011, 305.0049
1051.493, 304.6830
1051.975, 304.6376
1052.457, 304.9886
1052.939, 305.5700
1053.421, 306.2813
1053.903, 306.9911
1054.386, 307.3353
1054.868, 307.1876
1055.350, 307.1857
1055.832, 308.0878
1056.314, 308.7362
1056.796, 308.3922
1057.278, 307.2204
1057.760, 306.4848
1058.243, 306.1803
1058.725, 306.3010
1059.207, 306.9806
1059.689, 307.8708
1060.171, 308.9869
1060.653, 309.9921
1061.135, 310.3268
1061.617, 309.3589
1062.099, 309.0947
1062.582, 309.6656
1063.064, 310.5200
1063.546, 311.2992
1064.028, 312.0110
1064.510, 312.7155
1064.992, 313.3822
1065.474, 313.8677
1065.956, 313.9180
1066.438, 314.0400
1066.921, 314.4087
1067.403, 314.8703
1067.885, 314.9311
1068.367, 314.7289
1068.849, 315.7468
1069.331, 318.3512
1069.813, 320.6396
1070.295, 320.6687
1070.778, 320.2805
1071.260, 321.1070
1071.742, 323.0803
1072.224, 324.1494
1072.706, 324.2234
1073.188, 323.8495
1073.670, 322.9279
1074.152, 322.1954
1074.635, 323.0150
1075.117, 324.5984
1075.599, 325.7234
1076.081, 326.0475
1076.563, 325.8750
1077.045, 325.1194
1077.527, 324.1262
1078.009, 322.9445
1078.491, 321.7384
1078.974, 321.2077
1079.456, 321.2698
1079.938, 321.4940
1080.420, 322.4631
1080.902, 322.6271
1081.384, 320.2904
1081.866, 317.4362
1082.348, 316.8262
1082.831, 318.5996
1083.313, 319.1312
1083.795, 318.0938
1084.277, 316.4694
1084.759, 314.5294
1085.241, 312.8111
1085.723, 311.8058
1086.205, 311.5091
1086.688, 311.5071
1087.170, 312.0175
1087.652, 311.9668
1088.134, 310.8983
1088.616, 309.6844
1089.098, 309.7097
1089.580, 310.4240
1090.062, 310.9413
1090.544, 311.0710
1091.026, 311.1493
1091.509, 311.3380
1091.991, 311.3396
1092.473, 310.8960
1092.955, 310.2160
1093.437, 310.2230
1093.919, 310.7140
1094.401, 310.8061
1094.883, 309.7105
1095.366, 308.8937
1095.848, 309.4056
1096.330, 310.2265
1096.812, 310.4699
1097.294, 310.1223
1097.776, 309.0127
1098.258, 307.1306
1098.740, 305.8460
1099.223, 306.5035
1099.705, 307.7404
1100.187, 308.5627
1100.669, 309.0554
1101.151, 309.5674
1101.633, 310.4047
1102.115, 310.2320
1102.597, 308.6840
1103.079, 307.1187
1103.562, 307.3999
1104.044, 308.3865
1104.526, 308.1747
1105.008, 306.7607
1105.490, 306.1376
1105.972, 307.5309
1106.454, 308.5604
1106.936, 308.5866
1107.418, 308.0854
1107.901, 307.7670
1108.383, 307.6841
1108.865, 308.1833
1109.347, 309.5228
1109.829, 310.2407
1110.311, 308.8583
1110.793, 307.5287
1111.275, 307.4753
1111.758, 308.4136
1112.240, 308.5905
1112.722, 308.1043
1113.204, 307.9383
1113.686, 308.7504
1114.168, 309.4167
1114.650, 308.6827
1115.132, 307.6900
1115.615, 307.8397
1116.097, 309.4977
1116.579, 309.8629
1117.061, 308.8474
1117.543, 307.7160
1118.025, 306.8286
1118.507, 306.6344
1118.989, 308.4636
1119.471, 311.2175
1119.953, 312.3295
1120.436, 310.7130
1120.918, 309.0986
1121.400, 307.4716
1121.882, 306.3602
1122.364, 306.5931
1122.846, 307.5201
1123.328, 308.1497
1123.810, 308.4444
1124.293, 308.5241
1124.775, 308.2623
1125.257, 307.9920
1125.739, 307.7088
1126.221, 307.5398
1126.703, 307.7610
1127.185, 308.2540
1127.667, 308.7249
1128.150, 309.1419
1128.632, 309.2813
1129.114, 308.5927
1129.596, 308.1353
1130.078, 308.5962
1130.560, 309.4644
1131.042, 308.8111
1131.524, 306.9571
1132.006, 306.1391
1132.489, 307.1942
1132.971, 308.2227
1133.453, 307.6899
1133.935, 306.8086
1134.417, 306.4340
1134.899, 306.5680
1135.381, 307.3214
1135.863, 308.6984
1136.346, 309.3090
1136.828, 308.1284
1137.310, 306.7318
1137.792, 306.4242
1138.274, 306.8213
1138.756, 307.5587
1139.238, 308.8188
1139.720, 309.3283
1140.203, 309.0343
1140.685, 308.3719
1141.167, 307.2267
1141.649, 306.1891
1142.131, 306.1441
1142.613, 306.7463
1143.095, 307.2562
1143.577, 307.5035
1144.059, 307.6330
1144.542, 307.5015
1145.024, 307.6991
1145.506, 309.5170
1145.988, 311.6295
1146.470, 311.3105
1146.952, 309.0468
1147.434, 307.3466
1147.916, 307.2152
1148.398, 307.4439
1148.881, 307.9658
1149.363, 308.6324
1149.845, 309.4512
1150.327, 310.2079
1150.809, 310.3376
1151.291, 309.8069
1151.773, 308.9397
1152.255, 307.1383
1152.738, 305.9955
1153.220, 306.0890
1153.702, 306.9385
1154.184, 308.0011
1154.666, 309.0281
1155.148, 308.6232
1155.630, 306.3893
1156.112, 304.9762
1156.594, 306.3307
1157.077, 308.4174
1157.559, 310.6583
1158.041, 312.6016
1158.523, 312.0269
1159.005, 309.3424
1159.487, 307.8047
1159.969, 308.5180
1160.451, 309.6405
1160.933, 310.3226
1161.416, 310.5622
1161.898, 310.1825
1162.380, 309.3080
1162.862, 309.3814
1163.344, 310.3557
1163.826, 310.8204
1164.308, 309.9056
1164.790, 308.9639
1165.273, 309.3297
1165.755, 310.0530
1166.237, 310.0392
1166.719, 309.1571
1167.201, 308.6037
1167.683, 308.3710
1168.165, 308.5575
1168.647, 309.5024
1169.130, 310.5264
1169.612, 311.0288
1170.094, 311.1707
1170.576, 311.1419
1171.058, 310.8173
1171.540, 310.9669
1172.022, 311.6841
1172.504, 312.1826
1172.986, 311.4232
1173.469, 310.5690
1173.951, 311.1759
1174.433, 312.6580
1174.915, 313.5453
1175.397, 313.4304
1175.879, 313.5395
1176.361, 313.9712
1176.843, 314.4458
1177.326, 314.7332
1177.808, 314.9120
1178.290, 315.2264
1178.772, 315.5413
1179.254, 315.2508
1179.736, 313.7438
1180.218, 313.0395
1180.700, 313.5152
1181.182, 314.2356
1181.665, 314.0503
1182.147, 313.5464
1182.629, 313.6081
1183.111, 314.2221
1183.593, 314.9238
1184.075, 315.8725
1184.557, 316.3565
1185.039, 316.1541
1185.521, 315.7281
1186.004, 315.8530
1186.486, 316.1076
1186.968, 315.5822
1187.450, 314.2463
1187.932, 313.6283
1188.414, 314.7894
1188.896, 315.1424
1189.378, 313.8097
1189.861, 311.9207
1190.343, 311.1784
1190.825, 311.2587
1191.307, 311.6646
1191.789, 312.3348
1192.271, 313.0973
1192.753, 314.1178
1193.235, 314.8638
1193.718, 315.1406
1194.200, 315.0901
1194.682, 314.9300
1195.164, 314.6536
1195.646, 314.1721
1196.128, 313.3859
1196.610, 312.9419
1197.092, 313.3250
1197.574, 313.4162
1198.057, 312.5500
1198.539, 311.3822
1199.021, 311.4633
1199.503, 312.3771
1199.985, 313.1856
1200.467, 313.6009
1200.949, 314.1483
1201.431, 315.3438
1201.913, 315.9432
1202.396, 314.9239
1202.878, 313.2512
1203.360, 313.7470
1203.842, 315.5986
1204.324, 316.6297
1204.806, 315.7031
1205.288, 315.3495
1205.770, 316.4711
1206.253, 317.4209
1206.735, 317.1451
1207.217, 316.0774
1207.699, 315.1583
1208.181, 314.5114
1208.663, 314.4597
1209.145, 315.5610
1209.627, 316.3929
1210.109, 316.7379
1210.592, 316.8095
1211.074, 316.5369
1211.556, 316.1792
1212.038, 316.7446
1212.520, 317.9095
1213.002, 318.7339
1213.484, 318.5652
1213.966, 318.6035
1214.448, 319.3795
1214.931, 319.6956
1215.413, 317.8524
1215.895, 315.0494
1216.377, 315.0778
1216.859, 317.1240
1217.341, 318.5719
1217.823, 317.6666
1218.305, 317.2772
1218.788, 317.8674
1219.270, 318.6615
1219.752, 318.9703
1220.234, 318.9935
1220.716, 319.2227
1221.198, 319.6094
1221.680, 319.9572
1222.162, 320.2874
1222.645, 320.4052
1223.127, 320.2368
1223.609, 319.9958
1224.091, 319.8658
1224.573, 319.8223
1225.055, 319.9229
1225.537, 320.0804
1226.019, 319.9645
1226.501, 319.2328
1226.984, 318.5475
1227.466, 317.9224
1227.948, 317.4445
1228.430, 317.2969
1228.912, 317.3063
1229.394, 317.0745
1229.876, 316.6872
1230.358, 316.5966
1230.841, 317.4830
1231.323, 317.3961
1231.805, 315.7801
1232.287, 314.3047
1232.769, 315.1290
1233.251, 316.9809
1233.733, 317.8520
1234.215, 317.8704
1234.698, 318.0997
1235.180, 319.2188
1235.662, 319.1989
1236.144, 317.5351
1236.626, 315.8253
1237.108, 315.9728
1237.590, 316.9258
1238.072, 317.4464
1238.554, 317.5485
1239.036, 317.6771
1239.519, 317.8496
1240.001, 318.2300
1240.483, 318.9513
1240.965, 319.3048
1241.447, 317.7028
1241.929, 316.0186
1242.411, 316.9611
1242.893, 319.8262
1243.376, 320.5005
1243.858, 318.2114
1244.340, 316.7611
1244.822, 316.6927
1245.304, 317.3118
1245.786, 318.5514
1246.268, 319.6978
1246.750, 319.9289
1247.233, 319.4663
1247.715, 319.5112
1248.197, 320.1982
1248.679, 319.9471
1249.161, 318.4205
1249.643, 317.3358
1250.125, 318.6714
1250.607, 320.5799
1251.089, 321.9945
1251.572, 322.7848
1252.054, 322.5201
1252.536, 321.1985
1253.018, 319.9633
1253.500, 318.9449
1253.982, 318.3627
1254.464, 318.2679
1254.946, 318.8041
1255.428, 320.7635
1255.911, 323.0377
1256.393, 322.7825
1256.875, 320.3904
1257.357, 320.0527
1257.839, 322.3712
1258.321, 323.9734
1258.803, 321.6233
1259.285, 319.4781
1259.768, 319.3890
1260.250, 320.4347
1260.732, 321.0170
1261.214, 321.1964
1261.696, 321.1235
1262.178, 320.8256
1262.660, 320.6423
1263.142, 320.5713
1263.625, 320.9435
1264.107, 322.1727
1264.589, 323.3854
1265.071, 322.8647
1265.553, 321.2791
1266.035, 320.2278
1266.517, 319.8716
1266.999, 319.8221
1267.481, 319.8795
1267.964, 320.4427
1268.446, 321.7686
1268.928, 323.2379
1269.410, 324.1177
1269.892, 324.4611
1270.374, 324.0389
1270.856, 322.9517
1271.338, 322.7787
1271.820, 324.1012
1272.303, 325.2339
1272.785, 326.0328
1273.267, 325.9524
1273.749, 323.4195
1274.231, 320.3168
1274.713, 318.6572
1275.195, 318.5737
1275.677, 319.6365
1276.160, 322.2536
1276.642, 323.4687
1277.124, 322.6388
1277.606, 321.4109
1278.088, 321.2197
1278.570, 321.3877
1279.052, 321.2379
1279.534, 321.0053
1280.016, 321.6837
1280.499, 323.3164
1280.981, 324.0133
1281.463, 323.5029
1281.945, 322.8114
1282.427, 322.6857
1282.909, 322.5850
1283.391, 322.0757
1283.873, 321.4635
1284.356, 321.2732
1284.838, 321.4878
1285.320, 322.2278
1285.802, 323.4596
1286.284, 324.2142
1286.766, 323.5972
1287.248, 322.8181
1287.730, 322.0381
1288.213, 321.6102
1288.695, 322.4107
1289.177, 323.8771
1289.659, 324.3470
1290.141, 323.8265
1290.623, 323.6327
1291.105, 324.5310
1291.587, 325.3128
1292.069, 325.8717
1292.552, 326.1221
1293.034, 325.6867
1293.516, 325.0464
1293.998, 324.9982
1294.480, 325.4519
1294.962, 325.6819
1295.444, 325.5496
1295.926, 325.4383
1296.408, 325.3790
1296.891, 325.4253
1297.373, 325.5030
1297.855, 325.7990
1298.337, 326.6807
1298.819, 327.9370
1299.301, 329.0333
1299.783, 330.0407
1300.265, 329.7643
1300.748, 328.1115
1301.230, 326.8677
1301.712, 327.9549
1302.194, 329.1032
1302.676, 329.3725
##END=



