##NAMES=Tridymite
##RRUFFID=R090063
##IDEAL CHEMISTRY=SiO_2_
##LOCALITY=Mount Howe 88403 meteorite, likely formed during impact on a chondritic-parent body
##OWNER=RRUFF
##SOURCE=Devin L. Schrader and Dante S. Lauretta
##DESCRIPTION=Imbedded in a polished slab, associated with kamacite, taenite, troilite, and schreibersite. Masami Kanzaki (Okayama University) suggests this is polytype tridymite MC.
##STATUS=The identification of this mineral has been determined only by Raman spectroscopy
##URL=rruff.info/R090063
92.07813, 39.86425
92.56024, 39.66355
93.04236, 39.71649
93.52448, 39.99720
94.00659, 40.40992
94.48871, 41.17635
94.97083, 42.04657
95.45294, 42.35959
95.93506, 41.99928
96.41718, 41.13812
96.89929, 39.65702
97.38141, 37.55112
97.86353, 36.05572
98.34564, 36.74437
98.82776, 39.46050
99.30988, 40.80853
99.79199, 39.90478
100.2741, 37.36142
100.7562, 35.37823
101.2383, 33.95912
101.7205, 33.08408
102.2026, 32.85761
102.6847, 33.47409
103.1668, 33.98117
103.6489, 34.07880
104.1310, 33.74672
104.6132, 34.05797
105.0953, 35.80238
105.5774, 37.43891
106.0595, 36.78603
106.5416, 31.66393
107.0237, 27.58408
107.5059, 26.07874
107.9880, 28.00066
108.4701, 29.92476
108.9522, 32.29164
109.4343, 34.58273
109.9164, 35.89960
110.3986, 35.62788
110.8807, 34.87084
111.3628, 33.85157
111.8449, 31.85404
112.3270, 30.78431
112.8091, 31.01377
113.2913, 32.28827
113.7734, 33.87359
114.2555, 36.69785
114.7376, 39.14109
115.2197, 40.29112
115.7018, 38.53679
116.1840, 37.14736
116.6661, 37.17550
117.1482, 38.39179
117.6303, 39.59846
118.1124, 40.80818
118.5945, 41.62847
119.0767, 41.72146
119.5588, 39.73877
120.0409, 38.02842
120.5230, 37.63379
121.0051, 38.54922
121.4872, 40.58930
121.9694, 44.39960
122.4515, 49.12346
122.9336, 53.59248
123.4157, 57.07116
123.8978, 60.17634
124.3799, 63.45599
124.8621, 66.94644
125.3442, 70.41003
125.8263, 73.11789
126.3084, 75.57246
126.7905, 79.01978
127.2726, 84.66973
127.7548, 91.53565
128.2369, 98.07720
128.7190, 104.1952
129.2011, 109.9228
129.6832, 115.2028
130.1653, 120.0412
130.6474, 124.7677
131.1296, 129.4132
131.6117, 134.0393
132.0938, 139.3831
132.5759, 146.0922
133.0580, 152.5878
133.5401, 154.4851
134.0223, 151.6373
134.5044, 149.9612
134.9865, 153.8233
135.4686, 163.1836
135.9507, 174.1769
136.4328, 187.3320
136.9150, 201.3577
137.3971, 210.9573
137.8792, 215.1742
138.3613, 218.8715
138.8434, 226.7343
139.3255, 239.7053
139.8077, 250.9557
140.2898, 258.8753
140.7719, 263.8385
141.2540, 270.3551
141.7361, 279.4367
142.2182, 288.2867
142.7004, 293.8869
143.1825, 294.8297
143.6646, 295.8104
144.1467, 297.4941
144.6288, 299.8488
145.1109, 304.0446
145.5931, 312.0067
146.0752, 320.3022
146.5573, 324.6742
147.0394, 321.6964
147.5215, 319.6769
148.0036, 320.7495
148.4858, 325.6608
148.9679, 330.7980
149.4500, 336.7552
149.9321, 342.7613
150.4142, 347.5405
150.8963, 349.6580
151.3785, 351.9606
151.8606, 354.8834
152.3427, 357.6172
152.8248, 362.9004
153.3069, 373.6941
153.7890, 386.7908
154.2712, 395.3195
154.7533, 394.8672
155.2354, 392.6991
155.7175, 390.3917
156.1996, 387.3933
156.6817, 385.6142
157.1639, 386.3683
157.6460, 388.4857
158.1281, 389.4434
158.6102, 387.2914
159.0923, 384.8991
159.5744, 383.7342
160.0566, 384.8194
160.5387, 385.8764
161.0208, 386.1745
161.5029, 385.9557
161.9850, 385.9131
162.4671, 385.9300
162.9493, 386.4153
163.4314, 387.7317
163.9135, 391.0178
164.3956, 393.8015
164.8777, 394.7798
165.3598, 394.2946
165.8420, 393.7431
166.3241, 393.0331
166.8062, 392.8745
167.2883, 393.9850
167.7704, 398.1591
168.2525, 402.0016
168.7346, 403.0071
169.2168, 401.5710
169.6989, 400.2198
170.1810, 399.5154
170.6631, 400.0102
171.1452, 402.4733
171.6273, 409.9486
172.1095, 417.2457
172.5916, 419.4978
173.0737, 417.0671
173.5558, 413.9762
174.0379, 412.7621
174.5201, 412.8624
175.0022, 413.3564
175.4843, 414.0381
175.9664, 414.8747
176.4485, 415.9879
176.9306, 417.3770
177.4128, 418.4655
177.8949, 418.4820
178.3770, 417.8141
178.8591, 417.3266
179.3412, 417.7641
179.8233, 418.4528
180.3055, 418.0137
180.7876, 416.3627
181.2697, 414.9206
181.7518, 415.1528
182.2339, 416.7580
182.7160, 418.7829
183.1982, 421.4448
183.6803, 424.1661
184.1624, 425.1075
184.6445, 423.9842
185.1266, 423.0237
185.6087, 425.2487
186.0909, 430.1414
186.5730, 434.8256
187.0551, 438.1880
187.5372, 440.3898
188.0193, 441.8360
188.5014, 442.3657
188.9836, 442.8055
189.4657, 444.6346
189.9478, 447.6668
190.4299, 450.0153
190.9120, 449.9712
191.3941, 448.1732
191.8763, 448.3461
192.3584, 450.8419
192.8405, 454.4307
193.3226, 457.7960
193.8047, 460.9255
194.2868, 463.3755
194.7690, 464.4143
195.2511, 464.2196
195.7332, 465.4844
196.2153, 468.5845
196.6974, 472.4413
197.1795, 475.0085
197.6617, 476.1950
198.1438, 477.5435
198.6259, 479.3819
199.1080, 481.6947
199.5901, 486.2246
200.0722, 493.7427
200.5544, 502.2969
201.0365, 507.8053
201.5186, 509.7920
202.0007, 511.9656
202.4828, 516.6124
202.9649, 524.0406
203.4471, 529.4341
203.9292, 532.3229
204.4113, 533.6735
204.8934, 535.1915
205.3755, 536.7488
205.8576, 538.8892
206.3398, 542.0654
206.8219, 546.4810
207.3040, 550.7128
207.7861, 555.0585
208.2682, 558.8552
208.7503, 560.4475
209.2325, 559.3388
209.7146, 557.5961
210.1967, 556.3231
210.6788, 555.8799
211.1609, 553.9865
211.6430, 549.8926
212.1252, 544.8779
212.6073, 542.3776
213.0894, 543.7767
213.5715, 544.1279
214.0536, 540.9585
214.5357, 533.3156
215.0179, 525.4863
215.5000, 517.0186
215.9821, 508.6225
216.4642, 502.2305
216.9463, 499.0457
217.4284, 495.3853
217.9105, 489.2467
218.3927, 479.4666
218.8748, 471.3582
219.3569, 465.5167
219.8390, 461.0243
220.3211, 455.6808
220.8032, 448.9877
221.2854, 442.3282
221.7675, 435.9152
222.2496, 429.3085
222.7317, 424.5763
223.2138, 422.2532
223.6959, 421.5416
224.1781, 420.6768
224.6602, 419.5004
225.1423, 418.4617
225.6244, 417.9551
226.1065, 418.6003
226.5886, 417.7550
227.0708, 414.4403
227.5529, 410.1097
228.0350, 407.9139
228.5171, 409.0803
228.9992, 410.2890
229.4813, 410.1933
229.9635, 408.2192
230.4456, 406.7909
230.9277, 406.3301
231.4098, 406.2184
231.8919, 405.1333
232.3740, 402.2371
232.8562, 399.7446
233.3383, 398.6007
233.8204, 399.4241
234.3025, 399.5405
234.7846, 398.5482
235.2667, 397.0717
235.7489, 396.2882
236.2310, 396.5611
236.7131, 396.9413
237.1952, 397.1380
237.6773, 397.1281
238.1594, 396.9619
238.6416, 396.2895
239.1237, 395.6768
239.6058, 396.1106
240.0879, 398.2168
240.5700, 400.3813
241.0521, 402.2239
241.5343, 403.8257
242.0164, 404.5797
242.4985, 403.8630
242.9806, 402.7164
243.4627, 402.7477
243.9448, 404.7268
244.4270, 406.5441
244.9091, 407.4697
245.3912, 407.2095
245.8733, 407.6407
246.3554, 409.0087
246.8375, 410.8594
247.3197, 412.6884
247.8018, 414.8126
248.2839, 416.3193
248.7660, 416.7700
249.2481, 415.9603
249.7302, 415.7402
250.2124, 416.1821
250.6945, 417.1526
251.1766, 418.7189
251.6587, 421.7919
252.1408, 423.6532
252.6229, 423.2390
253.1051, 420.3141
253.5872, 418.7784
254.0693, 419.1473
254.5514, 420.2935
255.0335, 421.1479
255.5156, 421.7941
255.9978, 421.8914
256.4799, 420.9903
256.9620, 419.1041
257.4441, 418.6410
257.9262, 419.9109
258.4083, 422.1801
258.8904, 425.0092
259.3726, 429.0548
259.8547, 432.0241
260.3368, 433.1383
260.8189, 432.6226
261.3010, 432.8733
261.7831, 433.8679
262.2653, 435.6522
262.7474, 438.3927
263.2295, 442.5162
263.7116, 446.4335
264.1937, 449.9513
264.6758, 453.1001
265.1580, 456.0634
265.6401, 458.3953
266.1222, 461.3571
266.6043, 466.0423
267.0864, 473.1190
267.5685, 479.6343
268.0507, 485.1385
268.5328, 489.9609
269.0149, 495.6425
269.4970, 502.8746
269.9791, 509.4806
270.4612, 513.8466
270.9434, 515.1644
271.4255, 517.9704
271.9076, 522.6647
272.3897, 528.9739
272.8718, 536.5047
273.3539, 545.6039
273.8361, 554.7662
274.3182, 563.4915
274.8003, 571.8847
275.2824, 578.4457
275.7645, 582.3049
276.2466, 585.1862
276.7288, 590.9814
277.2109, 600.3637
277.6930, 609.2359
278.1751, 615.1943
278.6572, 618.0931
279.1393, 621.8961
279.6215, 626.8636
280.1036, 632.2530
280.5857, 636.8439
281.0678, 640.5359
281.5499, 644.3592
282.0320, 648.8019
282.5142, 653.8094
282.9963, 658.1513
283.4784, 661.6323
283.9605, 665.0588
284.4426, 669.2366
284.9247, 674.1581
285.4069, 680.1395
285.8890, 687.5993
286.3711, 696.1980
286.8532, 704.4101
287.3353, 712.0654
287.8174, 720.2956
288.2996, 730.1285
288.7817, 741.5504
289.2638, 754.1480
289.7459, 768.4407
290.2280, 783.4995
290.7101, 796.7786
291.1923, 808.2252
291.6744, 819.6707
292.1565, 832.8085
292.6386, 847.4376
293.1207, 862.6223
293.6028, 878.4929
294.0850, 894.4365
294.5671, 909.8404
295.0492, 924.7271
295.5313, 939.7057
296.0134, 955.9250
296.4955, 972.5466
296.9777, 986.7410
297.4598, 997.4545
297.9419, 1006.645
298.4240, 1017.511
298.9061, 1029.468
299.3882, 1039.695
299.8704, 1046.257
300.3525, 1049.926
300.8346, 1052.105
301.3167, 1052.786
301.7988, 1052.628
302.2809, 1051.996
302.7631, 1051.059
303.2452, 1050.263
303.7273, 1051.097
304.2094, 1051.726
304.6915, 1049.093
305.1736, 1042.791
305.6558, 1036.013
306.1379, 1032.660
306.6200, 1030.745
307.1021, 1026.554
307.5842, 1017.210
308.0663, 1005.660
308.5485, 994.4207
309.0306, 983.5255
309.5127, 972.1546
309.9948, 959.2129
310.4769, 945.6021
310.9590, 932.5189
311.4412, 920.2122
311.9233, 908.5006
312.4054, 897.7858
312.8875, 887.7153
313.3696, 876.9150
313.8517, 863.5456
314.3339, 849.8174
314.8160, 837.5768
315.2981, 827.8441
315.7802, 818.9941
316.2623, 811.1752
316.7444, 803.7967
317.2266, 795.0785
317.7087, 782.8806
318.1908, 770.1699
318.6729, 758.5417
319.1550, 748.1689
319.6371, 739.0970
320.1193, 731.6392
320.6014, 725.4629
321.0835, 719.9256
321.5656, 715.7517
322.0477, 711.4588
322.5298, 705.9561
323.0120, 698.6532
323.4941, 692.8665
323.9762, 690.1945
324.4583, 689.0212
324.9404, 687.6012
325.4225, 684.5088
325.9047, 682.2904
326.3868, 681.6127
326.8689, 682.4908
327.3510, 684.3165
327.8331, 688.5068
328.3152, 692.7893
328.7974, 695.5906
329.2795, 695.5500
329.7616, 695.6015
330.2437, 695.0473
330.7258, 694.4049
331.2079, 696.7927
331.6901, 705.5916
332.1722, 714.0555
332.6543, 718.6541
333.1364, 715.6889
333.6185, 715.5852
334.1006, 719.3298
334.5828, 725.7072
335.0649, 731.8515
335.5470, 737.7891
336.0291, 743.5066
336.5112, 748.6723
336.9933, 752.9069
337.4755, 758.8031
337.9576, 766.8108
338.4397, 775.8882
338.9218, 784.6505
339.4039, 792.7201
339.8860, 801.5836
340.3681, 811.5995
340.8503, 822.8094
341.3324, 834.4764
341.8145, 846.7357
342.2966, 859.4613
342.7787, 873.2673
343.2608, 888.1282
343.7430, 902.1514
344.2251, 914.5591
344.7072, 926.0662
345.1893, 938.2703
345.6714, 951.2972
346.1535, 964.7823
346.6357, 979.0930
347.1178, 993.9119
347.5999, 1007.134
348.0820, 1018.418
348.5641, 1028.577
349.0462, 1039.244
349.5284, 1050.226
350.0105, 1060.455
350.4926, 1070.705
350.9747, 1079.615
351.4568, 1083.259
351.9389, 1081.090
352.4211, 1077.407
352.9032, 1077.396
353.3853, 1079.352
353.8674, 1079.121
354.3495, 1073.535
354.8316, 1065.903
355.3138, 1060.185
355.7959, 1056.202
356.2780, 1052.036
356.7601, 1047.050
357.2422, 1040.833
357.7243, 1032.465
358.2065, 1019.952
358.6886, 1008.075
359.1707, 1001.179
359.6528, 997.8252
360.1349, 993.6830
360.6170, 985.8456
361.0992, 976.9421
361.5813, 968.6385
362.0634, 961.1859
362.5455, 954.6045
363.0276, 949.5752
363.5097, 945.2851
363.9919, 940.5280
364.4740, 935.2500
364.9561, 929.1556
365.4382, 921.3589
365.9203, 911.5266
366.4024, 903.7132
366.8846, 900.1625
367.3667, 898.1085
367.8488, 895.3148
368.3309, 890.1838
368.8130, 885.8220
369.2951, 882.6346
369.7773, 880.5663
370.2594, 879.1542
370.7415, 878.5872
371.2236, 878.5118
371.7057, 878.8671
372.1878, 880.3934
372.6700, 880.8801
373.1521, 879.6429
373.6342, 877.6636
374.1163, 877.1814
374.5984, 879.8675
375.0805, 880.6915
375.5627, 877.1187
376.0448, 868.4886
376.5269, 863.6422
377.0090, 863.6459
377.4911, 865.4716
377.9732, 865.8103
378.4554, 864.3759
378.9375, 863.2238
379.4196, 862.6884
379.9017, 862.7717
380.3838, 863.7010
380.8659, 865.5836
381.3481, 867.4433
381.8302, 869.2414
382.3123, 870.7048
382.7944, 869.0697
383.2765, 863.0540
383.7586, 856.3895
384.2408, 855.7196
384.7229, 860.1027
385.2050, 863.6689
385.6871, 862.5742
386.1692, 858.8516
386.6513, 856.4283
387.1335, 855.4793
387.6156, 854.5156
388.0977, 851.9900
388.5798, 848.5327
389.0619, 845.2662
389.5440, 842.6913
390.0262, 840.3575
390.5083, 838.1652
390.9904, 835.9388
391.4725, 832.9786
391.9546, 827.9355
392.4367, 822.4988
392.9189, 818.2591
393.4010, 816.1428
393.8831, 813.6976
394.3652, 809.9450
394.8473, 805.0922
395.3294, 799.4241
395.8116, 792.0837
396.2937, 784.8392
396.7758, 778.4941
397.2579, 773.1808
397.7400, 767.9198
398.2221, 762.5307
398.7043, 757.1591
399.1864, 751.9410
399.6685, 746.8684
400.1506, 741.9759
400.6327, 737.6237
401.1148, 733.5602
401.5970, 728.5056
402.0791, 721.7540
402.5612, 714.9005
403.0433, 708.6063
403.5254, 702.8957
404.0075, 697.7069
404.4897, 693.0784
404.9718, 688.9603
405.4539, 685.3544
405.9360, 682.4096
406.4181, 679.5519
406.9002, 676.7883
407.3824, 674.0472
407.8645, 670.2344
408.3466, 665.1710
408.8287, 659.7006
409.3108, 654.5882
409.7929, 649.8152
410.2751, 644.5396
410.7572, 638.2891
411.2393, 631.9368
411.7214, 627.5255
412.2035, 624.8392
412.6856, 622.1150
413.1678, 617.9935
413.6499, 613.1707
414.1320, 609.0476
414.6141, 605.6567
415.0962, 603.0114
415.5783, 601.2743
416.0605, 600.2585
416.5426, 599.5400
417.0247, 598.4183
417.5068, 598.0577
417.9889, 600.0187
418.4710, 603.8450
418.9532, 607.4830
419.4353, 609.3663
419.9174, 610.8278
420.3995, 612.7814
420.8816, 615.2469
421.3637, 618.6243
421.8459, 623.4623
422.3280, 629.1889
422.8101, 635.0161
423.2922, 639.9617
423.7743, 645.6512
424.2564, 652.7496
424.7386, 661.3242
425.2207, 670.0199
425.7028, 678.6446
426.1849, 687.3591
426.6670, 696.2052
427.1491, 704.3641
427.6313, 714.0154
428.1134, 725.9075
428.5955, 739.2072
429.0776, 751.6248
429.5597, 763.1746
430.0418, 774.1511
430.5240, 784.8320
431.0061, 795.2194
431.4882, 805.1651
431.9703, 815.1741
432.4524, 823.4716
432.9345, 827.6319
433.4167, 827.5656
433.8988, 826.5770
434.3809, 825.8734
434.8630, 824.3279
435.3451, 819.3768
435.8272, 811.0289
436.3094, 799.5906
436.7915, 784.2679
437.2736, 766.0106
437.7557, 747.0546
438.2378, 727.3298
438.7199, 707.9631
439.2020, 689.9410
439.6841, 673.1253
440.1663, 657.2336
440.6484, 642.4719
441.1305, 628.2903
441.6126, 614.2556
442.0947, 600.4110
442.5768, 587.4127
443.0590, 575.9461
443.5411, 565.2551
444.0232, 554.6686
444.5053, 543.6793
444.9874, 533.5828
445.4695, 525.1147
445.9517, 517.8414
446.4338, 510.9743
446.9159, 504.1755
447.3980, 497.9409
447.8801, 492.5195
448.3622, 487.9104
448.8444, 483.7251
449.3265, 480.0700
449.8086, 476.7406
450.2907, 473.6063
450.7728, 470.6143
451.2549, 467.9403
451.7371, 465.8270
452.2192, 463.9265
452.7013, 461.4252
453.1834, 458.2077
453.6655, 454.8768
454.1476, 451.4014
454.6298, 447.9059
455.1119, 446.1768
455.5940, 446.6058
456.0761, 446.7769
456.5582, 443.7228
457.0403, 438.0824
457.5225, 433.2281
458.0046, 426.8508
458.4867, 429.5018
458.9688, 430.5480
459.4509, 430.0757
459.9330, 423.5366
460.4152, 424.8313
460.8973, 422.9867
461.3794, 421.0134
461.8615, 423.4108
462.3436, 417.7542
462.8257, 420.0823
463.3079, 419.2229
463.7900, 419.8224
464.2721, 417.2632
464.7542, 415.6795
465.2363, 417.2558
465.7184, 417.0823
466.2006, 414.1592
466.6827, 414.8514
467.1648, 409.0845
467.6469, 408.9856
468.1290, 411.3322
468.6111, 408.5681
469.0933, 409.3180
469.5754, 408.7296
470.0575, 402.0589
470.5396, 405.9660
471.0217, 405.2986
471.5038, 399.9340
471.9860, 403.4785
472.4681, 398.7615
472.9502, 396.9935
473.4323, 397.4446
473.9144, 395.5823
474.3965, 397.3675
474.8787, 395.6386
475.3608, 393.5959
475.8429, 392.9234
476.3250, 390.9872
476.8071, 391.0161
477.2892, 388.7437
477.7714, 388.9168
478.2535, 389.6444
478.7356, 386.1275
479.2177, 387.1042
479.6998, 381.1124
480.1819, 380.9514
480.6641, 380.1623
481.1462, 383.1003
481.6283, 377.1424
482.1104, 376.8194
482.5925, 378.8956
483.0746, 377.6148
483.5568, 377.7373
484.0389, 373.7048
484.5210, 373.5758
485.0031, 372.3708
485.4852, 374.8841
485.9673, 374.4620
486.4495, 370.4997
486.9316, 366.5526
487.4137, 369.3334
487.8958, 365.7375
488.3779, 365.5817
488.8600, 361.8730
489.3422, 361.2318
489.8243, 360.5421
490.3064, 361.4250
490.7885, 360.0908
491.2706, 359.8394
491.7527, 358.5643
492.2349, 358.3420
492.7170, 358.0028
493.1991, 356.4965
493.6812, 354.6914
494.1633, 354.0558
494.6454, 353.4515
495.1276, 352.8971
495.6097, 352.1866
496.0918, 351.0783
496.5739, 349.6809
497.0560, 348.0964
497.5381, 345.8889
498.0203, 344.4487
498.5024, 346.1497
498.9845, 349.5515
499.4666, 351.5015
499.9487, 349.0915
500.4308, 345.9760
500.9130, 344.3275
501.3951, 344.2453
501.8772, 344.0317
502.3593, 342.8729
502.8414, 341.6162
503.3235, 340.8157
503.8057, 340.9909
504.2878, 340.9764
504.7699, 340.7473
505.2520, 340.3080
505.7341, 339.5543
506.2162, 337.9435
506.6984, 337.1573
507.1805, 338.1126
507.6626, 340.4756
508.1447, 340.7103
508.6268, 338.2130
509.1089, 335.8214
509.5911, 335.9715
510.0732, 338.3763
510.5553, 339.8375
511.0374, 340.0838
511.5195, 339.4434
512.0016, 337.7180
512.4838, 335.3385
512.9659, 333.8110
513.4480, 334.1572
513.9301, 335.1019
514.4122, 335.2719
514.8943, 334.7835
515.3765, 334.1214
515.8586, 333.1910
516.3407, 332.4358
516.8228, 332.3048
517.3049, 332.9683
517.7870, 333.5535
518.2692, 333.8631
518.7513, 333.8958
519.2334, 333.6475
519.7155, 332.3035
520.1976, 331.6822
520.6797, 332.6891
521.1619, 334.5190
521.6440, 334.6756
522.1261, 331.8573
522.6082, 329.7096
523.0903, 329.8183
523.5724, 332.2441
524.0546, 333.6257
524.5367, 333.7517
525.0188, 333.4726
525.5009, 333.6424
525.9830, 334.1860
526.4651, 334.1362
526.9473, 333.2391
527.4294, 332.0323
527.9115, 331.1666
528.3936, 330.6296
528.8757, 330.3742
529.3578, 330.7334
529.8400, 331.1336
530.3221, 330.4516
530.8042, 328.9848
531.2863, 328.6151
531.7684, 332.2807
532.2505, 336.2273
532.7327, 337.2619
533.2148, 333.9048
533.6969, 331.0692
534.1790, 330.2475
534.6611, 330.5443
535.1432, 330.9807
535.6254, 331.8024
536.1075, 332.3178
536.5896, 331.9982
537.0717, 331.3406
537.5538, 332.2715
538.0359, 335.5851
538.5181, 338.6635
539.0002, 340.3246
539.4823, 340.5950
539.9644, 341.2096
540.4465, 342.2408
540.9286, 343.2567
541.4108, 343.8961
541.8929, 344.1853
542.3750, 344.1561
542.8571, 343.7305
543.3392, 343.2304
543.8214, 343.0102
544.3035, 343.0135
544.7856, 343.0956
545.2677, 342.8800
545.7498, 342.9673
546.2319, 344.0931
546.7141, 346.0586
547.1962, 347.6801
547.6783, 348.5512
548.1604, 348.8770
548.6425, 348.5962
549.1246, 347.2414
549.6068, 346.7080
550.0889, 348.0470
550.5710, 349.7299
551.0531, 350.2687
551.5352, 348.8051
552.0173, 348.0575
552.4995, 348.5023
552.9816, 349.7389
553.4637, 350.9151
553.9458, 352.0820
554.4279, 352.8402
554.9100, 352.9597
555.3922, 352.5439
555.8743, 352.0833
556.3564, 351.5841
556.8385, 350.6098
557.3206, 347.8211
557.8027, 344.5907
558.2849, 343.5372
558.7670, 345.4361
559.2491, 347.6494
559.7312, 348.4801
560.2133, 348.2786
560.6954, 347.5064
561.1776, 345.8060
561.6597, 344.1067
562.1418, 342.6254
562.6239, 341.3690
563.1060, 340.3866
563.5881, 340.2144
564.0703, 339.7612
564.5524, 338.5271
565.0345, 336.4188
565.5166, 334.9427
565.9987, 334.3815
566.4808, 333.9709
566.9630, 333.1164
567.4451, 331.7947
567.9272, 330.3188
568.4093, 328.6069
568.8914, 327.0099
569.3735, 326.0660
569.8557, 325.6892
570.3378, 325.4748
570.8199, 325.6465
571.3020, 325.5217
571.7841, 323.6193
572.2662, 320.4911
572.7484, 318.1834
573.2305, 318.2139
573.7126, 319.1252
574.1947, 320.3360
574.6768, 321.8439
575.1589, 322.1750
575.6411, 319.8566
576.1232, 316.8248
576.6053, 314.4496
577.0874, 311.5726
577.5695, 313.3622
578.0516, 314.0284
578.5338, 313.6324
579.0159, 308.9378
579.4980, 309.8369
579.9801, 308.5204
580.4622, 307.1309
580.9443, 308.8706
581.4265, 304.8970
581.9086, 306.6245
582.3907, 306.1025
582.8728, 306.6373
583.3549, 304.9426
583.8370, 303.9610
584.3192, 305.2466
584.8013, 305.3058
585.2834, 303.4269
585.7655, 304.1395
586.2476, 300.2739
586.7297, 300.4608
587.2118, 302.4066
587.6939, 300.7339
588.1760, 301.5808
588.6581, 301.4939
589.1403, 298.1566
589.6224, 300.1170
590.1045, 300.6778
590.5866, 299.0393
591.0687, 300.2932
591.5508, 296.3800
592.0330, 297.0014
592.5151, 299.5795
592.9972, 298.0693
593.4793, 299.3706
593.9614, 299.6015
594.4435, 294.9667
594.9257, 298.7945
595.4078, 298.9628
595.8899, 295.3737
596.3720, 298.9123
596.8541, 295.8417
597.3362, 295.1306
597.8184, 296.1950
598.3005, 295.4089
598.7826, 297.5411
599.2647, 296.8624
599.7468, 295.9328
600.2289, 296.0995
600.7111, 295.2555
601.1932, 295.9839
601.6753, 294.8715
602.1574, 295.7159
602.6395, 297.0040
603.1216, 294.8967
603.6038, 296.3845
604.0859, 292.2978
604.5680, 292.8759
605.0501, 292.9520
605.5322, 296.0099
606.0143, 291.9514
606.4965, 292.4009
606.9786, 294.7701
607.4607, 294.4538
607.9428, 295.2607
608.4249, 292.7437
608.9070, 293.3497
609.3892, 293.0952
609.8713, 295.8154
610.3534, 296.1876
610.8355, 293.7281
611.3176, 291.2809
611.7997, 294.2162
612.2819, 292.0504
612.7640, 292.6369
613.2461, 290.3814
613.7282, 290.5802
614.2103, 290.7404
614.6924, 292.1589
615.1746, 291.8038
615.6567, 292.3153
616.1388, 292.0081
616.6209, 292.5436
617.1030, 292.9857
617.5851, 293.2279
618.0673, 292.5542
618.5494, 293.5937
619.0315, 290.9812
619.5136, 289.7548
619.9957, 289.5136
620.4778, 293.9216
620.9600, 294.0087
621.4421, 288.9310
621.9242, 293.1349
622.4063, 291.6290
622.8884, 291.8201
623.3705, 291.3925
623.8527, 291.1483
624.3348, 291.2876
624.8169, 289.0705
625.2990, 292.0656
625.7811, 290.8027
626.2632, 292.4336
626.7454, 288.7914
627.2275, 288.2796
627.7096, 288.5989
628.1917, 289.2215
628.6738, 287.4231
629.1559, 287.9490
629.6381, 287.6798
630.1202, 287.3138
630.6023, 287.3714
631.0844, 286.9260
631.5665, 286.1716
632.0486, 289.3107
632.5308, 286.3922
633.0129, 289.1836
633.4950, 290.1452
633.9771, 288.6330
634.4592, 288.4356
634.9413, 285.7443
635.4235, 286.8782
635.9056, 286.6969
636.3877, 288.6833
636.8698, 286.0030
637.3519, 288.6956
637.8340, 286.1410
638.3162, 289.0515
638.7983, 286.3864
639.2804, 288.6887
639.7625, 285.0623
640.2446, 285.7274
640.7267, 286.7329
641.2089, 288.8373
641.6910, 286.7180
642.1731, 289.0835
642.6552, 287.5139
643.1373, 288.5060
643.6194, 288.0779
644.1016, 285.8722
644.5837, 288.6811
645.0658, 286.9170
645.5479, 288.2411
646.0300, 284.5638
646.5121, 286.9670
646.9943, 288.0614
647.4764, 288.8864
647.9585, 288.5776
648.4406, 287.7635
648.9227, 287.7428
649.4048, 286.3987
649.8870, 283.1220
650.3691, 283.8560
650.8512, 285.8034
651.3333, 287.1497
651.8154, 284.4246
652.2975, 286.0815
652.7797, 285.7659
653.2618, 287.3174
653.7439, 285.2904
654.2260, 287.5242
654.7081, 284.0299
655.1902, 286.6969
655.6724, 287.6925
656.1545, 282.3957
656.6366, 287.4336
657.1187, 283.1408
657.6008, 284.3489
658.0829, 285.2101
658.5651, 283.3712
659.0472, 286.7812
659.5293, 281.8138
660.0114, 282.7588
660.4935, 285.8967
660.9756, 283.7450
661.4578, 286.7787
661.9399, 284.6023
662.4220, 281.3315
662.9041, 285.7465
663.3862, 282.2544
663.8683, 283.9547
664.3505, 281.3391
664.8326, 281.2509
665.3147, 283.6346
665.7968, 281.5395
666.2789, 283.4124
666.7610, 285.1219
667.2432, 282.1802
667.7253, 282.7335
668.2074, 281.9660
668.6895, 284.1071
669.1716, 285.5723
669.6537, 281.1015
670.1359, 284.0515
670.6180, 281.8621
671.1001, 285.1514
671.5822, 279.8598
672.0643, 279.8765
672.5464, 284.5215
673.0286, 282.7079
673.5107, 284.9628
673.9928, 279.6638
674.4749, 279.6393
674.9570, 283.7903
675.4391, 279.7894
675.9213, 284.6056
676.4034, 280.7222
676.8855, 280.1920
677.3676, 283.4795
677.8497, 281.0831
678.3318, 283.6038
678.8140, 282.1576
679.2961, 284.1601
679.7782, 282.7949
680.2603, 279.5108
680.7424, 283.5804
681.2245, 282.0984
681.7067, 278.4554
682.1888, 281.1195
682.6709, 282.8357
683.1530, 282.2294
683.6351, 283.1223
684.1172, 282.1445
684.5994, 278.8625
685.0815, 279.6159
685.5636, 280.9555
686.0457, 278.6644
686.5278, 279.4751
687.0099, 281.3274
687.4921, 279.7277
687.9742, 278.8537
688.4563, 280.0017
688.9384, 279.5122
689.4205, 278.2819
689.9026, 280.2835
690.3848, 278.5820
690.8669, 281.4215
691.3490, 280.4665
691.8311, 281.5907
692.3132, 277.9957
692.7953, 279.2884
693.2775, 277.5636
693.7596, 278.6057
694.2417, 280.4449
694.7238, 281.7448
695.2059, 281.0808
695.6880, 278.1861
696.1702, 277.2970
696.6523, 277.7629
697.1344, 278.9744
697.6165, 277.9480
698.0986, 277.6358
698.5807, 277.5956
699.0629, 278.2598
699.5450, 277.7117
700.0271, 279.9277
700.5092, 281.0785
700.9913, 280.6609
701.4734, 278.5128
701.9556, 276.1331
702.4377, 276.2792
702.9198, 276.7197
703.4019, 276.2116
703.8840, 275.5691
704.3661, 276.8657
704.8483, 277.9130
705.3304, 278.1566
705.8125, 277.5231
706.2946, 275.3547
706.7767, 275.9762
707.2589, 276.8567
707.7410, 276.5175
708.2231, 278.6739
708.7052, 277.6196
709.1873, 279.7386
709.6694, 278.8638
710.1516, 280.1959
710.6337, 275.9716
711.1158, 275.7636
711.5979, 275.7321
712.0800, 280.0847
712.5621, 276.8381
713.0443, 278.7131
713.5264, 275.3095
714.0085, 278.9900
714.4906, 278.4679
714.9727, 275.5701
715.4548, 276.9947
715.9370, 279.6833
716.4191, 276.2672
716.9012, 277.4828
717.3833, 274.1209
717.8654, 279.5475
718.3475, 279.5469
718.8297, 277.7233
719.3118, 275.3121
719.7939, 276.1935
720.2760, 277.5591
720.7581, 277.9760
721.2402, 279.0930
721.7224, 276.0844
722.2045, 277.0508
722.6866, 278.8470
723.1687, 278.7097
723.6508, 274.1944
724.1329, 275.3725
724.6151, 275.4795
725.0972, 275.1304
725.5793, 276.0559
726.0614, 277.1543
726.5435, 276.6491
727.0256, 275.7891
727.5078, 276.3174
727.9899, 275.4746
728.4720, 275.3893
728.9541, 276.5810
729.4362, 274.2110
729.9183, 277.2167
730.4005, 273.0800
730.8826, 273.1774
731.3647, 275.0150
731.8468, 276.6687
732.3289, 278.2394
732.8110, 272.8547
733.2932, 275.1677
733.7753, 275.7107
734.2574, 274.2743
734.7395, 277.9260
735.2216, 275.8979
735.7037, 274.6699
736.1859, 275.8041
736.6680, 275.2447
737.1501, 274.2436
737.6322, 276.2133
738.1143, 273.2952
738.5964, 276.7569
739.0786, 275.3802
739.5607, 277.3075
740.0428, 277.3496
740.5249, 276.2914
741.0070, 276.3619
741.4891, 273.9187
741.9713, 276.7212
742.4534, 272.8494
742.9355, 276.1715
743.4176, 273.3043
743.8997, 272.2114
744.3818, 270.5331
744.8640, 273.6817
745.3461, 275.5464
745.8282, 276.1963
746.3103, 271.9928
746.7924, 274.0564
747.2745, 273.6084
747.7567, 273.0576
748.2388, 276.0032
748.7209, 272.5056
749.2030, 275.3959
749.6851, 275.7362
750.1672, 277.2436
750.6494, 276.2239
751.1315, 275.9847
751.6136, 278.2734
752.0957, 279.1624
752.5778, 277.8518
753.0599, 279.4333
753.5421, 275.8475
754.0242, 276.7961
754.5063, 279.7012
754.9884, 278.5176
755.4705, 280.1454
755.9526, 280.7024
756.4348, 276.3936
756.9169, 280.5470
757.3990, 281.0408
757.8811, 277.7769
758.3632, 281.6404
758.8453, 278.8944
759.3275, 278.5078
759.8096, 279.8964
760.2917, 279.4343
760.7738, 281.8901
761.2559, 283.2276
761.7380, 285.9750
762.2202, 288.7067
762.7023, 290.7188
763.1844, 290.8672
763.6665, 290.2939
764.1486, 291.1268
764.6307, 293.3988
765.1129, 294.4912
765.5950, 290.8259
766.0771, 287.3014
766.5592, 287.3351
767.0413, 292.0632
767.5234, 296.1696
768.0056, 299.9148
768.4877, 302.6409
768.9698, 303.4732
769.4519, 302.4586
769.9340, 302.2009
770.4161, 302.7485
770.8983, 304.0158
771.3804, 306.4843
771.8625, 309.4095
772.3446, 311.5696
772.8267, 312.7285
773.3088, 313.8637
773.7910, 316.0813
774.2731, 318.0517
774.7552, 318.5152
775.2373, 316.3070
775.7194, 315.7431
776.2015, 317.8095
776.6837, 320.0455
777.1658, 320.0121
777.6479, 317.7892
778.1300, 316.5247
778.6121, 316.4675
779.0942, 317.1745
779.5764, 318.9644
780.0585, 320.9491
780.5406, 321.6174
781.0227, 320.3420
781.5048, 319.2207
781.9869, 319.6415
782.4691, 320.4173
782.9512, 320.4044
783.4332, 318.8229
783.9153, 318.0321
784.3975, 318.3231
784.8796, 318.9526
785.3617, 319.0599
785.8438, 318.7019
786.3259, 318.8000
786.8080, 319.6241
787.2902, 320.0451
787.7723, 317.9088
788.2544, 314.9636
788.7365, 314.0102
789.2186, 316.7005
789.7007, 318.6989
790.1829, 317.5802
790.6650, 315.4991
791.1471, 314.8891
791.6292, 317.4242
792.1113, 317.2834
792.5934, 313.2867
793.0756, 308.4117
793.5577, 306.5482
794.0398, 307.2342
794.5219, 307.5975
795.0040, 307.1696
795.4861, 306.2017
795.9683, 304.2687
796.4504, 302.1997
796.9325, 301.1133
797.4146, 301.8506
797.8967, 302.5255
798.3788, 302.7995
798.8610, 302.7238
799.3431, 302.3484
799.8252, 301.6483
800.3073, 300.5883
800.7894, 298.9587
801.2715, 297.4857
801.7537, 297.1240
802.2358, 297.7187
802.7179, 299.0006
803.2000, 301.2872
803.6821, 302.7680
804.1642, 301.1950
804.6464, 298.3739
805.1285, 296.4499
805.6106, 296.2035
806.0927, 296.4427
806.5748, 297.6307
807.0569, 298.7332
807.5391, 298.5129
808.0212, 296.7557
808.5033, 295.3396
808.9854, 294.4627
809.4675, 293.9662
809.9496, 293.7628
810.4318, 293.7754
810.9139, 293.8818
811.3960, 294.1281
811.8781, 294.2078
812.3602, 294.1905
812.8423, 293.7892
813.3245, 292.6602
813.8066, 289.8548
814.2887, 287.7786
814.7708, 286.1947
815.2529, 285.6880
815.7350, 287.6670
816.2172, 291.9267
816.6993, 294.2945
817.1814, 294.0898
817.6635, 292.8448
818.1456, 291.6806
818.6277, 290.6631
819.1099, 289.8833
819.5920, 289.3673
820.0741, 289.1065
820.5562, 289.6346
821.0383, 290.0641
821.5204, 289.6100
822.0026, 287.8991
822.4847, 286.1855
822.9668, 284.2233
823.4489, 282.9747
823.9310, 284.1537
824.4131, 286.9442
824.8953, 288.5287
825.3774, 288.5069
825.8595, 287.6826
826.3416, 286.0036
826.8237, 284.2227
827.3058, 282.9831
827.7880, 282.3103
828.2701, 282.5592
828.7522, 284.4368
829.2343, 286.4429
829.7164, 287.4769
830.1985, 287.4688
830.6807, 287.5096
831.1628, 287.6812
831.6449, 287.4376
832.1270, 285.4743
832.6091, 283.0729
833.0912, 282.6645
833.5734, 284.5901
834.0555, 286.3146
834.5376, 286.5767
835.0197, 286.2216
835.5018, 285.5986
835.9839, 284.5859
836.4661, 284.3545
836.9482, 285.0187
837.4303, 286.1715
837.9124, 288.1873
838.3945, 290.5789
838.8766, 290.4388
839.3588, 287.8395
839.8409, 285.3098
840.3230, 284.6031
840.8051, 284.8340
841.2872, 285.6894
841.7693, 287.1079
842.2515, 287.4376
842.7336, 285.0130
843.2157, 282.9677
843.6978, 282.5519
844.1799, 283.6422
844.6620, 284.6852
845.1442, 285.6693
845.6263, 286.6168
846.1084, 287.6055
846.5905, 288.5249
847.0726, 289.2563
847.5547, 289.7752
848.0369, 289.9828
848.5190, 289.3681
849.0011, 288.8883
849.4832, 289.3340
849.9653, 290.3999
850.4474, 290.3084
850.9296, 288.6078
851.4117, 287.1100
851.8938, 286.4227
852.3759, 286.3539
852.8580, 286.6508
853.3401, 287.1913
853.8223, 287.4056
854.3044, 286.1388
854.7865, 285.2918
855.2686, 287.0576
855.7507, 290.2038
856.2328, 291.7102
856.7150, 289.0768
857.1971, 287.5968
857.6792, 288.6616
858.1613, 290.7898
858.6434, 290.3736
859.1255, 287.5415
859.6077, 286.1277
860.0898, 287.7582
860.5719, 289.8980
861.0540, 288.9538
861.5361, 286.6369
862.0182, 285.8607
862.5004, 289.3731
862.9825, 291.8192
863.4646, 291.0639
863.9467, 289.0927
864.4288, 287.7382
864.9109, 286.8750
865.3931, 287.5241
865.8752, 290.1749
866.3573, 292.9727
866.8394, 293.5785
867.3215, 292.7046
867.8036, 291.8400
868.2858, 291.2810
868.7679, 290.6474
869.2500, 289.2451
869.7321, 287.9952
870.2142, 287.7858
870.6964, 288.9008
871.1785, 290.1659
871.6606, 291.7538
872.1427, 293.0418
872.6248, 293.3110
873.1069, 292.8051
873.5891, 292.7237
874.0712, 293.0939
874.5533, 293.0271
875.0354, 290.8651
875.5175, 288.7637
875.9996, 288.7267
876.4818, 290.9803
876.9639, 292.5402
877.4460, 292.4651
877.9281, 292.7758
878.4102, 294.8049
878.8923, 298.0099
879.3745, 298.5909
879.8566, 296.6727
880.3387, 294.3059
880.8208, 292.1429
881.3029, 290.5179
881.7850, 290.0661
882.2672, 290.4925
882.7493, 290.7928
883.2314, 290.3332
883.7135, 290.1538
884.1956, 290.7708
884.6777, 291.7210
885.1599, 291.5599
885.6420, 290.1941
886.1241, 289.3269
886.6062, 289.6483
887.0883, 290.2936
887.5704, 289.8574
888.0526, 288.8983
888.5347, 288.4777
889.0168, 289.2969
889.4989, 290.1700
889.9810, 290.8813
890.4631, 291.3682
890.9453, 291.4539
891.4274, 290.9173
891.9095, 291.0749
892.3916, 292.2008
892.8737, 293.4046
893.3558, 293.7155
893.8380, 293.3268
894.3201, 292.4549
894.8022, 291.0232
895.2843, 290.0197
895.7664, 290.1542
896.2485, 290.7569
896.7307, 291.3762
897.2128, 292.0026
897.6949, 292.5185
898.1770, 292.7989
898.6591, 293.3679
899.1412, 295.3882
899.6234, 297.8620
900.1055, 297.1728
900.5876, 293.7196
901.0697, 290.9365
901.5518, 291.1913
902.0339, 292.5320
902.5161, 294.4046
902.9982, 296.5415
903.4803, 297.3656
903.9624, 296.1199
904.4445, 295.3415
904.9266, 295.9373
905.4088, 297.3761
905.8909, 298.8698
906.3730, 300.1558
906.8551, 300.0484
907.3372, 296.9571
907.8193, 293.8712
908.3015, 292.9251
908.7836, 293.2830
909.2657, 293.5529
909.7478, 293.4660
910.2299, 293.4807
910.7120, 293.6880
911.1942, 293.9056
911.6763, 293.6500
912.1584, 293.1273
912.6405, 293.6430
913.1226, 295.5455
913.6047, 297.2366
914.0869, 297.3982
914.5690, 296.7804
915.0511, 295.9036
915.5332, 294.6034
916.0153, 294.1818
916.4974, 295.2269
916.9796, 296.1932
917.4617, 295.8710
917.9438, 294.5500
918.4259, 294.6585
918.9080, 296.0591
919.3901, 297.0114
919.8723, 296.0381
920.3544, 294.4367
920.8365, 292.8755
921.3186, 291.4993
921.8007, 290.8967
922.2828, 291.2879
922.7650, 292.2764
923.2471, 294.1825
923.7292, 296.2754
924.2113, 296.3003
924.6934, 294.5856
925.1755, 293.4574
925.6577, 293.8933
926.1398, 294.7552
926.6219, 295.4738
927.1040, 295.8529
927.5861, 295.6096
928.0682, 294.0226
928.5504, 292.7168
929.0325, 291.4771
929.5146, 290.8712
929.9967, 291.9830
930.4788, 294.4850
930.9609, 295.7583
931.4431, 295.5568
931.9252, 295.0497
932.4073, 295.0023
932.8894, 295.1870
933.3715, 295.5699
933.8536, 296.1838
934.3358, 296.0987
934.8179, 294.6042
935.3000, 293.5667
935.7821, 293.9600
936.2642, 295.3827
936.7463, 296.3692
937.2285, 296.9008
937.7106, 296.7850
938.1927, 295.0346
938.6748, 293.4439
939.1569, 294.1238
939.6390, 295.8651
940.1212, 295.8178
940.6033, 291.4766
941.0854, 289.2568
941.5675, 290.3785
942.0496, 293.0523
942.5317, 294.7259
943.0139, 295.5774
943.4960, 296.5572
943.9781, 297.9673
944.4602, 298.7645
944.9423, 297.4257
945.4244, 295.5891
945.9066, 294.7322
946.3887, 295.3109
946.8708, 295.9942
947.3529, 296.9279
947.8350, 297.6480
948.3171, 297.7728
948.7993, 297.4561
949.2814, 297.2316
949.7635, 297.1042
950.2456, 297.0940
950.7277, 297.1302
951.2098, 297.3687
951.6920, 298.0981
952.1741, 299.1218
952.6562, 299.7357
953.1383, 299.8576
953.6204, 299.6773
954.1025, 299.0089
954.5847, 298.4740
955.0668, 299.5123
955.5489, 301.5016
956.0310, 302.7955
956.5131, 302.8610
956.9952, 302.4861
957.4774, 301.3163
957.9595, 300.4193
958.4416, 300.9847
958.9237, 303.7004
959.4058, 304.3987
959.8879, 302.5573
960.3701, 301.0236
960.8522, 303.0054
961.3343, 306.4535
961.8164, 306.4653
962.2985, 303.6248
962.7806, 302.2192
963.2628, 306.3934
963.7449, 310.0568
964.2270, 310.3452
964.7091, 308.3801
965.1912, 307.3948
965.6733, 307.4640
966.1555, 307.8113
966.6376, 308.3477
967.1197, 308.7962
967.6018, 308.4131
968.0839, 307.8030
968.5660, 308.0596
969.0482, 310.1352
969.5303, 311.5540
970.0124, 311.2797
970.4945, 310.7713
970.9766, 311.1670
971.4587, 312.4951
971.9409, 313.4903
972.4230, 314.1263
972.9051, 314.6304
973.3872, 314.7435
973.8693, 315.1209
974.3514, 316.8910
974.8336, 319.7395
975.3157, 321.4678
975.7978, 321.0140
976.2799, 320.3585
976.7620, 319.7638
977.2441, 319.4173
977.7263, 320.0558
978.2084, 321.4496
978.6905, 322.2350
979.1726, 321.7346
979.6547, 321.3019
980.1368, 322.0590
980.6190, 323.3803
981.1010, 324.5745
981.5831, 325.4867
982.0652, 326.6703
982.5474, 328.4500
983.0295, 329.6093
983.5116, 328.5436
983.9937, 326.1957
984.4758, 325.0265
984.9579, 325.0912
985.4401, 326.2934
985.9222, 330.3821
986.4043, 333.7602
986.8864, 334.2969
987.3685, 332.7884
987.8506, 331.2390
988.3328, 329.6074
988.8149, 328.2177
989.2970, 327.0349
989.7791, 326.4380
990.2612, 327.5305
990.7433, 329.3696
991.2255, 330.3256
991.7076, 329.6084
992.1897, 329.2058
992.6718, 329.8170
993.1539, 330.6450
993.6360, 331.2775
994.1182, 331.7123
994.6003, 331.7458
995.0824, 331.3846
995.5645, 331.1890
996.0466, 332.1379
996.5287, 332.8839
997.0109, 331.7044
997.4930, 329.2525
997.9751, 327.9424
998.4572, 328.3548
998.9393, 329.5256
999.4214, 331.7383
999.9036, 333.9337
1000.386, 334.1942
1000.868, 332.9476
1001.350, 331.4051
1001.832, 329.7122
1002.314, 328.3835
1002.796, 328.0909
1003.278, 328.0510
1003.760, 327.5068
1004.243, 326.3469
1004.725, 326.4498
1005.207, 328.0856
1005.689, 329.4170
1006.171, 329.3114
1006.653, 328.3716
1007.135, 327.3537
1007.617, 326.3216
1008.100, 325.4224
1008.582, 324.7918
1009.064, 324.2153
1009.546, 323.7309
1010.028, 323.2050
1010.510, 322.2480
1010.992, 320.9174
1011.474, 320.5826
1011.956, 321.4539
1012.439, 322.4956
1012.921, 323.1732
1013.403, 323.3685
1013.885, 322.5610
1014.367, 320.6990
1014.849, 320.4681
1015.331, 322.9549
1015.813, 324.4930
1016.296, 323.1387
1016.778, 320.5203
1017.260, 320.7367
1017.742, 322.9305
1018.224, 324.6119
1018.706, 324.7946
1019.188, 324.4376
1019.670, 323.5844
1020.152, 322.5742
1020.635, 321.6659
1021.117, 320.7734
1021.599, 320.5536
1022.081, 321.0519
1022.563, 321.7643
1023.045, 322.5419
1023.527, 323.1382
1024.009, 323.1618
1024.492, 322.6920
1024.974, 322.2751
1025.456, 322.0889
1025.938, 321.8843
1026.420, 321.5406
1026.902, 321.2533
1027.384, 321.3915
1027.866, 321.9218
1028.349, 322.8170
1028.831, 324.2177
1029.313, 325.2970
1029.795, 325.5040
1030.277, 325.1949
1030.759, 324.3857
1031.241, 322.9525
1031.723, 323.0506
1032.205, 324.9290
1032.688, 326.7968
1033.170, 327.6822
1033.652, 327.9316
1034.134, 328.1122
1034.616, 328.0630
1035.098, 327.3924
1035.580, 325.1024
1036.062, 323.3350
1036.544, 322.2755
1037.027, 321.9120
1037.509, 322.2813
1037.991, 323.3593
1038.473, 325.4180
1038.955, 328.5054
1039.437, 330.5526
1039.919, 328.9626
1040.401, 326.7914
1040.884, 326.2319
1041.366, 327.1590
1041.848, 327.5595
1042.330, 327.1898
1042.812, 327.5420
1043.294, 329.5054
1043.776, 331.4816
1044.258, 330.4674
1044.740, 328.0380
1045.223, 327.0433
1045.705, 328.8760
1046.187, 330.1767
1046.669, 330.3428
1047.151, 329.7879
1047.633, 328.3980
1048.115, 326.3895
1048.597, 325.5797
1049.079, 325.8978
1049.562, 326.8251
1050.044, 328.9069
1050.526, 330.6236
1051.008, 330.4373
1051.490, 329.3550
1051.972, 329.6289
1052.454, 331.8173
1052.936, 333.2173
1053.419, 333.4874
1053.901, 333.2217
1054.383, 332.5849
1054.865, 332.0703
1055.347, 332.4811
1055.829, 333.8823
1056.311, 335.3244
1056.793, 337.3025
1057.276, 338.1648
1057.758, 336.7400
1058.240, 334.3965
1058.722, 335.4997
1059.204, 339.1987
1059.686, 341.8073
1060.168, 342.0308
1060.650, 341.4432
1061.132, 340.8278
1061.615, 339.9235
1062.097, 338.0262
1062.579, 334.6842
1063.061, 335.0401
1063.543, 339.4466
1064.025, 343.8800
1064.507, 345.5287
1064.989, 345.9908
1065.471, 347.0871
1065.954, 348.5757
1066.436, 349.8505
1066.918, 350.2124
1067.400, 351.3696
1067.882, 353.9821
1068.364, 356.4394
1068.846, 355.8906
1069.328, 353.6994
1069.811, 354.7414
1070.293, 359.2184
1070.775, 362.5413
1071.257, 360.4507
1071.739, 358.6051
1072.221, 360.0254
1072.703, 363.5474
1073.185, 365.3182
1073.667, 365.3425
1074.150, 366.2191
1074.632, 369.0482
1075.114, 371.4016
1075.596, 370.5196
1076.078, 368.1762
1076.560, 366.0340
1077.042, 364.1869
1077.524, 363.5054
1078.006, 364.3996
1078.489, 365.0132
1078.971, 364.1888
1079.453, 362.6032
1079.935, 361.2952
1080.417, 360.3189
1080.899, 359.8085
1081.381, 360.6456
1081.863, 360.7299
1082.345, 359.4818
1082.828, 357.8698
1083.310, 356.7731
1083.792, 356.1489
1084.274, 355.7775
1084.756, 355.6312
1085.238, 355.4665
1085.720, 355.1989
1086.202, 354.8014
1086.685, 354.0564
1087.167, 353.2133
1087.649, 352.8671
1088.131, 353.0521
1088.613, 353.4657
1089.095, 354.1087
1089.577, 354.6891
1090.059, 354.9088
1090.542, 354.9001
1091.024, 354.8670
1091.506, 354.8349
1091.988, 354.2008
1092.470, 352.4716
1092.952, 351.4715
1093.434, 352.2075
1093.916, 353.5363
1094.398, 352.9779
1094.880, 351.3228
1095.363, 350.3178
1095.845, 350.4272
1096.327, 351.2426
1096.809, 353.7832
1097.291, 355.6240
1097.773, 354.6757
1098.255, 351.5334
1098.737, 350.9391
1099.220, 352.5546
1099.702, 354.2559
1100.184, 354.8839
1100.666, 355.3325
1101.148, 356.4132
1101.630, 357.3969
1102.112, 357.2104
1102.594, 355.7092
1103.077, 353.8503
1103.559, 351.5713
1104.041, 350.3932
1104.523, 352.8787
1105.005, 355.9627
1105.487, 356.8627
1105.969, 355.7298
1106.451, 354.0128
1106.933, 351.2495
1107.416, 349.6267
1107.898, 349.6092
1108.380, 350.5588
1108.862, 352.2045
1109.344, 353.9975
1109.826, 354.8899
1110.308, 354.6467
1110.790, 354.8554
1111.272, 356.1639
1111.755, 357.6264
1112.237, 359.2246
1112.719, 360.5284
1113.201, 360.0521
1113.683, 358.3243
1114.165, 357.0337
1114.647, 356.6264
1115.129, 356.8107
1115.612, 357.8966
1116.094, 359.1484
1116.576, 360.0648
1117.058, 360.6681
1117.540, 361.4451
1118.022, 362.3553
1118.504, 362.9271
1118.986, 362.9881
1119.469, 362.5336
1119.951, 360.7864
1120.433, 358.8884
1120.915, 358.6414
1121.397, 360.6429
1121.879, 361.6088
1122.361, 361.3843
1122.843, 361.0479
1123.325, 361.9820
1123.807, 362.8076
1124.290, 361.2393
1124.772, 358.2365
1125.254, 357.4881
1125.736, 360.7738
1126.218, 362.4736
1126.700, 361.6209
1127.182, 360.1129
1127.664, 360.3898
1128.147, 361.3791
1128.629, 360.9664
1129.111, 359.1195
1129.593, 358.0651
1130.075, 358.9265
1130.557, 360.0254
1131.039, 361.2552
1131.521, 362.1463
1132.004, 361.2502
1132.486, 359.3426
1132.968, 358.8655
1133.450, 360.5425
1133.932, 361.7137
1134.414, 360.5596
1134.896, 359.2967
1135.378, 358.8919
1135.860, 359.2411
1136.343, 360.2816
1136.825, 361.7913
1137.307, 362.2465
1137.789, 360.7135
1138.271, 359.1237
1138.753, 358.2071
1139.235, 358.1860
1139.717, 359.5154
1140.199, 362.2289
1140.682, 363.1769
1141.164, 362.3677
1141.646, 361.2208
1142.128, 360.4875
1142.610, 359.7345
1143.092, 358.2565
1143.574, 356.7093
1144.056, 356.0854
1144.539, 356.5527
1145.021, 357.6444
1145.503, 359.5190
1145.985, 360.6846
1146.467, 358.7401
1146.949, 356.4947
1147.431, 357.7549
1147.913, 361.2349
1148.396, 363.1024
1148.878, 362.2534
1149.360, 361.4665
1149.842, 360.9235
1150.324, 360.6241
1150.806, 361.1020
1151.288, 361.5201
1151.770, 360.0421
1152.252, 356.9897
1152.734, 355.3697
1153.217, 356.5957
1153.699, 358.0815
1154.181, 359.6250
1154.663, 360.7543
1155.145, 360.3924
1155.627, 359.2443
1156.109, 358.7843
1156.591, 359.2076
1157.074, 359.8358
1157.556, 361.3535
1158.038, 361.7465
1158.520, 359.9554
1159.002, 357.2585
1159.484, 356.5593
1159.966, 357.3406
1160.448, 358.0697
1160.931, 358.4180
1161.413, 358.6548
1161.895, 358.9150
1162.377, 359.0742
1162.859, 359.1674
1163.341, 359.0841
1163.823, 357.8847
1164.305, 355.9772
1164.787, 355.4772
1165.270, 357.7039
1165.752, 359.8113
1166.234, 360.7589
1166.716, 360.5145
1167.198, 358.4421
1167.680, 354.8703
1168.162, 354.8177
1168.644, 357.9598
1169.126, 361.3833
1169.609, 364.6115
1170.091, 366.4620
1170.573, 365.1025
1171.055, 362.7509
1171.537, 361.9122
1172.019, 362.7451
1172.501, 362.9384
1172.983, 362.5094
1173.466, 362.4489
1173.948, 363.8916
1174.430, 365.3735
1174.912, 365.4539
1175.394, 365.1074
1175.876, 366.3121
1176.358, 369.7255
1176.840, 370.1192
1177.323, 367.2014
1177.805, 363.6521
1178.287, 360.0384
1178.769, 358.0182
1179.251, 360.1318
1179.733, 364.8409
1180.215, 368.1613
1180.697, 370.0393
1181.179, 370.0420
1181.661, 367.8870
1182.144, 365.8190
1182.626, 366.1984
1183.108, 367.3429
1183.590, 367.4307
1184.072, 368.1481
1184.554, 368.9765
1185.036, 368.9685
1185.518, 370.0694
1186.001, 370.0258
1186.483, 369.4021
1186.965, 368.2702
1187.447, 367.2693
1187.929, 367.1049
1188.411, 367.8158
1188.893, 369.0753
1189.375, 371.3141
1189.858, 372.3343
1190.340, 371.4086
1190.822, 369.9634
1191.304, 369.7638
1191.786, 370.0513
1192.268, 369.8201
1192.750, 368.9467
1193.232, 368.4968
1193.714, 368.4604
1194.197, 369.1486
1194.679, 370.9876
1195.161, 372.7132
1195.643, 371.9107
1196.125, 370.1967
1196.607, 369.9314
1197.089, 371.7143
1197.571, 373.0324
1198.053, 373.8606
1198.536, 373.8476
1199.018, 372.5715
1199.500, 370.9716
1199.982, 370.1597
1200.464, 370.1561
1200.946, 371.2635
1201.428, 374.0871
1201.910, 375.3973
1202.393, 374.5120
1202.875, 373.9914
1203.357, 375.3076
1203.839, 377.2596
1204.321, 378.1547
1204.803, 378.1525
1205.285, 377.3636
1205.767, 375.0652
1206.250, 374.3000
1206.732, 375.4742
1207.214, 377.1530
1207.696, 379.0125
1208.178, 380.3749
1208.660, 379.0180
1209.142, 376.5110
1209.624, 375.9468
1210.106, 379.8243
1210.589, 381.7931
1211.071, 381.1677
1211.553, 380.5836
1212.035, 382.4314
1212.517, 384.8737
1212.999, 384.5489
1213.481, 382.4877
1213.963, 380.8939
1214.445, 380.2098
1214.928, 380.3806
1215.410, 381.6680
1215.892, 382.9974
1216.374, 383.5269
1216.856, 383.6143
1217.338, 383.6445
1217.820, 383.7173
1218.302, 384.0836
1218.785, 385.1311
1219.267, 385.7129
1219.749, 385.5938
1220.231, 385.7175
1220.713, 387.4449
1221.195, 389.4937
1221.677, 389.9023
1222.159, 389.0575
1222.641, 388.1198
1223.124, 386.9022
1223.606, 386.7035
1224.088, 387.8790
1224.570, 388.8508
1225.052, 387.7256
1225.534, 385.9359
1226.016, 385.3047
1226.498, 385.6320
1226.980, 386.0789
1227.463, 386.6393
1227.945, 386.9814
1228.427, 387.0612
1228.909, 386.9952
1229.391, 386.6760
1229.873, 386.4297
1230.355, 386.9952
1230.837, 387.9825
1231.320, 387.8104
1231.802, 385.8229
1232.284, 384.9803
1232.766, 385.7412
1233.248, 386.6883
1233.730, 385.9145
1234.212, 385.1126
1234.694, 386.6735
1235.177, 389.7786
1235.659, 390.7747
1236.141, 389.0238
1236.623, 387.9746
1237.105, 388.0836
1237.587, 388.6769
1238.069, 389.7394
1238.551, 390.4839
1239.033, 389.5399
1239.516, 390.5905
1239.998, 387.9428
1240.480, 390.8348
1240.962, 392.2249
1241.444, 391.4213
1241.926, 390.3008
1242.408, 390.4496
1242.890, 390.9178
1243.372, 390.9652
1243.855, 390.7276
1244.337, 390.5459
1244.819, 390.3968
1245.301, 391.4034
1245.783, 393.8247
1246.265, 395.8053
1246.747, 395.5775
1247.229, 394.7175
1247.712, 394.1836
1248.194, 393.8393
1248.676, 393.2932
1249.158, 392.5612
1249.640, 391.5458
1250.122, 390.1979
1250.604, 389.5930
1251.086, 391.1656
1251.568, 392.9225
1252.051, 393.8571
1252.533, 394.2624
1253.015, 394.9766
1253.497, 395.8083
1253.979, 395.3750
1254.461, 393.3867
1254.943, 392.1403
1255.425, 393.6402
1255.907, 395.3189
1256.390, 396.4318
1256.872, 396.8015
1257.354, 395.4578
1257.836, 393.0818
1258.318, 391.8609
1258.800, 392.1275
1259.282, 393.3821
1259.764, 397.2043
1260.247, 399.4340
1260.729, 398.2748
1261.211, 396.0399
1261.693, 397.1698
1262.175, 400.2018
1262.657, 401.8711
1263.139, 401.7272
1263.621, 401.7610
1264.104, 402.9798
1264.586, 403.2868
1265.068, 401.8848
1265.550, 400.0336
1266.032, 399.7016
1266.514, 400.1157
1266.996, 400.0279
1267.478, 399.3108
1267.960, 398.9015
1268.443, 398.9821
1268.925, 398.9479
1269.407, 398.5319
1269.889, 398.4020
1270.371, 399.5092
1270.853, 401.2683
1271.335, 403.2719
1271.817, 405.3792
1272.299, 406.7491
1272.782, 407.4304
1273.264, 406.7283
1273.746, 404.1717
1274.228, 401.8104
1274.710, 401.7109
1275.192, 402.5626
1275.674, 403.3946
1276.156, 404.1632
1276.639, 405.0773
1277.121, 406.1339
1277.603, 406.7798
1278.085, 406.9071
1278.567, 406.5163
1279.049, 404.9409
1279.531, 403.5398
1280.013, 403.2962
1280.495, 403.7643
1280.978, 403.9430
1281.460, 403.8303
1281.942, 403.0352
1282.424, 401.4136
1282.906, 401.0987
1283.388, 405.2232
1283.870, 408.3291
1284.352, 407.8877
1284.834, 405.9396
1285.317, 406.5375
1285.799, 408.8847
1286.281, 411.3008
1286.763, 413.5499
1287.245, 413.9613
1287.727, 410.0232
1288.209, 407.2489
1288.691, 406.9571
1289.173, 408.0766
1289.656, 409.4461
1290.138, 411.0070
1290.620, 412.9002
1291.102, 415.0589
1291.584, 416.4805
1292.066, 417.6252
1292.548, 415.9692
1293.030, 410.2219
1293.513, 405.2099
1293.995, 407.4097
1294.477, 412.2661
1294.959, 415.8594
1295.441, 417.6526
1295.923, 417.0578
1296.405, 413.6133
1296.887, 412.2495
1297.370, 413.8788
1297.852, 415.5256
1298.334, 414.6329
1298.816, 412.9782
1299.298, 410.8304
1299.780, 409.0714
1300.262, 410.1438
1300.744, 413.7823
1301.226, 417.0721
1301.708, 419.6622
1302.191, 420.9543
1302.673, 418.6620
1303.155, 417.2308
1303.637, 417.4950
1304.119, 419.2608
##END=



