##NAMES=Tsaregorodtsevite
##RRUFFID=R060033
##IDEAL CHEMISTRY=N(CH_3_)_4_Si_4_(SiAl)O_12_
##LOCALITY=Yaruta, Man-Hambo Mountain Range, North Urals, Russia
##OWNER=RRUFF
##SOURCE=University of Arizona Mineral Museum
##DESCRIPTION=Tan colored pseudo cubo-dodecahedra
##STATUS=The identification of this mineral has been confirmed by X-ray diffraction and chemical analysis
##URL=rruff.info/R060033
##MEASURED CHEMISTRY=N(CH_3_)_4_Si_4.00_(Si_1.00_Al_1.00_)_Î£=2_O_12_
140.4801, 392.1162
140.9623, 391.7296
141.4444, 391.5386
141.9265, 391.2132
142.4086, 390.6635
142.8907, 390.2053
143.3728, 389.8599
143.8550, 389.5931
144.3371, 389.7876
144.8192, 390.8246
145.3013, 392.0279
145.7834, 392.2897
146.2655, 390.9736
146.7477, 389.7818
147.2298, 389.2789
147.7119, 389.8006
148.1940, 390.0926
148.6761, 390.0354
149.1582, 389.7841
149.6404, 389.6809
150.1225, 390.1888
150.6046, 390.3919
151.0867, 389.9068
151.5688, 387.6041
152.0509, 386.2821
152.5331, 386.5898
153.0152, 387.9483
153.4973, 388.6512
153.9794, 388.0804
154.4615, 387.2272
154.9436, 386.5004
155.4258, 386.0594
155.9079, 385.5841
156.3900, 384.9234
156.8721, 384.1488
157.3542, 383.6032
157.8363, 383.7885
158.3185, 383.9606
158.8006, 383.6727
159.2827, 382.2858
159.7648, 381.0003
160.2469, 380.1325
160.7290, 379.6571
161.2112, 379.2857
161.6933, 379.2400
162.1754, 379.1255
162.6575, 378.6136
163.1396, 377.1025
163.6217, 375.6306
164.1039, 374.7482
164.5860, 374.4467
165.0681, 373.9872
165.5502, 372.6256
166.0323, 371.0484
166.5145, 370.0179
166.9966, 370.4920
167.4787, 371.0859
167.9608, 370.9548
168.4429, 370.0374
168.9250, 368.8634
169.4071, 367.8716
169.8893, 366.8161
170.3714, 365.3145
170.8535, 362.5894
171.3356, 359.7089
171.8177, 357.6231
172.2998, 356.4704
172.7820, 355.5674
173.2641, 354.5499
173.7462, 353.3956
174.2283, 352.0563
174.7104, 350.3651
175.1925, 348.5148
175.6747, 346.6483
176.1568, 344.6873
176.6389, 343.0383
177.1210, 342.3599
177.6031, 342.3874
178.0852, 342.2806
178.5674, 341.7682
179.0495, 340.7809
179.5316, 338.9760
180.0137, 336.0104
180.4958, 333.0673
180.9779, 331.7248
181.4601, 331.7304
181.9422, 331.8404
182.4243, 331.1837
182.9064, 330.0745
183.3885, 329.2383
183.8706, 328.8676
184.3528, 328.6243
184.8349, 327.9500
185.3170, 326.8823
185.7991, 325.7738
186.2812, 324.9867
186.7633, 324.3830
187.2455, 323.4404
187.7276, 321.9316
188.2097, 320.2169
188.6918, 319.0555
189.1739, 318.4496
189.6560, 317.7563
190.1382, 316.2856
190.6203, 314.1982
191.1024, 312.4924
191.5845, 311.4039
192.0666, 310.7725
192.5487, 310.2864
193.0309, 309.9693
193.5130, 309.6346
193.9951, 309.2265
194.4772, 308.7325
194.9593, 307.8116
195.4414, 306.1886
195.9236, 304.1852
196.4057, 303.0230
196.8878, 302.8121
197.3699, 302.7750
197.8520, 302.1321
198.3341, 300.8454
198.8163, 299.8191
199.2984, 299.1998
199.7805, 298.9745
200.2626, 299.3218
200.7447, 300.4441
201.2268, 301.3624
201.7090, 300.8369
202.1911, 298.6616
202.6732, 297.0512
203.1553, 296.6948
203.6374, 297.3643
204.1195, 297.5868
204.6017, 297.3046
205.0838, 296.7412
205.5659, 296.0724
206.0480, 295.2800
206.5301, 294.4831
207.0122, 293.6940
207.4944, 292.9174
207.9765, 292.2204
208.4586, 291.5545
208.9407, 291.0630
209.4228, 291.0477
209.9049, 291.7422
210.3871, 291.9341
210.8692, 291.0249
211.3513, 289.1060
211.8334, 288.5060
212.3155, 289.7650
212.7976, 291.4566
213.2798, 291.9604
213.7619, 290.9055
214.2440, 289.7961
214.7261, 288.9254
215.2082, 288.3012
215.6903, 287.9666
216.1725, 288.1006
216.6546, 288.2802
217.1367, 287.9053
217.6188, 286.5628
218.1009, 285.7586
218.5830, 286.0629
219.0651, 287.5729
219.5473, 288.3396
220.0294, 288.1847
220.5115, 287.5168
220.9936, 286.7338
221.4757, 285.6689
221.9578, 284.8665
222.4400, 284.5922
222.9221, 284.9275
223.4042, 284.6245
223.8863, 283.2904
224.3684, 281.7407
224.8505, 280.9451
225.3327, 281.2739
225.8148, 281.5987
226.2969, 281.6883
226.7790, 281.5400
227.2611, 281.1985
227.7432, 280.5075
228.2254, 279.7846
228.7075, 279.3900
229.1896, 279.3995
229.6717, 279.6114
230.1538, 280.1844
230.6359, 281.2325
231.1181, 281.2524
231.6002, 279.5512
232.0823, 277.4768
232.5644, 276.5721
233.0465, 277.2945
233.5286, 278.3177
234.0108, 279.4814
234.4929, 280.8444
234.9750, 281.7016
235.4571, 281.8358
235.9392, 281.6582
236.4213, 281.5902
236.9035, 281.6481
237.3856, 281.7889
237.8677, 281.9994
238.3498, 282.2808
238.8319, 282.6821
239.3140, 283.2598
239.7962, 283.9094
240.2783, 284.5429
240.7604, 285.2015
241.2425, 285.7728
241.7246, 286.2577
242.2067, 286.6665
242.6889, 286.8197
243.1710, 286.4685
243.6531, 286.0972
244.1352, 286.1891
244.6173, 286.8989
245.0994, 287.7864
245.5816, 288.9092
246.0637, 290.2796
246.5458, 291.1151
247.0279, 291.3255
247.5100, 291.0929
247.9921, 290.5078
248.4743, 289.2172
248.9564, 288.2986
249.4385, 288.0938
249.9206, 288.5812
250.4027, 288.6183
250.8848, 288.0375
251.3670, 287.1983
251.8491, 286.4534
252.3312, 285.9966
252.8133, 285.1641
253.2954, 283.5809
253.7775, 281.3407
254.2597, 280.1307
254.7418, 280.5763
255.2239, 281.2521
255.7060, 280.9292
256.1881, 278.9884
256.6702, 277.5238
257.1523, 276.9373
257.6345, 277.1178
258.1166, 277.1250
258.5987, 276.9464
259.0808, 276.6152
259.5629, 276.1830
260.0450, 275.7543
260.5272, 274.9166
261.0093, 273.3799
261.4914, 271.3664
261.9735, 270.2324
262.4556, 270.4019
262.9377, 270.7282
263.4199, 270.3994
263.9020, 269.1679
264.3841, 268.0958
264.8662, 267.3107
265.3483, 266.7488
265.8304, 266.0407
266.3126, 264.9507
266.7947, 264.2389
267.2768, 264.6625
267.7589, 266.8315
268.2410, 267.6856
268.7231, 266.5035
269.2053, 264.1547
269.6874, 263.3004
270.1695, 264.4160
270.6516, 265.7423
271.1337, 266.2943
271.6158, 265.9064
272.0980, 265.6046
272.5801, 265.4515
273.0622, 265.3774
273.5443, 265.2596
274.0264, 265.1172
274.5085, 264.8344
274.9907, 264.2175
275.4728, 263.1676
275.9549, 262.6705
276.4370, 262.9225
276.9191, 263.4906
277.4012, 263.4966
277.8834, 262.8159
278.3655, 262.2837
278.8476, 262.3498
279.3297, 263.0445
279.8118, 263.6397
280.2939, 264.1861
280.7761, 264.5406
281.2582, 264.4330
281.7403, 263.8390
282.2224, 263.0953
282.7045, 262.1500
283.1866, 261.0648
283.6688, 260.6893
284.1509, 261.1553
284.6330, 261.9012
285.1151, 262.2792
285.5972, 262.2862
286.0793, 262.1473
286.5615, 261.9031
287.0436, 261.5669
287.5257, 261.0843
288.0078, 260.3778
288.4899, 259.9475
288.9720, 260.4824
289.4542, 261.8939
289.9363, 263.2672
290.4184, 264.4275
290.9005, 265.3289
291.3826, 265.7674
291.8647, 265.7208
292.3469, 265.6001
292.8290, 265.8395
293.3111, 266.3444
293.7932, 266.6603
294.2753, 266.5762
294.7574, 266.3493
295.2396, 266.4642
295.7217, 266.9124
296.2038, 267.5710
296.6859, 268.6975
297.1680, 269.9792
297.6501, 270.4231
298.1323, 269.5126
298.6144, 268.2978
299.0965, 268.4948
299.5786, 269.9041
300.0607, 271.1817
300.5428, 271.3531
301.0250, 270.8439
301.5071, 270.3887
301.9892, 270.0417
302.4713, 269.9040
302.9534, 270.0797
303.4355, 270.5509
303.9177, 271.2757
304.3998, 272.6715
304.8819, 274.1236
305.3640, 274.6359
305.8461, 273.9898
306.3282, 273.2364
306.8104, 273.4572
307.2925, 274.2628
307.7746, 274.8387
308.2567, 274.2839
308.7388, 273.6397
309.2209, 274.0511
309.7031, 275.6205
310.1852, 277.1779
310.6673, 277.8456
311.1494, 278.0237
311.6315, 278.2857
312.1136, 279.0379
312.5958, 279.8072
313.0779, 280.2454
313.5600, 280.3669
314.0421, 280.4604
314.5242, 280.4796
315.0063, 280.6212
315.4885, 281.0806
315.9706, 282.0333
316.4527, 283.1920
316.9348, 284.4243
317.4169, 285.7494
317.8990, 287.2608
318.3812, 289.5158
318.8633, 291.6656
319.3454, 293.0587
319.8275, 293.1160
320.3096, 293.1148
320.7917, 293.4500
321.2739, 294.0289
321.7560, 294.6095
322.2381, 294.5346
322.7202, 294.9160
323.2023, 296.5319
323.6844, 300.4103
324.1666, 303.2500
324.6487, 303.5445
325.1308, 302.6080
325.6129, 302.4818
326.0950, 303.8387
326.5771, 305.6535
327.0593, 307.7641
327.5414, 310.3062
328.0235, 312.5145
328.5056, 314.1381
328.9877, 315.4762
329.4698, 316.8213
329.9520, 318.4748
330.4341, 319.7845
330.9162, 320.4757
331.3983, 320.5184
331.8804, 320.9706
332.3625, 322.3105
332.8447, 323.6487
333.3268, 324.2905
333.8089, 323.7018
334.2910, 323.3958
334.7731, 323.5952
335.2552, 324.2198
335.7374, 324.8662
336.2195, 325.6989
336.7016, 326.2972
337.1837, 326.4024
337.6658, 325.9084
338.1479, 325.2877
338.6301, 324.6622
339.1122, 323.8514
339.5943, 322.3143
340.0764, 319.8306
340.5585, 317.3724
341.0406, 315.5647
341.5227, 314.4593
342.0049, 312.7052
342.4870, 310.0916
342.9691, 307.2374
343.4512, 305.1554
343.9333, 303.8838
344.4154, 302.5362
344.8976, 300.6968
345.3797, 298.5189
345.8618, 296.8473
346.3439, 295.6803
346.8260, 294.9431
347.3081, 294.6260
347.7903, 294.7003
348.2724, 294.9485
348.7545, 295.3206
349.2366, 295.8344
349.7187, 296.3269
350.2008, 296.8434
350.6830, 297.9894
351.1651, 300.4002
351.6472, 303.7705
352.1293, 307.4252
352.6114, 311.3138
353.0935, 315.1896
353.5757, 318.6974
354.0578, 321.9381
354.5399, 325.3131
355.0220, 329.0949
355.5041, 333.1225
355.9862, 337.0402
356.4684, 340.7124
356.9505, 344.8032
357.4326, 349.9046
357.9147, 355.7444
358.3968, 361.8575
358.8789, 368.2589
359.3611, 374.7807
359.8432, 381.2318
360.3253, 387.6535
360.8074, 394.3695
361.2895, 401.0981
361.7716, 408.4650
362.2538, 417.0565
362.7359, 427.5378
363.2180, 438.7131
363.7001, 450.2130
364.1822, 462.1259
364.6643, 474.4824
365.1465, 487.4428
365.6286, 500.8673
366.1107, 514.7800
366.5928, 529.7194
367.0749, 544.1683
367.5570, 559.3557
368.0392, 573.7903
368.5213, 584.9352
369.0034, 592.0650
369.4855, 596.1708
369.9676, 597.4436
370.4497, 595.8889
370.9319, 591.5070
371.4140, 583.7586
371.8961, 573.4469
372.3782, 561.1897
372.8603, 545.4029
373.3424, 530.5195
373.8246, 517.5540
374.3067, 506.3083
374.7888, 494.2724
375.2709, 481.6383
375.7530, 467.8913
376.2351, 452.1070
376.7173, 433.6221
377.1994, 416.2860
377.6815, 400.2321
378.1636, 385.3797
378.6457, 371.6193
379.1278, 358.6875
379.6100, 347.6618
380.0921, 339.4448
380.5742, 333.9595
381.0563, 328.1320
381.5384, 321.8350
382.0205, 315.7189
382.5027, 310.5552
382.9848, 306.2984
383.4669, 303.0547
383.9490, 301.2230
384.4311, 300.1869
384.9132, 298.3443
385.3954, 295.7367
385.8775, 293.3412
386.3596, 292.1520
386.8417, 291.7638
387.3238, 291.3448
387.8059, 290.7726
388.2881, 290.0165
388.7702, 288.8080
389.2523, 287.3372
389.7344, 286.1925
390.2165, 285.8868
390.6986, 285.9428
391.1808, 285.9174
391.6629, 285.7619
392.1450, 285.5688
392.6271, 285.3624
393.1092, 285.1667
393.5913, 285.0151
394.0735, 285.0518
394.5556, 285.0198
395.0377, 284.6033
395.5198, 283.8775
396.0019, 283.6180
396.4840, 284.3863
396.9662, 285.5182
397.4483, 286.5930
397.9304, 287.7359
398.4125, 288.5499
398.8946, 288.6312
399.3767, 288.3282
399.8589, 288.5044
400.3410, 289.9120
400.8231, 291.1426
401.3052, 291.6436
401.7873, 291.0571
402.2694, 291.1432
402.7516, 292.3479
403.2337, 293.8900
403.7158, 294.8379
404.1979, 294.7466
404.6800, 295.0276
405.1621, 296.0156
405.6443, 297.6290
406.1264, 299.2286
406.6085, 300.8398
407.0906, 302.4085
407.5727, 303.9589
408.0548, 305.5165
408.5370, 306.6631
409.0191, 307.1605
409.5012, 307.5398
409.9833, 308.8558
410.4654, 311.0981
410.9475, 313.4147
411.4297, 315.3625
411.9118, 317.0494
412.3939, 318.6855
412.8760, 320.2063
413.3581, 322.1328
413.8402, 325.5985
414.3224, 329.8641
414.8045, 333.0324
415.2866, 333.7877
415.7687, 334.1449
416.2508, 336.4483
416.7329, 340.4461
417.2151, 345.0157
417.6972, 349.6851
418.1793, 354.5257
418.6614, 359.6712
419.1435, 365.0854
419.6256, 370.8226
420.1078, 376.6615
420.5899, 382.8521
421.0720, 389.9775
421.5541, 398.6047
422.0362, 407.7567
422.5183, 417.0355
423.0005, 426.3639
423.4826, 436.4962
423.9647, 448.2641
424.4468, 460.4649
424.9289, 472.0752
425.4110, 481.9337
425.8932, 492.6107
426.3753, 503.7530
426.8574, 515.6846
427.3395, 529.5154
427.8216, 546.0604
428.3037, 563.2513
428.7859, 580.1923
429.2680, 596.5693
429.7501, 614.9338
430.2322, 635.7604
430.7143, 657.8261
431.1964, 679.3102
431.6786, 699.8093
432.1607, 721.9059
432.6428, 746.4611
433.1249, 772.7487
433.6070, 798.6149
434.0891, 824.0707
434.5713, 849.1097
435.0534, 874.4891
435.5355, 899.5900
436.0176, 922.3743
436.4997, 942.8711
436.9818, 959.9642
437.4640, 973.1983
437.9461, 982.2881
438.4282, 986.2911
438.9103, 984.8024
439.3924, 978.0426
439.8745, 965.2401
440.3566, 946.8447
440.8387, 925.7250
441.3209, 903.0696
441.8030, 878.9849
442.2851, 853.0915
442.7672, 823.8704
443.2493, 795.9964
443.7314, 772.0057
444.2136, 751.1207
444.6957, 732.4967
445.1778, 716.2418
445.6599, 701.6054
446.1420, 688.1146
446.6241, 675.6133
447.1063, 665.3875
447.5884, 658.7688
448.0705, 653.6901
448.5526, 648.6852
449.0347, 643.3867
449.5168, 638.5770
449.9990, 634.4128
450.4811, 630.7080
450.9632, 626.9271
451.4453, 622.6594
451.9274, 619.0792
452.4095, 617.0528
452.8917, 616.8728
453.3738, 614.8284
453.8559, 610.5000
454.3380, 605.3713
454.8201, 601.1043
455.3022, 597.7484
455.7844, 594.1574
456.2665, 590.2449
456.7486, 585.8386
457.2307, 580.1571
457.7128, 573.3411
458.1949, 566.5626
458.6771, 560.4178
459.1592, 554.8987
459.6413, 550.2751
460.1234, 546.6287
460.6055, 543.2803
461.0876, 539.3320
461.5698, 535.2855
462.0519, 531.9838
462.5340, 530.3889
463.0161, 528.9969
463.4982, 527.4711
463.9803, 525.5010
464.4625, 521.7979
464.9446, 514.4413
465.4267, 506.1217
465.9088, 498.7028
466.3909, 493.2213
466.8730, 486.1900
467.3552, 476.3406
467.8373, 464.7635
468.3194, 452.8253
468.8015, 440.1629
469.2836, 427.6458
469.7657, 415.3641
470.2479, 403.2370
470.7300, 391.4950
471.2121, 379.8561
471.6942, 369.0345
472.1763, 359.4380
472.6584, 351.2935
473.1406, 343.8134
473.6227, 337.0621
474.1048, 330.9362
474.5869, 325.3437
475.0690, 320.2911
475.5511, 315.5591
476.0333, 310.9712
476.5154, 306.7297
476.9975, 303.3325
477.4796, 300.7595
477.9617, 298.5469
478.4438, 296.4635
478.9260, 294.4800
479.4081, 292.5160
479.8902, 290.5239
480.3723, 288.6763
480.8544, 287.0957
481.3365, 285.7414
481.8187, 284.5454
482.3008, 283.4102
482.7829, 282.4834
483.2650, 282.0290
483.7471, 281.9523
484.2292, 281.5755
484.7114, 280.4747
485.1935, 279.1401
485.6756, 277.8221
486.1577, 276.3298
486.6398, 275.2899
487.1219, 275.1816
487.6041, 275.4002
488.0862, 275.1451
488.5683, 273.9655
489.0504, 273.0801
489.5325, 272.9494
490.0146, 273.4006
490.4968, 272.8612
490.9789, 270.8398
491.4610, 269.1252
491.9431, 269.1674
492.4252, 271.0086
492.9073, 272.0753
493.3895, 272.1980
493.8716, 271.6580
494.3537, 270.5108
494.8358, 268.9123
495.3179, 267.7147
495.8000, 267.3946
496.2822, 267.5014
496.7643, 267.4322
497.2464, 267.1898
497.7285, 266.7898
498.2106, 265.9667
498.6927, 265.1311
499.1749, 264.8149
499.6570, 265.2189
500.1391, 265.4457
500.6212, 264.4769
501.1033, 263.2425
501.5854, 262.8276
502.0676, 264.8020
502.5497, 266.2863
503.0318, 266.3225
503.5139, 265.1314
503.9960, 264.0306
504.4781, 263.0125
504.9603, 262.1836
505.4424, 261.5332
505.9245, 260.9640
506.4066, 261.0784
506.8887, 262.3449
507.3708, 263.7096
507.8530, 263.9073
508.3351, 262.6810
508.8172, 261.7239
509.2993, 261.2952
509.7814, 261.3488
510.2635, 262.0143
510.7457, 263.2841
511.2278, 264.2564
511.7099, 264.2338
512.1920, 263.5723
512.6741, 263.0842
513.1563, 262.7895
513.6384, 262.6406
514.1205, 262.6761
514.6026, 262.8095
515.0847, 262.9084
515.5668, 262.9003
516.0490, 262.9245
516.5311, 263.1767
517.0132, 263.5200
517.4953, 263.6755
517.9774, 263.6093
518.4595, 263.2824
518.9417, 262.3748
519.4238, 260.8185
519.9059, 260.1533
520.3880, 261.5798
520.8701, 263.1397
521.3522, 263.7509
521.8344, 262.8182
522.3165, 262.1512
522.7986, 261.8422
523.2807, 261.7316
523.7628, 261.4967
524.2449, 261.0443
524.7271, 260.9888
525.2092, 261.7209
525.6913, 262.9114
526.1734, 263.2792
526.6555, 262.8104
527.1376, 262.2659
527.6198, 262.1753
528.1019, 262.4143
528.5840, 262.7896
529.0661, 263.3201
529.5482, 263.6626
530.0303, 263.2357
530.5125, 262.4718
530.9946, 262.0255
531.4767, 262.0589
531.9588, 262.5454
532.4409, 264.1045
532.9230, 266.1802
533.4052, 267.2086
533.8873, 265.7368
534.3694, 263.9438
534.8515, 262.6980
535.3336, 262.1043
535.8157, 261.7198
536.2979, 261.4861
536.7800, 261.4834
537.2621, 261.8787
537.7442, 263.1087
538.2263, 263.5238
538.7084, 262.7437
539.1906, 261.3798
539.6727, 260.6000
540.1548, 260.4198
540.6369, 260.5232
541.1190, 260.8609
541.6011, 261.3782
542.0833, 262.0343
542.5654, 262.8098
543.0475, 263.2929
543.5296, 262.7658
544.0117, 261.8825
544.4938, 261.7972
544.9760, 262.7661
545.4581, 263.7322
545.9402, 263.7741
546.4223, 263.3870
546.9044, 263.2054
547.3865, 263.6001
547.8687, 264.0519
548.3508, 264.3961
548.8329, 264.6635
549.3150, 264.9571
549.7971, 265.3806
550.2792, 265.7484
550.7614, 265.9946
551.2435, 266.1095
551.7256, 266.2767
552.2077, 266.6467
552.6898, 266.8537
553.1719, 266.5302
553.6541, 265.5920
554.1362, 264.7873
554.6183, 264.1218
555.1004, 263.7345
555.5825, 264.0023
556.0646, 264.8294
556.5468, 265.5764
557.0289, 265.8138
557.5110, 266.0029
557.9931, 267.0916
558.4752, 268.8851
558.9573, 270.3473
559.4395, 270.5591
559.9216, 270.3613
560.4037, 270.5567
560.8858, 271.3029
561.3679, 271.7806
561.8500, 271.2989
562.3322, 270.5941
562.8143, 270.3003
563.2964, 271.0970
563.7785, 271.5914
564.2606, 271.4945
564.7427, 271.1065
565.2249, 271.0008
565.7070, 271.2116
566.1891, 271.6543
566.6712, 272.4563
567.1533, 273.4907
567.6354, 273.9220
568.1176, 273.6684
568.5997, 273.3151
569.0818, 273.2339
569.5639, 273.3849
570.0460, 273.6459
570.5281, 274.0208
571.0103, 274.3710
571.4924, 274.5396
571.9745, 274.5903
572.4566, 274.6163
572.9387, 274.5335
573.4208, 274.6151
573.9030, 275.3191
574.3851, 276.3101
574.8672, 276.8583
575.3493, 276.1537
575.8314, 275.5122
576.3135, 275.4794
576.7957, 276.0738
577.2778, 276.5622
577.7599, 276.9118
578.2420, 277.1609
578.7241, 277.2188
579.2062, 276.8652
579.6884, 277.3878
580.1705, 279.2067
580.6526, 281.0875
581.1347, 281.3047
581.6168, 279.9304
582.0989, 278.9734
582.5811, 278.9435
583.0632, 279.3737
583.5453, 279.4940
584.0274, 279.4208
584.5095, 279.5737
584.9916, 280.3498
585.4738, 281.3221
585.9559, 282.1810
586.4380, 282.8983
586.9201, 283.3874
587.4022, 283.6236
587.8843, 283.6073
588.3664, 283.1849
588.8485, 281.9718
589.3306, 281.5194
589.8127, 282.7568
590.2949, 284.3817
590.7770, 285.2182
591.2591, 284.8256
591.7412, 284.7311
592.2233, 285.3075
592.7054, 286.0733
593.1876, 285.7851
593.6697, 284.3396
594.1518, 283.1754
594.6339, 282.8956
595.1160, 283.2559
595.5981, 283.7866
596.0803, 284.4703
596.5624, 285.1314
597.0445, 285.8471
597.5266, 286.3796
598.0087, 286.2103
598.4908, 285.2290
598.9730, 284.5940
599.4551, 285.6483
599.9372, 286.9753
600.4193, 287.1978
600.9014, 284.6738
601.3835, 283.0461
601.8657, 283.5205
602.3478, 284.9938
602.8299, 285.8707
603.3120, 285.9609
603.7941, 285.8261
604.2762, 285.5791
604.7584, 285.1996
605.2405, 284.4464
605.7226, 283.2227
606.2047, 282.3181
606.6868, 282.3294
607.1689, 282.9872
607.6511, 283.4601
608.1332, 283.7465
608.6153, 283.7340
609.0974, 282.9046
609.5795, 281.8905
610.0616, 281.7183
610.5438, 282.8907
611.0259, 283.6935
611.5080, 282.6960
611.9901, 280.9896
612.4722, 279.8585
612.9543, 279.9927
613.4365, 280.2794
613.9186, 280.7740
614.4007, 281.2719
614.8828, 281.2098
615.3649, 280.1617
615.8470, 279.4608
616.3292, 279.7223
616.8113, 280.7146
617.2934, 280.5899
617.7755, 279.1836
618.2576, 277.9954
618.7397, 278.3252
619.2219, 279.6299
619.7040, 280.4212
620.1861, 280.5943
620.6682, 280.5039
621.1503, 280.3145
621.6324, 280.0962
622.1146, 279.9584
622.5967, 280.0288
623.0788, 279.9633
623.5609, 279.4396
624.0430, 278.7457
624.5251, 278.2916
625.0073, 278.2794
625.4894, 278.3633
625.9715, 278.4564
626.4536, 278.6104
626.9357, 279.0987
627.4178, 280.1759
627.9000, 280.8525
628.3821, 280.5621
628.8642, 279.5016
629.3463, 278.9516
629.8284, 278.9129
630.3105, 279.1946
630.7927, 280.1680
631.2748, 281.2290
631.7569, 280.9737
632.2390, 279.1744
632.7211, 277.4109
633.2032, 277.0080
633.6854, 277.2130
634.1675, 277.2192
634.6496, 276.6611
635.1317, 276.2142
635.6138, 276.1124
636.0959, 276.2194
636.5781, 276.3363
637.0602, 276.6534
637.5423, 276.6389
638.0244, 276.0111
638.5065, 275.0692
638.9886, 274.8235
639.4708, 275.3846
639.9529, 275.9079
640.4350, 275.9347
640.9171, 275.6530
641.3992, 275.6901
641.8813, 276.0234
642.3635, 276.4059
642.8456, 276.7466
643.3277, 276.9882
643.8098, 276.9459
644.2919, 276.5600
644.7740, 276.4406
645.2562, 277.1628
645.7383, 278.1401
646.2204, 278.8981
646.7025, 279.5165
647.1846, 279.6393
647.6667, 278.7765
648.1489, 277.7319
648.6310, 277.6385
649.1131, 278.9296
649.5952, 279.6632
650.0773, 279.3335
650.5594, 278.4799
651.0416, 278.4482
651.5237, 279.1583
652.0058, 279.4845
652.4879, 278.5809
652.9700, 277.2603
653.4521, 276.8089
653.9343, 277.0654
654.4164, 277.2854
654.8985, 277.0363
655.3806, 276.6097
655.8627, 276.0689
656.3448, 275.3924
656.8270, 275.1542
657.3091, 276.2905
657.7912, 277.2393
658.2733, 276.9486
658.7554, 274.6302
659.2375, 273.5874
659.7197, 274.1701
660.2018, 275.4258
660.6839, 276.5518
661.1660, 277.5341
661.6481, 277.8309
662.1302, 277.2265
662.6124, 276.2903
663.0945, 275.6618
663.5766, 275.3153
664.0587, 275.2051
664.5408, 275.5734
665.0229, 275.8669
665.5051, 275.6639
665.9872, 275.0954
666.4693, 274.4829
666.9514, 273.5022
667.4335, 272.9273
667.9156, 273.3369
668.3978, 274.5439
668.8799, 275.1067
669.3620, 274.7702
669.8441, 274.2857
670.3262, 273.9287
670.8083, 273.7051
671.2905, 273.7141
671.7726, 273.9557
672.2547, 274.4385
672.7368, 275.4250
673.2189, 276.5955
673.7010, 277.2154
674.1832, 277.1610
674.6653, 276.9707
675.1474, 277.0448
675.6295, 277.1847
676.1116, 277.1565
676.5938, 276.7299
677.0759, 276.4436
677.5580, 276.4731
678.0401, 276.6766
678.5222, 276.8989
679.0043, 277.2975
679.4865, 277.3232
679.9686, 276.6955
680.4507, 275.8416
680.9328, 275.7887
681.4149, 276.5356
681.8970, 277.2084
682.3792, 277.5061
682.8613, 277.5229
683.3434, 277.3134
683.8255, 276.9449
684.3076, 276.6602
684.7897, 276.7244
685.2719, 276.8249
685.7540, 276.5822
686.2361, 276.0425
686.7182, 275.9765
687.2003, 277.2378
687.6824, 278.4274
688.1646, 278.8404
688.6467, 278.3255
689.1288, 278.1099
689.6109, 278.3026
690.0930, 278.5545
690.5751, 278.3828
691.0573, 277.8683
691.5394, 278.3825
692.0215, 280.1450
692.5036, 281.9350
692.9857, 282.3616
693.4678, 281.9386
693.9500, 281.5356
694.4321, 281.3529
694.9142, 281.2097
695.3963, 280.8727
695.8784, 280.5587
696.3605, 280.5494
696.8427, 281.2086
697.3248, 281.8034
697.8069, 282.3725
698.2890, 282.7897
698.7711, 282.6989
699.2532, 281.9113
699.7354, 281.4223
700.2175, 281.6161
700.6996, 282.1503
701.1817, 281.9971
701.6638, 281.2945
702.1459, 280.9770
702.6281, 281.9518
703.1102, 283.2806
703.5923, 284.0399
704.0744, 284.2694
704.5565, 284.2121
705.0386, 283.7320
705.5208, 283.1992
706.0029, 282.6211
706.4850, 281.9644
706.9671, 282.1651
707.4492, 283.8517
707.9313, 285.4678
708.4135, 286.0750
708.8956, 285.5992
709.3777, 285.4401
709.8598, 285.6248
710.3419, 285.9301
710.8240, 286.1892
711.3062, 286.4116
711.7883, 286.5201
712.2704, 286.4550
712.7525, 286.7337
713.2346, 288.3663
713.7167, 290.2414
714.1989, 291.1505
714.6810, 290.2510
715.1631, 289.4326
715.6452, 288.8935
716.1273, 288.6691
716.6094, 288.8347
717.0916, 289.4936
717.5737, 290.2593
718.0558, 291.1443
718.5379, 292.0318
719.0200, 292.6010
719.5021, 292.9214
719.9843, 293.5291
720.4664, 294.5731
720.9485, 295.9938
721.4306, 297.9931
721.9127, 300.3141
722.3948, 302.2781
722.8770, 303.2820
723.3591, 304.2303
723.8412, 305.2925
724.3233, 306.5643
724.8054, 308.4114
725.2875, 311.3481
725.7697, 313.9947
726.2518, 315.6997
726.7339, 316.7556
727.2160, 318.9348
727.6981, 322.2946
728.1802, 325.9240
728.6624, 329.3801
729.1445, 332.7616
729.6266, 336.2271
730.1087, 339.7801
730.5908, 343.6537
731.0729, 348.5509
731.5551, 353.4475
732.0372, 357.4293
732.5193, 360.3420
733.0014, 363.6902
733.4835, 368.2289
733.9656, 372.9135
734.4478, 377.3629
734.9299, 381.7207
735.4120, 385.0186
735.8941, 387.1922
736.3762, 388.5325
736.8583, 389.0931
737.3405, 389.0079
737.8226, 388.7280
738.3047, 388.2783
738.7868, 387.8091
739.2689, 387.6733
739.7510, 387.4745
740.2332, 386.6808
740.7153, 384.8859
741.1974, 383.2776
741.6795, 382.0831
742.1616, 381.3136
742.6437, 381.0263
743.1259, 381.5520
743.6080, 381.6115
744.0901, 380.8188
744.5722, 380.0807
745.0543, 380.6374
745.5364, 382.4481
746.0186, 384.9872
746.5007, 388.1861
746.9828, 392.0290
747.4649, 396.3132
747.9470, 401.2579
748.4291, 407.3138
748.9113, 414.6866
749.3934, 423.1833
749.8755, 432.2571
750.3576, 442.5279
750.8397, 455.0543
751.3218, 469.2229
751.8040, 486.5150
752.2861, 507.5733
752.7682, 531.5570
753.2503, 557.5949
753.7324, 585.2216
754.2145, 613.5010
754.6967, 641.5520
755.1788, 670.2585
755.6609, 700.0126
756.1430, 731.1776
756.6251, 763.9861
757.1072, 796.0505
757.5894, 832.2062
758.0715, 874.9601
758.5536, 923.7720
759.0357, 977.7494
759.5178, 1035.827
759.9999, 1099.539
760.4821, 1169.536
760.9642, 1245.118
761.4463, 1323.221
761.9284, 1403.842
762.4105, 1486.608
762.8926, 1574.477
763.3748, 1663.635
763.8569, 1751.179
764.3390, 1836.571
764.8211, 1910.771
765.3032, 1980.559
765.7853, 2028.648
766.2675, 2049.038
766.7496, 2040.460
767.2317, 1993.998
767.7138, 1903.504
768.1959, 1785.989
768.6780, 1644.532
769.1602, 1480.689
769.6423, 1319.807
770.1244, 1161.197
770.6065, 1014.864
771.0886, 885.6904
771.5707, 774.0447
772.0529, 682.1588
772.5350, 609.6227
773.0171, 550.4090
773.4992, 504.4625
773.9813, 467.9751
774.4634, 439.6266
774.9456, 420.0907
775.4277, 403.4062
775.9098, 389.6512
776.3919, 378.0399
776.8740, 368.1740
777.3561, 360.1455
777.8383, 353.3002
778.3204, 347.6937
778.8025, 342.7699
779.2846, 337.9951
779.7667, 333.6158
780.2488, 330.2422
780.7310, 327.9032
781.2131, 325.8578
781.6952, 323.7946
782.1773, 321.7705
782.6594, 319.9170
783.1415, 318.4450
783.6237, 316.1968
784.1058, 312.3970
784.5879, 308.9572
785.0699, 307.5267
785.5521, 308.0852
786.0342, 308.2216
786.5163, 307.8602
786.9984, 307.1948
787.4805, 306.1963
787.9626, 305.0941
788.4448, 304.1911
788.9269, 303.5342
789.4090, 303.0296
789.8911, 302.7624
790.3732, 302.5414
790.8553, 302.1924
791.3375, 301.6009
791.8196, 301.2329
792.3017, 301.2055
792.7838, 301.1797
793.2659, 300.7376
793.7480, 299.9448
794.2302, 299.7095
794.7123, 300.1502
795.1944, 300.5218
795.6765, 299.9046
796.1586, 298.9340
796.6407, 298.5169
797.1229, 298.9711
797.6050, 299.0923
798.0871, 297.9164
798.5692, 296.6209
799.0513, 296.1393
799.5334, 296.7600
800.0156, 297.3545
800.4977, 297.9819
800.9798, 298.4482
801.4619, 298.4593
801.9440, 298.1192
802.4261, 297.9045
802.9083, 297.8622
803.3904, 297.9130
803.8725, 298.1162
804.3546, 298.3042
804.8367, 298.2278
805.3188, 297.6872
805.8010, 297.4605
806.2831, 298.1251
806.7652, 298.8489
807.2473, 299.0556
807.7294, 298.6259
808.2115, 298.1630
808.6937, 297.5929
809.1758, 297.3163
809.6579, 298.0787
810.1400, 299.3974
810.6221, 299.9862
811.1042, 299.6738
811.5864, 299.1425
812.0685, 298.5599
812.5506, 298.1518
813.0327, 298.1257
813.5148, 298.5942
813.9969, 299.2229
814.4791, 300.2095
814.9612, 301.0695
815.4433, 301.4060
815.9254, 301.1971
816.4075, 301.0411
816.8896, 300.9598
817.3718, 300.8439
817.8539, 300.5588
818.3360, 300.1888
818.8181, 299.8140
819.3002, 299.4330
819.7823, 299.2337
820.2645, 299.5990
820.7466, 299.9580
821.2287, 299.8417
821.7108, 299.1021
822.1929, 298.6240
822.6750, 298.3880
823.1572, 298.4403
823.6393, 299.0190
824.1214, 299.9651
824.6035, 300.2971
825.0856, 299.9845
825.5677, 299.7395
826.0499, 300.4932
826.5320, 301.3226
827.0141, 301.1026
827.4962, 299.6287
827.9783, 298.8973
828.4604, 300.2165
828.9426, 301.5971
829.4247, 302.1370
829.9068, 301.8182
830.3889, 301.6123
830.8710, 301.5666
831.3531, 301.3026
831.8353, 300.3027
832.3174, 298.9915
832.7995, 298.2372
833.2816, 298.0294
833.7637, 298.0051
834.2458, 298.0428
834.7280, 298.1343
835.2101, 298.2007
835.6922, 298.2466
836.1743, 298.7601
836.6564, 300.2162
837.1385, 301.1848
837.6207, 300.7740
838.1028, 299.3936
838.5849, 299.0974
839.0670, 299.7935
839.5491, 300.2912
840.0313, 299.2927
840.5134, 298.1906
840.9955, 298.6125
841.4776, 300.2271
841.9597, 301.3381
842.4418, 301.1407
842.9240, 300.6633
843.4061, 300.0974
843.8882, 299.5033
844.3703, 299.1237
844.8524, 298.9529
845.3345, 299.0611
845.8167, 299.5919
846.2988, 300.2941
846.7809, 300.7241
847.2630, 300.9447
847.7451, 301.1394
848.2272, 301.6470
848.7094, 301.8857
849.1915, 301.3302
849.6736, 300.3276
850.1557, 299.8163
850.6378, 299.9828
851.1199, 300.2834
851.6021, 300.6714
852.0842, 301.0717
852.5663, 301.2629
853.0484, 301.2975
853.5305, 301.4634
854.0126, 301.8951
854.4948, 302.3898
854.9769, 302.8830
855.4590, 303.2765
855.9411, 303.4225
856.4232, 303.1212
856.9053, 302.7277
857.3875, 301.9303
857.8696, 301.3521
858.3517, 302.0897
858.8338, 304.2330
859.3159, 305.5759
859.7980, 305.7301
860.2802, 305.3559
860.7623, 304.9892
861.2444, 304.6789
861.7265, 304.5360
862.2086, 304.6874
862.6907, 304.6919
863.1729, 304.1581
863.6550, 303.5742
864.1371, 303.3382
864.6192, 303.4974
865.1013, 303.8398
865.5834, 304.3888
866.0656, 305.0364
866.5477, 305.7457
867.0298, 306.4655
867.5119, 307.1566
867.9940, 307.8011
868.4761, 308.1465
868.9583, 307.7896
869.4404, 307.2580
869.9225, 306.9913
870.4046, 307.1075
870.8867, 306.7079
871.3688, 305.3046
871.8510, 304.3522
872.3331, 304.8760
872.8152, 306.5283
873.2973, 307.4185
873.7794, 307.5932
874.2615, 307.6481
874.7437, 308.1871
875.2258, 308.5886
875.7079, 307.9670
876.1900, 306.6017
876.6721, 306.0400
877.1542, 307.2636
877.6364, 308.5981
878.1185, 309.8151
878.6006, 310.8179
879.0827, 311.1242
879.5648, 310.7359
880.0469, 310.3016
880.5291, 309.9430
881.0112, 309.8235
881.4933, 310.3595
881.9754, 311.2670
882.4575, 311.9624
882.9396, 312.0282
883.4218, 312.0986
883.9039, 312.1118
884.3860, 312.3162
884.8681, 313.2339
885.3502, 315.0682
885.8323, 316.2964
886.3145, 316.6094
886.7966, 316.6049
887.2787, 316.9174
887.7608, 317.4963
888.2429, 318.3383
888.7250, 319.6014
889.2072, 320.5507
889.6893, 320.3869
890.1714, 320.1096
890.6535, 320.6310
891.1356, 322.2667
891.6177, 323.5263
892.0999, 324.3779
892.5820, 324.9926
893.0641, 325.3301
893.5462, 325.5667
894.0283, 326.1873
894.5104, 327.1954
894.9926, 328.3324
895.4747, 329.6185
895.9568, 330.8293
896.4389, 331.9191
896.9210, 332.8579
897.4031, 333.2285
897.8853, 332.6362
898.3674, 332.4744
898.8495, 333.6052
899.3316, 335.4295
899.8137, 335.8795
900.2958, 335.2680
900.7780, 335.1609
901.2601, 336.9852
901.7422, 339.0003
902.2243, 340.1241
902.7064, 340.6049
903.1885, 341.0301
903.6707, 341.3139
904.1528, 341.8459
904.6349, 342.7675
905.1170, 343.8356
905.5991, 344.6293
906.0812, 345.1808
906.5634, 345.6583
907.0455, 345.9908
907.5276, 346.6522
908.0097, 348.8342
908.4918, 351.1740
908.9739, 352.0087
909.4561, 349.9164
909.9382, 348.6782
910.4203, 348.6841
910.9024, 349.1073
911.3845, 349.1935
911.8666, 349.0224
912.3488, 349.5371
912.8309, 350.7865
913.3130, 351.9643
913.7951, 352.5096
914.2772, 352.6907
914.7593, 352.5784
915.2415, 352.2026
915.7236, 352.2539
916.2057, 353.0874
916.6878, 353.9693
917.1699, 354.6089
917.6520, 355.0912
918.1342, 355.8234
918.6163, 356.7806
919.0984, 357.6984
919.5805, 358.2643
920.0626, 358.9330
920.5447, 360.4295
921.0269, 362.3185
921.5090, 363.7151
921.9911, 363.9123
922.4732, 364.1994
922.9553, 364.6110
923.4374, 365.2820
923.9196, 366.5848
924.4017, 368.4810
924.8838, 369.9752
925.3659, 370.8748
925.8480, 371.6678
926.3301, 372.8888
926.8123, 374.2253
927.2944, 375.2614
927.7765, 375.7335
928.2586, 376.7057
928.7407, 378.5839
929.2228, 380.5480
929.7050, 382.0960
930.1871, 383.2399
930.6692, 384.5033
931.1513, 385.8822
931.6334, 386.9941
932.1155, 387.2737
932.5977, 387.4132
933.0798, 388.1121
933.5619, 389.2719
934.0440, 390.3318
934.5261, 390.9344
935.0082, 391.7339
935.4904, 392.8222
935.9725, 394.2249
936.4546, 396.1497
936.9367, 398.5506
937.4188, 401.0309
937.9009, 403.4846
938.3831, 406.0093
938.8652, 408.1957
939.3473, 410.7614
939.8294, 414.6818
940.3115, 421.3248
940.7936, 427.2645
941.2758, 431.5908
941.7579, 436.3488
942.2400, 443.3898
942.7221, 452.5180
943.2042, 462.5989
943.6863, 473.4547
944.1685, 484.8569
944.6506, 495.8252
945.1327, 507.8556
945.6148, 522.1238
946.0969, 538.6902
946.5790, 556.5529
947.0612, 575.7170
947.5433, 595.6719
948.0254, 615.8500
948.5075, 636.9599
948.9896, 661.6969
949.4717, 689.5199
949.9539, 717.6699
950.4360, 744.6466
950.9181, 772.1754
951.4002, 801.2714
951.8823, 832.0197
952.3644, 864.7305
952.8466, 900.4078
953.3287, 935.9311
953.8108, 971.2451
954.2929, 1006.388
954.7750, 1041.571
955.2571, 1076.344
955.7393, 1109.293
956.2214, 1140.297
956.7035, 1167.737
957.1856, 1191.625
957.6677, 1210.721
958.1498, 1224.506
958.6320, 1232.762
959.1141, 1233.819
959.5962, 1227.651
960.0783, 1214.246
960.5604, 1192.998
961.0425, 1164.993
961.5247, 1130.920
962.0068, 1091.775
962.4889, 1049.476
962.9710, 1004.097
963.4531, 957.3612
963.9352, 908.4017
964.4174, 859.3000
964.8995, 812.0377
965.3816, 766.1594
965.8637, 723.5984
966.3458, 684.7673
966.8279, 648.6841
967.3101, 614.3069
967.7922, 582.4493
968.2743, 555.4237
968.7564, 533.3834
969.2385, 513.7207
969.7206, 495.3124
970.2028, 479.4113
970.6849, 466.6737
971.1670, 456.9326
971.6491, 448.0192
972.1312, 440.0017
972.6133, 432.4191
973.0955, 424.6232
973.5776, 417.7122
974.0597, 413.5471
974.5418, 411.1584
975.0239, 408.5293
975.5060, 404.3973
975.9882, 401.0582
976.4703, 399.1656
976.9524, 397.6693
977.4345, 395.0560
977.9166, 391.5087
978.3987, 389.0198
978.8809, 387.8685
979.3630, 386.8925
979.8451, 384.9278
980.3272, 382.8995
980.8093, 381.6729
981.2914, 381.3802
981.7736, 381.1147
982.2557, 380.8987
982.7377, 380.6191
983.2198, 380.3473
983.7020, 379.8841
984.1841, 378.3564
984.6662, 376.1068
985.1483, 374.3369
985.6304, 373.7271
986.1125, 373.4555
986.5947, 373.0652
987.0768, 372.8097
987.5589, 373.0882
988.0410, 374.1583
988.5231, 374.8488
989.0052, 375.1094
989.4874, 374.9455
989.9695, 373.9999
990.4516, 372.7932
990.9337, 372.2285
991.4158, 372.3641
991.8979, 372.5568
992.3801, 372.6266
992.8622, 372.6306
993.3443, 372.5413
993.8264, 372.4206
994.3085, 372.6697
994.7906, 373.2804
995.2728, 373.3993
995.7549, 372.4113
996.2370, 371.4026
996.7191, 371.7480
997.2012, 372.7387
997.6833, 373.3494
998.1655, 372.9242
998.6476, 372.8707
999.1297, 373.5078
999.6118, 374.0244
1000.094, 373.3264
1000.576, 371.8212
1001.058, 371.6998
1001.540, 372.9310
1002.022, 374.2227
1002.505, 374.9760
1002.987, 375.3013
1003.469, 375.0744
1003.951, 374.4325
1004.433, 373.9609
1004.915, 373.7024
1005.397, 373.4797
1005.879, 373.3192
1006.361, 373.0230
1006.844, 372.0612
1007.326, 370.8163
1007.808, 370.0512
1008.290, 370.2240
1008.772, 369.9752
1009.254, 368.3670
1009.736, 366.6647
1010.218, 365.5201
1010.701, 364.9373
1011.183, 364.9504
1011.665, 365.5462
1012.147, 366.2690
1012.629, 367.2850
1013.111, 367.9086
1013.593, 367.4233
1014.075, 366.0280
1014.557, 364.2562
1015.040, 361.4002
1015.522, 359.7100
1016.004, 359.7527
1016.486, 360.4490
1016.968, 360.4157
1017.450, 359.8141
1017.932, 359.1249
1018.414, 358.4276
1018.896, 357.5716
1019.379, 356.4669
1019.861, 355.1738
1020.343, 353.6075
1020.825, 351.8303
1021.307, 350.4954
1021.789, 349.6300
1022.271, 348.9313
1022.753, 348.3792
1023.236, 347.7667
1023.718, 346.7418
1024.200, 345.4831
1024.682, 344.3069
1025.164, 343.4859
1025.646, 342.4189
1026.128, 340.8119
1026.610, 339.3488
1027.093, 338.8256
1027.575, 339.0591
1028.057, 338.7849
1028.539, 337.9938
1029.021, 337.2521
1029.503, 336.9041
1029.985, 336.7501
1030.467, 336.8251
1030.949, 336.9949
1031.432, 336.8025
1031.914, 336.1942
1032.396, 335.3806
1032.878, 334.3481
1033.360, 333.3021
1033.842, 332.5790
1034.324, 332.0341
1034.806, 331.3681
1035.288, 330.4218
1035.771, 329.8763
1036.253, 330.0005
1036.735, 330.4656
1037.217, 331.3287
1037.699, 332.4285
1038.181, 332.6184
1038.663, 331.9865
1039.145, 331.1837
1039.628, 330.2709
1040.110, 329.5959
1040.592, 329.4601
1041.074, 329.6910
1041.556, 330.0010
1042.038, 330.3723
1042.520, 330.8550
1043.002, 331.5128
1043.484, 332.0066
1043.967, 331.8179
1044.449, 331.3426
1044.931, 331.3554
1045.413, 331.8219
1045.895, 331.9028
1046.377, 330.8513
1046.859, 329.9007
1047.341, 329.3345
1047.823, 329.1286
1048.306, 329.3810
1048.788, 330.0037
1049.270, 330.3165
1049.752, 330.0229
1050.234, 329.9429
1050.716, 331.2263
1051.198, 332.6605
1051.680, 333.0394
1052.163, 332.2472
1052.645, 331.3060
1053.127, 330.1169
1053.609, 329.2628
1054.091, 329.1268
1054.573, 329.4608
1055.055, 330.1671
1055.537, 330.9895
1056.020, 331.3502
1056.502, 330.3094
1056.984, 329.8769
1057.466, 330.4539
1057.948, 331.4163
1058.430, 332.2870
1058.912, 333.0043
1059.394, 332.9635
1059.876, 332.1816
1060.359, 331.7253
1060.841, 332.7855
1061.323, 333.9057
1061.805, 334.2420
1062.287, 333.9062
1062.769, 333.1069
1063.251, 331.6735
1063.733, 331.1963
1064.215, 332.2643
1064.698, 333.5021
1065.180, 332.7663
1065.662, 331.5106
1066.144, 331.8657
1066.626, 334.5865
1067.108, 336.1917
1067.590, 335.9753
1068.072, 335.4489
1068.555, 335.2658
1069.037, 335.2878
1069.519, 335.0030
1070.001, 334.5609
1070.483, 334.5011
1070.965, 335.3960
1071.447, 336.1281
1071.929, 335.9186
1072.411, 335.6001
1072.894, 336.0717
1073.376, 337.4393
1073.858, 338.0438
1074.340, 337.8531
1074.822, 337.5414
1075.304, 337.5493
1075.786, 337.6825
1076.268, 338.0724
1076.750, 338.4614
1077.233, 337.8907
1077.715, 335.6010
1078.197, 334.3923
1078.679, 334.7918
1079.161, 335.8377
1079.643, 336.5590
1080.125, 337.0039
1080.607, 337.1393
1081.090, 336.9540
1081.572, 337.0401
1082.054, 338.3271
1082.536, 338.9518
1083.018, 338.0108
1083.500, 336.2400
1083.982, 335.7589
1084.464, 336.3476
1084.946, 336.9488
1085.429, 337.2980
1085.911, 337.4498
1086.393, 337.3898
1086.875, 337.1733
1087.357, 336.7515
1087.839, 336.0877
1088.321, 336.1561
1088.803, 337.0040
1089.286, 337.7135
1089.768, 337.6068
1090.250, 337.3059
1090.732, 337.4803
1091.214, 337.9185
1091.696, 338.2217
1092.178, 338.2499
1092.660, 338.3224
1093.142, 338.4966
1093.625, 338.5682
1094.107, 338.2660
1094.589, 337.7611
1095.071, 337.2423
1095.553, 336.7921
1096.035, 336.8004
1096.517, 338.1922
1096.999, 339.0311
1097.481, 338.7216
1097.964, 337.8330
1098.446, 337.1061
1098.928, 336.5967
1099.410, 336.6541
1099.892, 337.3469
1100.374, 338.2725
1100.856, 339.6988
1101.338, 340.7803
1101.821, 340.7709
1102.303, 339.9541
1102.785, 339.6171
1103.267, 339.7746
1103.749, 340.0290
1104.231, 340.2615
1104.713, 340.5427
1105.195, 341.0504
1105.677, 341.5874
1106.160, 341.8863
1106.642, 341.8158
1107.124, 342.0486
1107.606, 342.6463
1108.088, 343.3158
1108.570, 344.0856
1109.052, 344.6618
1109.534, 344.2832
1110.016, 343.3773
1110.499, 342.8353
1110.981, 342.9582
1111.463, 343.5401
1111.945, 344.9032
1112.427, 346.0783
1112.909, 346.0175
1113.391, 345.1311
1113.873, 344.8261
1114.356, 345.1014
1114.838, 345.7169
1115.320, 347.2690
1115.802, 348.2582
1116.284, 347.8797
1116.766, 346.9531
1117.248, 346.4452
1117.730, 346.3650
1118.213, 347.0524
1118.695, 348.5363
1119.177, 349.6620
1119.659, 348.8074
1120.141, 348.0087
1120.623, 349.0462
1121.105, 351.2899
1121.587, 352.4043
1122.069, 352.2899
1122.552, 351.9427
1123.034, 351.4872
1123.516, 351.2342
1123.998, 351.7716
1124.480, 352.5131
1124.962, 352.7575
1125.444, 352.3708
1125.926, 352.4869
1126.408, 353.3121
1126.891, 353.9624
1127.373, 354.1365
1127.855, 353.9471
1128.337, 353.2760
1128.819, 352.4681
1129.301, 352.0947
1129.783, 352.3484
1130.265, 352.9639
1130.748, 354.1883
1131.230, 355.1620
1131.712, 355.2108
1132.194, 354.7651
1132.676, 355.0569
1133.158, 355.9089
1133.640, 356.8326
1134.122, 358.1224
1134.604, 358.6690
1135.087, 357.6682
1135.569, 356.5078
1136.051, 356.4364
1136.533, 357.2790
1137.015, 357.5769
1137.497, 357.4019
1137.979, 357.3932
1138.461, 358.0371
1138.943, 358.7723
1139.426, 359.3276
1139.908, 359.8379
1140.390, 360.5353
1140.872, 361.4114
1141.354, 361.9374
1141.836, 362.0722
1142.318, 362.2914
1142.800, 363.0194
1143.283, 363.8912
1143.765, 364.9152
1144.247, 365.8356
1144.729, 365.6764
1145.211, 364.1128
1145.693, 364.3599
1146.175, 367.1518
1146.657, 370.0132
1147.140, 370.2063
1147.622, 369.4928
1148.104, 369.4099
1148.586, 370.0911
1149.068, 371.1912
1149.550, 372.8724
1150.032, 374.1769
1150.514, 374.7132
1150.996, 375.2185
1151.479, 376.9680
1151.961, 379.0884
1152.443, 380.3754
1152.925, 380.5569
1153.407, 380.7904
1153.889, 381.0314
1154.371, 381.7234
1154.853, 383.2564
1155.335, 384.9980
1155.818, 385.4930
1156.300, 385.3908
1156.782, 385.8774
1157.264, 387.3724
1157.746, 389.0586
1158.228, 390.9985
1158.710, 392.7357
1159.192, 393.7383
1159.675, 394.5533
1160.157, 396.8157
1160.639, 400.0728
1161.121, 403.1229
1161.603, 405.5324
1162.085, 407.6749
1162.567, 409.1384
1163.049, 411.0508
1163.531, 414.5799
1164.014, 419.2529
1164.496, 422.5136
1164.978, 424.7418
1165.460, 427.7023
1165.942, 433.0954
1166.424, 438.2160
1166.906, 441.9667
1167.388, 445.4867
1167.870, 450.1304
1168.353, 455.6719
1168.835, 459.9412
1169.317, 462.9884
1169.799, 465.9624
1170.281, 469.4185
1170.763, 473.0956
1171.245, 476.9801
1171.727, 480.9156
1172.210, 485.0166
1172.692, 489.1749
1173.174, 491.6801
1173.656, 492.4077
1174.138, 492.3866
1174.620, 492.1680
1175.102, 491.5236
1175.584, 490.4498
1176.067, 488.7936
1176.549, 486.1066
1177.031, 482.3962
1177.513, 478.1681
1177.995, 473.4798
1178.477, 468.7850
1178.959, 464.3433
1179.441, 460.1987
1179.923, 456.5728
1180.406, 453.2372
1180.888, 449.1267
1181.370, 444.1998
1181.852, 440.6699
1182.334, 439.0524
1182.816, 437.7682
1183.298, 435.1040
1183.780, 432.4218
1184.262, 431.1597
1184.745, 431.0348
1185.227, 430.0992
1185.709, 428.2764
1186.191, 426.5081
1186.673, 424.9717
1187.155, 423.8080
1187.637, 423.2818
1188.119, 423.0926
1188.602, 423.0816
1189.084, 423.2033
1189.566, 422.9166
1190.048, 422.1759
1190.530, 421.5521
1191.012, 421.3333
1191.494, 420.9854
1191.976, 419.7911
1192.458, 418.2448
1192.941, 416.7784
1193.423, 415.4091
1193.905, 414.6263
1194.387, 414.4699
1194.869, 414.6154
1195.351, 415.0919
1195.833, 415.4694
1196.315, 415.2764
1196.797, 414.6863
1197.280, 413.8312
1197.762, 412.6658
1198.244, 411.8551
1198.726, 411.5157
1199.208, 410.6997
1199.690, 408.5984
1200.172, 406.3885
1200.654, 405.6322
1201.137, 405.5149
1201.619, 404.8764
1202.101, 403.4537
1202.583, 402.0635
1203.065, 400.6892
1203.547, 399.5149
1204.029, 398.9506
1204.511, 398.2845
1204.994, 396.3418
1205.476, 393.8605
1205.958, 392.0569
1206.440, 391.0066
1206.922, 390.9489
1207.404, 392.1007
1207.886, 392.7076
1208.368, 391.3321
1208.850, 389.1094
1209.333, 387.0912
1209.815, 385.2252
1210.297, 383.4521
1210.779, 381.4402
1211.261, 380.5649
1211.743, 381.0123
1212.225, 381.2819
1212.707, 380.1480
1213.189, 378.4521
1213.672, 376.5711
1214.154, 374.9336
1214.636, 374.5248
1215.118, 376.0365
1215.600, 376.3590
1216.082, 375.3034
1216.564, 373.9898
1217.046, 372.9923
1217.529, 372.4197
1218.011, 372.7566
1218.493, 373.5022
1218.975, 373.4047
1219.457, 371.9861
1219.939, 371.6202
1220.421, 372.5461
1220.903, 373.3456
1221.385, 372.5930
1221.868, 371.4498
1222.350, 370.9780
1222.832, 370.9190
1223.314, 370.5585
1223.796, 369.8030
1224.278, 369.0710
1224.760, 368.3811
1225.242, 367.7867
1225.724, 367.1215
1226.207, 366.7597
1226.689, 367.4035
1227.171, 368.5211
1227.653, 368.7382
1228.135, 367.8974
1228.617, 367.2738
1229.099, 366.9803
1229.581, 366.5889
1230.064, 365.5010
1230.546, 364.4339
1231.028, 363.9278
1231.510, 363.8631
1231.992, 363.9008
1232.474, 364.0353
1232.956, 364.3210
1233.438, 364.7638
1233.921, 365.1093
1234.403, 365.3859
1234.885, 365.2715
1235.367, 364.0822
1235.849, 362.5233
1236.331, 362.1455
1236.813, 362.9582
1237.295, 362.6841
1237.777, 361.1168
1238.260, 359.6573
1238.742, 359.3251
1239.224, 359.3970
1239.706, 359.5466
1240.188, 359.7943
1240.670, 360.2152
1241.152, 360.8005
1241.634, 361.6732
1242.116, 362.8279
1242.599, 363.4042
1243.081, 362.2538
1243.563, 361.0851
1244.045, 360.6001
1244.527, 360.5628
1245.009, 360.8031
1245.491, 361.1826
1245.973, 360.7589
1246.456, 359.4844
1246.938, 358.5005
1247.420, 358.3706
1247.902, 358.7402
1248.384, 359.6678
1248.866, 360.7424
1249.348, 361.4272
1249.830, 361.7138
1250.313, 361.2808
1250.795, 360.1946
1251.277, 359.6199
1251.759, 361.0062
1252.241, 361.5913
1252.723, 360.4416
1253.205, 358.8212
1253.687, 358.6118
1254.169, 359.3379
1254.651, 360.0977
1255.134, 360.7725
1255.616, 361.1189
1256.098, 360.6494
1256.580, 360.5396
1257.062, 361.0481
1257.544, 361.8220
1258.026, 362.6619
1258.508, 363.3140
1258.991, 363.1756
1259.473, 362.3294
1259.955, 361.8653
1260.437, 362.1426
1260.919, 362.2018
1261.401, 361.8737
1261.883, 361.3772
1262.365, 360.6297
1262.848, 360.0829
1263.330, 360.4911
1263.812, 361.6902
1264.294, 362.4741
1264.776, 362.7346
1265.258, 362.8217
1265.740, 362.7584
1266.222, 362.7601
1266.704, 363.1051
1267.187, 363.5443
1267.669, 363.8308
1268.151, 364.0215
1268.633, 364.3743
1269.115, 364.9054
1269.597, 365.3517
1270.079, 365.6888
1270.561, 365.6816
1271.043, 364.0726
1271.526, 363.1244
1272.008, 365.3006
1272.490, 368.7843
1272.972, 370.3485
##END=



