##NAMES=Tsaregorodtsevite
##RRUFFID=R060373
##IDEAL CHEMISTRY=N(CH_3_)_4_Si_4_(SiAl)O_12_
##LOCALITY=Mun-Hambo, north Urals, Hanty- Manskiisky, Autonomous District, Russia
##OWNER=RRUFF
##SOURCE=Michael Scott
##DESCRIPTION=Colorless single crystals with octahedral and cubic forms
##STATUS=The identification of this mineral is confirmed by single-crystal X-ray diffraction and chemical analysis.
##URL=rruff.info/R060373
##MEASURED CHEMISTRY=N(CH_3_)_4_Si_4.00_(Si_0.97_Al_1.03_)_Î£=2_O_12_; trace amounts of Na; N and CH_3_ not measured but assumed by stoichiometry
158.4706, 359.2404
158.9528, 358.2474
159.4349, 358.7955
159.9170, 363.9762
160.3991, 371.0055
160.8812, 376.6654
161.3633, 377.9651
161.8455, 379.3543
162.3276, 382.9610
162.8097, 389.2972
163.2918, 396.0382
163.7739, 402.0515
164.2560, 407.4259
164.7382, 410.4393
165.2203, 414.1655
165.7024, 418.2009
166.1845, 421.5607
166.6666, 423.7854
167.1487, 426.5058
167.6309, 431.1571
168.1130, 436.9994
168.5951, 442.3853
169.0772, 446.2675
169.5593, 449.5785
170.0414, 453.2016
170.5236, 457.5801
171.0057, 461.6391
171.4878, 464.8925
171.9699, 467.3126
172.4520, 468.7304
172.9341, 468.6042
173.4163, 467.6303
173.8984, 466.6650
174.3805, 466.0758
174.8626, 465.2287
175.3447, 463.0421
175.8268, 459.8325
176.3090, 457.0883
176.7911, 456.3059
177.2732, 456.5724
177.7553, 456.4454
178.2374, 455.5551
178.7195, 454.1158
179.2017, 452.2098
179.6838, 449.8675
180.1659, 447.5692
180.6480, 445.3378
181.1301, 443.4034
181.6122, 442.3415
182.0944, 442.8469
182.5765, 443.9191
183.0586, 443.7391
183.5407, 442.3264
184.0228, 440.6685
184.5049, 439.3621
184.9871, 438.4706
185.4692, 438.3365
185.9513, 439.5338
186.4334, 441.3718
186.9155, 442.3519
187.3976, 442.4642
187.8798, 441.8175
188.3619, 440.0781
188.8440, 437.4400
189.3261, 435.2546
189.8082, 433.9198
190.2903, 433.3699
190.7725, 433.5704
191.2546, 434.6541
191.7367, 435.7997
192.2188, 436.1298
192.7009, 435.6675
193.1830, 434.7448
193.6652, 433.3102
194.1473, 431.4532
194.6294, 429.7477
195.1115, 428.1410
195.5936, 426.8474
196.0757, 426.3028
196.5579, 426.5321
197.0400, 426.7512
197.5221, 426.7363
198.0042, 426.4850
198.4863, 425.7072
198.9684, 424.1732
199.4506, 422.6374
199.9327, 422.6007
200.4148, 424.2923
200.8969, 425.3843
201.3790, 424.4768
201.8611, 421.4612
202.3433, 419.8714
202.8254, 420.1152
203.3075, 421.1145
203.7896, 420.9087
204.2717, 419.2318
204.7538, 417.6725
205.2360, 416.9605
205.7181, 417.1874
206.2002, 417.4160
206.6823, 417.7352
207.1644, 417.9477
207.6465, 417.6361
208.1287, 416.7048
208.6108, 415.6177
209.0929, 414.4816
209.5750, 413.2088
210.0571, 412.4057
210.5392, 412.1702
211.0214, 412.3232
211.5035, 412.6202
211.9856, 413.2712
212.4677, 413.5126
212.9498, 412.8516
213.4319, 410.9980
213.9140, 409.5148
214.3962, 408.4742
214.8783, 407.7651
215.3604, 407.1096
215.8425, 406.3759
216.3246, 405.9572
216.8067, 406.1274
217.2889, 407.1374
217.7710, 407.8654
218.2531, 408.3673
218.7352, 408.5291
219.2173, 407.9922
219.6994, 406.3926
220.1816, 404.7713
220.6637, 403.5776
221.1458, 402.9316
221.6279, 402.3828
222.1100, 401.9872
222.5921, 401.6674
223.0743, 401.1772
223.5564, 400.4102
224.0385, 399.6873
224.5206, 399.1778
225.0027, 398.9345
225.4848, 398.7459
225.9670, 398.5149
226.4491, 398.3747
226.9312, 398.8207
227.4133, 400.5081
227.8954, 401.7127
228.3775, 401.4193
228.8597, 398.5900
229.3418, 396.7914
229.8239, 396.2750
230.3060, 396.7307
230.7881, 397.4501
231.2702, 398.9368
231.7524, 399.9056
232.2345, 399.5470
232.7166, 396.6665
233.1987, 395.2933
233.6808, 396.1005
234.1629, 398.2484
234.6451, 399.4726
235.1272, 399.1984
235.6093, 398.8623
236.0914, 399.2057
236.5735, 400.9352
237.0556, 401.7244
237.5378, 401.2076
238.0199, 399.8776
238.5020, 398.9376
238.9841, 398.4000
239.4662, 398.2323
239.9483, 398.4581
240.4305, 399.2361
240.9126, 400.0367
241.3947, 400.9204
241.8768, 401.7998
242.3589, 402.4650
242.8410, 402.8738
243.3232, 403.1138
243.8053, 403.1412
244.2874, 402.6483
244.7695, 402.7625
245.2516, 404.0610
245.7337, 405.7422
246.2159, 405.8980
246.6980, 403.6328
247.1801, 401.2502
247.6622, 399.5326
248.1443, 398.4053
248.6264, 398.2924
249.1086, 399.9319
249.5907, 402.2319
250.0728, 402.7838
250.5549, 400.5140
251.0370, 398.3063
251.5191, 397.3670
252.0013, 398.2686
252.4834, 398.5430
252.9655, 398.1173
253.4476, 397.0998
253.9297, 395.6086
254.4118, 393.3915
254.8940, 391.1862
255.3761, 389.2030
255.8582, 387.3874
256.3403, 386.0127
256.8224, 385.2030
257.3046, 384.7406
257.7867, 384.3448
258.2688, 384.1812
258.7509, 383.7404
259.2330, 382.7891
259.7151, 381.2109
260.1973, 379.7891
260.6794, 378.4789
261.1615, 377.4077
261.6436, 376.9012
262.1257, 377.2862
262.6078, 377.4226
263.0900, 376.8617
263.5721, 375.4906
264.0542, 374.4430
264.5363, 373.6974
265.0184, 373.2776
265.5005, 373.3133
265.9827, 374.0520
266.4648, 374.5062
266.9469, 374.3577
267.4290, 373.5959
267.9111, 372.6984
268.3932, 371.5671
268.8754, 370.4577
269.3575, 369.6865
269.8396, 369.3227
270.3217, 369.0405
270.8038, 368.8569
271.2859, 368.7479
271.7681, 368.0929
272.2502, 366.6124
272.7323, 365.1699
273.2144, 364.9376
273.6965, 366.2660
274.1786, 366.8699
274.6608, 366.0641
275.1429, 364.0716
275.6250, 362.4212
276.1071, 361.0999
276.5892, 360.1613
277.0714, 359.7837
277.5535, 360.0263
278.0356, 360.2780
278.5177, 360.4586
278.9998, 360.5586
279.4819, 360.3893
279.9641, 359.8145
280.4462, 359.5484
280.9283, 360.5863
281.4104, 362.9974
281.8925, 364.2785
282.3746, 363.8471
282.8568, 362.1982
283.3389, 360.4665
283.8210, 358.5719
284.3031, 357.1911
284.7852, 357.0340
285.2673, 358.0240
285.7495, 358.8311
286.2316, 359.2532
286.7137, 359.4565
287.1958, 359.7290
287.6779, 360.0632
288.1600, 360.5505
288.6422, 361.4973
289.1243, 362.7714
289.6064, 363.3276
290.0885, 362.9795
290.5706, 362.1754
291.0527, 361.4156
291.5349, 360.7288
292.0170, 360.5029
292.4991, 361.2721
292.9812, 362.7345
293.4633, 363.8083
293.9454, 364.4566
294.4276, 364.6899
294.9097, 364.2812
295.3918, 363.3577
295.8739, 362.5921
296.3560, 362.3999
296.8381, 362.5883
297.3203, 362.6553
297.8024, 362.5557
298.2845, 362.6154
298.7666, 363.5500
299.2487, 364.9932
299.7308, 365.8465
300.2130, 365.0656
300.6951, 363.6386
301.1772, 363.2220
301.6593, 363.8140
302.1414, 364.7290
302.6235, 365.4903
303.1057, 366.1402
303.5878, 366.7413
304.0699, 367.3325
304.5520, 367.8873
305.0341, 368.3340
305.5162, 368.6886
305.9984, 369.0963
306.4805, 369.7668
306.9626, 370.5227
307.4447, 371.0902
307.9268, 371.3017
308.4089, 371.4272
308.8911, 371.7755
309.3732, 372.2663
309.8553, 372.5802
310.3374, 372.2959
310.8195, 371.8452
311.3016, 371.6418
311.7838, 371.7539
312.2659, 372.1647
312.7480, 373.0746
313.2301, 374.2973
313.7122, 375.3826
314.1943, 376.2220
314.6765, 376.8019
315.1586, 377.0103
315.6407, 376.6718
316.1228, 376.5412
316.6049, 377.0933
317.0870, 378.0781
317.5692, 379.0728
318.0513, 380.0155
318.5334, 380.8604
319.0155, 381.5681
319.4976, 382.1284
319.9797, 382.6083
320.4619, 382.7224
320.9440, 382.8666
321.4261, 383.4803
321.9082, 385.1394
322.3903, 386.8239
322.8724, 388.4587
323.3546, 390.0440
323.8367, 390.8099
324.3188, 389.2410
324.8009, 387.5499
325.2830, 387.4409
325.7651, 391.1866
326.2473, 394.2372
326.7294, 395.4299
327.2115, 395.0726
327.6936, 395.6097
328.1757, 398.1031
328.6578, 400.8484
329.1400, 403.0170
329.6221, 404.4152
330.1042, 405.4452
330.5863, 405.6202
331.0684, 405.4114
331.5505, 406.2563
332.0327, 409.2191
332.5148, 411.9769
332.9969, 413.5946
333.4790, 413.6374
333.9611, 413.5880
334.4432, 413.1591
334.9254, 412.8004
335.4075, 413.4695
335.8896, 416.0387
336.3717, 417.8534
336.8538, 417.6864
337.3359, 415.2144
337.8180, 414.5733
338.3001, 416.6720
338.7823, 419.2204
339.2644, 419.4353
339.7465, 416.8296
340.2286, 414.0114
340.7107, 411.4587
341.1928, 409.1736
341.6750, 407.6150
342.1571, 406.9888
342.6392, 406.2312
343.1213, 404.1628
343.6034, 400.7707
344.0855, 397.9109
344.5677, 395.9438
345.0498, 394.6477
345.5319, 393.7882
346.0140, 393.3928
346.4961, 392.6740
346.9782, 390.8004
347.4604, 388.0595
347.9425, 385.8255
348.4246, 384.1264
348.9067, 383.2079
349.3888, 383.6992
349.8709, 385.4187
350.3531, 387.3409
350.8352, 389.0544
351.3173, 390.5948
351.7994, 392.0677
352.2815, 393.4762
352.7636, 394.7447
353.2458, 395.1862
353.7279, 395.4326
354.2100, 396.8690
354.6921, 400.8494
355.1742, 405.6864
355.6563, 409.8522
356.1385, 413.3361
356.6206, 416.2737
357.1027, 417.8027
357.5848, 419.1755
358.0669, 421.9414
358.5490, 426.9629
359.0312, 432.7621
359.5133, 438.5516
359.9954, 444.4044
360.4775, 450.6223
360.9596, 456.5435
361.4417, 463.3938
361.9239, 472.0913
362.4060, 482.9355
362.8881, 495.1428
363.3702, 508.6502
363.8523, 523.2874
364.3344, 538.7950
364.8166, 555.5717
365.2987, 572.9246
365.7808, 590.3111
366.2629, 607.8652
366.7450, 625.5338
367.2271, 645.5815
367.7093, 664.6412
368.1914, 679.7556
368.6735, 690.5467
369.1556, 697.5703
369.6377, 700.6259
370.1198, 699.8762
370.6020, 695.7693
371.0841, 687.1323
371.5662, 676.1868
372.0483, 664.0562
372.5304, 649.6658
373.0125, 635.9948
373.4947, 623.8971
373.9768, 612.4030
374.4589, 598.9072
374.9410, 582.5385
375.4231, 565.8711
375.9052, 549.6144
376.3874, 533.6711
376.8695, 518.3965
377.3516, 503.4547
377.8337, 489.4901
378.3158, 476.9440
378.7979, 465.8454
379.2801, 455.6549
379.7622, 446.1241
380.2443, 437.3558
380.7264, 429.3695
381.2085, 422.1918
381.6906, 415.8926
382.1728, 410.6329
382.6549, 406.3157
383.1370, 402.6679
383.6191, 399.6317
384.1012, 397.1858
384.5833, 395.3749
385.0655, 394.1496
385.5476, 393.1310
386.0297, 392.2852
386.5118, 391.4367
386.9939, 390.0273
387.4760, 387.8958
387.9582, 386.0907
388.4403, 386.1875
388.9224, 387.3164
389.4045, 387.6741
389.8866, 385.5691
390.3687, 383.0317
390.8509, 381.7621
391.3330, 381.7125
391.8151, 382.1536
392.2972, 383.2951
392.7793, 384.4257
393.2614, 384.8168
393.7436, 383.7588
394.2257, 382.6739
394.7078, 382.0278
395.1899, 381.8022
395.6720, 381.9485
396.1541, 382.7216
396.6363, 383.6533
397.1184, 384.5161
397.6005, 385.2326
398.0826, 386.0594
398.5647, 387.3736
399.0468, 388.7066
399.5290, 389.4907
400.0111, 388.7480
400.4932, 388.4761
400.9753, 389.2270
401.4574, 390.9994
401.9395, 392.3283
402.4217, 392.9024
402.9038, 393.3672
403.3859, 394.2064
403.8680, 395.7556
404.3501, 396.8269
404.8322, 397.0954
405.3144, 396.9438
405.7965, 397.4587
406.2786, 398.8545
406.7607, 400.2022
407.2428, 400.8032
407.7249, 400.6036
408.2071, 401.8409
408.6892, 404.8293
409.1713, 408.3371
409.6534, 410.8281
410.1355, 412.3348
410.6176, 413.7639
411.0998, 415.4764
411.5819, 417.2383
412.0640, 418.2035
412.5461, 418.4088
413.0282, 419.0137
413.5103, 421.2389
413.9925, 424.4482
414.4746, 427.3710
414.9567, 429.7891
415.4388, 431.9268
415.9209, 433.4966
416.4030, 434.9399
416.8852, 437.4043
417.3673, 442.3991
417.8494, 448.0040
418.3315, 452.5049
418.8136, 455.7484
419.2957, 459.2531
419.7779, 463.5512
420.2600, 468.6364
420.7421, 474.4293
421.2242, 481.4294
421.7063, 488.6508
422.1884, 495.6561
422.6706, 502.6195
423.1527, 510.4742
423.6348, 519.7570
424.1169, 529.6213
424.5990, 539.6639
425.0811, 549.2191
425.5633, 560.3135
426.0454, 573.5463
426.5275, 588.0635
427.0096, 602.8616
427.4917, 616.2817
427.9738, 632.4050
428.4560, 652.3629
428.9381, 676.1948
429.4202, 700.7962
429.9023, 725.5269
430.3844, 751.6191
430.8665, 779.5887
431.3487, 809.4567
431.8308, 840.9951
432.3129, 873.8959
432.7950, 908.7672
433.2771, 947.0286
433.7592, 988.4807
434.2414, 1029.932
434.7235, 1070.692
435.2056, 1110.286
435.6877, 1147.450
436.1698, 1182.196
436.6519, 1212.801
437.1341, 1238.127
437.6162, 1257.519
438.0983, 1270.011
438.5804, 1275.559
439.0625, 1273.757
439.5446, 1263.523
440.0268, 1245.378
440.5089, 1221.171
440.9910, 1188.685
441.4731, 1152.616
441.9552, 1116.038
442.4373, 1079.406
442.9195, 1043.951
443.4016, 1009.290
443.8837, 976.5579
444.3658, 947.1334
444.8479, 921.9589
445.3300, 899.6151
445.8122, 879.2609
446.2943, 861.1541
446.7764, 846.0367
447.2585, 835.6755
447.7406, 827.0707
448.2227, 818.6718
448.7049, 809.8050
449.1870, 802.5131
449.6691, 797.2501
450.1512, 793.3708
450.6333, 790.2032
451.1154, 788.5487
451.5976, 785.7626
452.0797, 780.7267
452.5618, 773.6523
453.0439, 768.1257
453.5260, 764.6525
454.0081, 761.4716
454.4903, 757.4181
454.9724, 752.5267
455.4545, 746.5530
455.9366, 739.3313
456.4187, 731.4153
456.9008, 723.8372
457.3830, 716.4669
457.8651, 709.1561
458.3472, 701.4709
458.8293, 693.7950
459.3114, 686.7141
459.7935, 680.2889
460.2757, 674.0420
460.7578, 666.8282
461.2399, 659.8619
461.7220, 655.0488
462.2041, 653.9029
462.6862, 653.1673
463.1684, 651.2448
463.6505, 648.1242
464.1326, 643.8192
464.6147, 637.9129
465.0968, 631.1343
465.5789, 624.0510
466.0611, 616.7926
466.5432, 608.4667
467.0253, 599.2214
467.5074, 588.7100
467.9895, 576.6727
468.4716, 561.0405
468.9538, 546.2693
469.4359, 533.0925
469.9180, 521.0778
470.4001, 508.6859
470.8822, 495.5377
471.3643, 482.8335
471.8465, 470.8042
472.3286, 459.3259
472.8107, 449.9866
473.2928, 443.1851
473.7749, 437.8081
474.2570, 433.0262
474.7392, 428.8375
475.2213, 424.6337
475.7034, 420.1735
476.1855, 415.7552
476.6676, 411.9059
477.1497, 408.6145
477.6319, 405.9402
478.1140, 404.4943
478.5961, 403.4692
479.0782, 401.1215
479.5603, 397.2033
480.0424, 393.8249
480.5246, 393.4858
481.0067, 394.5499
481.4888, 394.6699
481.9709, 392.2258
482.4530, 389.6505
482.9352, 388.2451
483.4173, 387.7289
483.8994, 387.2165
484.3815, 386.5378
484.8636, 385.6863
485.3457, 384.4940
485.8279, 382.6571
486.3100, 381.5887
486.7921, 382.1403
487.2742, 383.1137
487.7563, 383.4947
488.2384, 383.2431
488.7206, 382.3961
489.2027, 380.5463
489.6848, 378.1716
490.1669, 377.2028
490.6490, 378.1472
491.1311, 378.9878
491.6133, 378.6283
492.0954, 377.0948
492.5775, 375.9339
493.0596, 375.2064
493.5417, 374.6335
494.0238, 373.8780
494.5060, 372.9986
494.9881, 372.2938
495.4702, 371.8949
495.9523, 371.6236
496.4344, 371.1446
496.9165, 370.5517
497.3987, 370.2007
497.8808, 370.6381
498.3629, 371.1962
498.8450, 371.1926
499.3271, 370.5561
499.8092, 369.7937
500.2914, 369.1320
500.7735, 368.4873
501.2556, 367.7528
501.7377, 366.4810
502.2198, 365.6329
502.7019, 365.6143
503.1841, 366.1776
503.6662, 366.6468
504.1483, 367.3161
504.6304, 367.5141
505.1125, 366.8764
505.5946, 365.3030
506.0768, 364.2575
506.5589, 363.9691
507.0410, 363.8904
507.5231, 363.5942
508.0052, 363.0615
508.4873, 362.3901
508.9695, 361.4417
509.4516, 360.6167
509.9337, 360.9181
510.4158, 362.2779
510.8979, 363.4126
511.3800, 363.5898
511.8622, 363.2142
512.3443, 363.2615
512.8264, 363.7029
513.3085, 364.0515
513.7906, 363.7935
514.2728, 363.2736
514.7549, 362.9942
515.2370, 363.1731
515.7191, 363.2256
516.2012, 362.3249
516.6833, 361.1632
517.1655, 360.7870
517.6476, 362.6267
518.1297, 364.2274
518.6118, 364.5987
519.0939, 363.8311
519.5760, 363.1629
520.0582, 362.8924
520.5403, 362.6196
521.0224, 362.1089
521.5045, 361.0593
521.9866, 360.6975
522.4688, 361.3775
522.9509, 362.3495
523.4330, 362.5738
523.9151, 361.8377
524.3972, 361.5718
524.8793, 362.2718
525.3615, 363.4696
525.8436, 363.8441
526.3257, 363.4079
526.8078, 363.0045
527.2899, 363.3932
527.7720, 364.1257
528.2542, 364.0432
528.7363, 363.0767
529.2184, 362.0642
529.7005, 361.6964
530.1826, 361.7318
530.6647, 361.8851
531.1469, 362.2570
531.6290, 362.4288
532.1111, 361.8640
532.5932, 360.9477
533.0753, 360.4664
533.5574, 360.8164
534.0396, 361.4674
534.5217, 362.4009
535.0038, 363.6313
535.4859, 364.4863
535.9680, 365.1140
536.4501, 365.1943
536.9323, 364.3585
537.4144, 361.8549
537.8965, 360.5801
538.3786, 360.8701
538.8607, 362.0133
539.3428, 363.1675
539.8250, 364.3905
540.3071, 364.9805
540.7892, 364.6513
541.2713, 363.6384
541.7534, 362.2404
542.2355, 360.5250
542.7177, 359.1971
543.1998, 358.9491
543.6819, 359.2725
544.1640, 359.3780
544.6461, 359.1952
545.1282, 359.0287
545.6104, 358.6198
546.0925, 358.5370
546.5746, 359.5049
547.0567, 362.9903
547.5388, 365.7722
548.0209, 366.5690
548.5031, 365.8843
548.9852, 364.8553
549.4673, 362.5381
549.9494, 361.0789
550.4315, 361.3173
550.9136, 363.2433
551.3958, 364.5930
551.8779, 365.3241
552.3600, 365.5521
552.8421, 365.2680
553.3242, 364.4204
553.8063, 363.3663
554.2885, 361.8767
554.7706, 360.8543
555.2527, 362.1447
555.7348, 365.2977
556.2169, 367.4414
556.6990, 367.3697
557.1812, 366.2903
557.6633, 365.6318
558.1454, 365.3732
558.6275, 365.4373
559.1096, 366.0860
559.5917, 366.8314
560.0739, 367.1911
560.5560, 367.1277
561.0381, 367.2194
561.5202, 368.1086
562.0023, 368.9943
562.4844, 369.2595
562.9666, 368.2161
563.4487, 367.4452
563.9308, 366.9428
564.4129, 366.7879
564.8950, 367.1961
565.3771, 368.5361
565.8593, 369.5757
566.3414, 369.9467
566.8235, 369.8114
567.3056, 369.9111
567.7877, 370.2582
568.2698, 370.7325
568.7520, 371.4112
569.2341, 372.1749
569.7162, 372.5770
570.1983, 372.5944
570.6804, 372.3817
571.1625, 372.2451
571.6447, 371.9362
572.1268, 370.8673
572.6089, 368.2574
573.0910, 366.2471
573.5731, 366.5354
574.0552, 368.3016
574.5374, 370.1175
575.0195, 372.4180
575.5016, 373.7857
575.9837, 373.0604
576.4658, 370.5018
576.9479, 369.3657
577.4301, 370.8582
577.9122, 372.4442
578.3943, 372.9890
578.8764, 372.2498
579.3585, 371.7318
579.8406, 371.3265
580.3228, 371.3813
580.8049, 372.5917
581.2870, 374.8576
581.7691, 376.5141
582.2512, 377.2498
582.7333, 377.2855
583.2155, 376.4761
583.6975, 375.1614
584.1796, 374.3846
584.6617, 375.1257
585.1439, 376.2605
585.6260, 376.6826
586.1081, 376.5441
586.5902, 376.6356
587.0723, 377.5443
587.5544, 378.6151
588.0366, 379.6593
588.5187, 380.8471
589.0008, 381.1219
589.4829, 379.2653
589.9650, 377.1936
590.4471, 376.3860
590.9293, 377.5048
591.4114, 378.3745
591.8935, 378.8291
592.3756, 379.0195
592.8577, 379.2602
593.3398, 379.5700
593.8220, 379.5645
594.3041, 378.9084
594.7862, 378.0152
595.2683, 378.0516
595.7504, 378.8794
596.2325, 379.4862
596.7147, 378.9530
597.1968, 378.0070
597.6789, 377.4396
598.1610, 377.3123
598.6431, 377.4180
599.1252, 377.8179
599.6074, 378.3032
600.0895, 378.7253
600.5716, 379.1922
601.0537, 379.3639
601.5358, 378.8580
602.0179, 378.1594
602.5001, 377.9039
602.9822, 378.2860
603.4643, 378.7563
603.9464, 379.3660
604.4285, 379.9392
604.9106, 379.7179
605.3928, 378.5795
605.8749, 377.7393
606.3570, 378.1708
606.8391, 379.3329
607.3212, 379.3069
607.8033, 378.1359
608.2855, 376.8500
608.7676, 376.1264
609.2497, 375.8139
609.7318, 375.8216
610.2139, 376.2153
610.6960, 376.5145
611.1782, 376.4522
611.6603, 376.1621
612.1424, 375.7847
612.6245, 375.1040
613.1066, 374.6429
613.5887, 374.4609
614.0709, 374.5412
614.5530, 374.9823
615.0351, 376.3017
615.5172, 376.8150
615.9993, 375.7596
616.4814, 373.5326
616.9636, 372.2926
617.4457, 372.0995
617.9278, 372.2555
618.4099, 372.7068
618.8920, 373.1449
619.3741, 372.4306
619.8563, 370.4995
620.3384, 368.7708
620.8205, 368.6089
621.3026, 369.2246
621.7847, 369.6795
622.2668, 369.7491
622.7490, 369.7254
623.2311, 369.7885
623.7132, 369.8141
624.1953, 369.6444
624.6774, 368.7171
625.1595, 368.2824
625.6417, 368.9547
626.1238, 370.1412
626.6059, 369.9619
627.0880, 367.7794
627.5701, 366.1840
628.0522, 366.3039
628.5344, 367.7580
629.0165, 368.6967
629.4986, 369.1158
629.9807, 369.2350
630.4628, 369.3058
630.9449, 369.1552
631.4271, 368.1484
631.9092, 366.1888
632.3913, 364.7181
632.8734, 365.4604
633.3555, 366.8908
633.8376, 367.3827
634.3198, 366.0277
634.8019, 364.7879
635.2840, 363.9217
635.7661, 363.5541
636.2482, 363.8853
636.7303, 365.6606
637.2125, 366.8814
637.6946, 367.2282
638.1767, 366.8706
638.6588, 366.2182
639.1409, 365.2311
639.6230, 364.1930
640.1052, 363.0167
640.5873, 361.9391
641.0694, 361.8487
641.5515, 362.6768
642.0336, 363.6031
642.5157, 364.1833
642.9979, 364.5035
643.4800, 364.5772
643.9621, 364.3995
644.4442, 364.2794
644.9263, 364.3988
645.4084, 364.6214
645.8906, 364.8415
646.3727, 365.0694
646.8548, 365.2158
647.3369, 365.0253
647.8190, 364.9048
648.3011, 365.4503
648.7833, 367.0073
649.2654, 368.0351
649.7475, 368.2163
650.2296, 367.8491
650.7117, 367.5109
651.1938, 367.1934
651.6760, 366.8558
652.1581, 366.5345
652.6402, 366.1393
653.1223, 365.3469
653.6044, 364.3071
654.0865, 363.5970
654.5687, 363.9227
655.0508, 364.4032
655.5329, 364.4133
656.0150, 363.8929
656.4971, 363.5036
656.9792, 363.3074
657.4614, 363.3641
657.9435, 363.8353
658.4256, 365.1145
658.9077, 365.2845
659.3898, 363.8541
659.8719, 362.1708
660.3541, 361.7247
660.8362, 362.4742
661.3183, 363.0887
661.8004, 363.3168
662.2825, 363.5225
662.7646, 364.6170
663.2468, 366.0652
663.7289, 366.5041
664.2110, 364.7679
664.6931, 362.7262
665.1752, 361.3282
665.6573, 360.6363
666.1395, 360.7543
666.6216, 362.9116
667.1037, 364.6624
667.5858, 364.8599
668.0679, 363.7922
668.5500, 363.4614
669.0322, 364.1633
669.5143, 365.0184
669.9964, 365.7315
670.4785, 366.2882
670.9606, 366.4336
671.4427, 366.1353
671.9249, 365.7007
672.4070, 365.2256
672.8891, 364.8164
673.3712, 364.6772
673.8533, 364.8192
674.3354, 365.3138
674.8176, 367.0251
675.2997, 368.7291
675.7818, 368.9888
676.2639, 366.3705
676.7460, 364.4233
677.2281, 364.5919
677.7103, 365.6080
678.1924, 365.8935
678.6745, 364.9026
679.1566, 364.4171
679.6387, 364.8453
680.1208, 365.7387
680.6030, 366.0724
681.0851, 365.8437
681.5672, 365.6940
682.0493, 365.8230
682.5314, 366.1914
683.0135, 366.9617
683.4957, 367.9787
683.9778, 368.6089
684.4599, 368.2652
684.9420, 367.6135
685.4241, 366.8332
685.9063, 366.0140
686.3884, 365.9162
686.8705, 367.8804
687.3526, 369.5733
687.8347, 369.8169
688.3168, 368.3175
688.7990, 367.4838
689.2811, 367.4616
689.7632, 367.7627
690.2453, 368.1689
690.7274, 368.6451
691.2095, 368.5052
691.6917, 367.6078
692.1738, 366.8198
692.6559, 367.3950
693.1380, 368.6283
693.6201, 369.1865
694.1022, 368.3765
694.5844, 367.9325
695.0665, 369.6213
695.5486, 371.9809
696.0307, 373.1430
696.5128, 371.0850
696.9949, 369.8872
697.4771, 370.4091
697.9592, 371.8019
698.4413, 372.3072
698.9234, 371.6589
699.4055, 371.2059
699.8876, 371.3515
700.3698, 371.8754
700.8519, 372.2875
701.3340, 372.5896
701.8161, 372.7617
702.2982, 372.5976
702.7803, 372.4359
703.2625, 372.6466
703.7446, 373.1999
704.2267, 373.9095
704.7088, 375.0337
705.1909, 376.0063
705.6730, 376.5287
706.1552, 376.5592
706.6373, 376.3363
707.1194, 375.5640
707.6015, 374.9539
708.0836, 374.9897
708.5657, 375.7117
709.0479, 376.0626
709.5300, 375.9706
710.0121, 375.8983
710.4942, 376.4251
710.9763, 377.2604
711.4584, 377.7245
711.9406, 377.6976
712.4227, 377.5034
712.9048, 377.0807
713.3869, 376.7608
713.8690, 376.9229
714.3511, 377.9503
714.8333, 378.9317
715.3154, 379.8257
715.7975, 380.5327
716.2796, 380.9440
716.7617, 381.0477
717.2438, 380.9182
717.7260, 380.5605
718.2081, 380.0027
718.6902, 378.9590
719.1723, 377.5820
719.6544, 377.2013
720.1365, 378.6284
720.6187, 380.6032
721.1008, 381.4463
721.5829, 381.6753
722.0650, 382.5322
722.5471, 384.9811
723.0292, 387.7239
723.5114, 390.3394
723.9935, 392.7743
724.4756, 394.8705
724.9577, 396.2139
725.4398, 397.8257
725.9219, 399.9690
726.4041, 402.6132
726.8862, 405.7066
727.3683, 409.3404
727.8504, 412.8349
728.3325, 415.5759
728.8146, 418.0338
729.2968, 420.9841
729.7789, 424.4587
730.2610, 428.6471
730.7431, 433.9933
731.2252, 439.8592
731.7073, 445.7139
732.1895, 451.4670
732.6716, 457.8008
733.1537, 466.3013
733.6358, 474.0373
734.1179, 479.3600
734.6000, 481.6969
735.0822, 485.0363
735.5643, 489.7919
736.0464, 494.1788
736.5285, 496.3438
737.0106, 496.7577
737.4927, 497.3600
737.9749, 498.4349
738.4570, 498.8238
738.9391, 497.0105
739.4212, 494.1992
739.9033, 491.8305
740.3854, 490.6087
740.8676, 488.8744
741.3497, 485.3805
741.8318, 481.6075
742.3139, 478.9996
742.7960, 477.8312
743.2781, 477.1706
743.7603, 476.8866
744.2424, 477.1999
744.7245, 478.6268
745.2066, 481.0388
745.6887, 483.5042
746.1708, 485.7556
746.6530, 488.1100
747.1351, 490.8720
747.6172, 494.0046
748.0993, 497.4346
748.5814, 501.1518
749.0635, 505.1407
749.5457, 508.8021
750.0278, 512.9108
750.5099, 518.8878
750.9920, 527.0488
751.4741, 536.5659
751.9562, 547.0491
752.4384, 558.9348
752.9205, 572.9795
753.4026, 589.2246
753.8847, 607.4154
754.3668, 626.9960
754.8489, 648.8105
755.3311, 673.5845
755.8132, 701.6639
756.2953, 733.2612
756.7774, 767.8688
757.2595, 806.9514
757.7416, 850.4301
758.2238, 898.4962
758.7059, 956.1285
759.1880, 1023.026
759.6701, 1098.499
760.1522, 1182.522
760.6343, 1274.966
761.1165, 1379.584
761.5986, 1496.039
762.0807, 1623.760
762.5628, 1766.467
763.0449, 1918.458
763.5270, 2076.651
764.0092, 2237.193
764.4913, 2384.009
764.9734, 2523.860
765.4555, 2632.238
765.9376, 2697.792
766.4197, 2720.380
766.9019, 2686.177
767.3840, 2587.060
767.8661, 2445.983
768.3482, 2265.166
768.8303, 2044.940
769.3124, 1826.164
769.7946, 1609.590
770.2767, 1407.289
770.7588, 1224.554
771.2409, 1063.663
771.7230, 930.2396
772.2051, 824.0951
772.6873, 737.6923
773.1694, 671.7936
773.6515, 620.2310
774.1336, 579.7112
774.6157, 551.2305
775.0978, 526.9718
775.5800, 507.1859
776.0621, 490.5711
776.5442, 476.5123
777.0263, 464.9833
777.5084, 456.0240
777.9905, 449.7197
778.4727, 444.6894
778.9548, 440.1531
779.4369, 435.9523
779.9190, 431.7729
780.4011, 427.6139
780.8832, 423.6631
781.3654, 420.1254
781.8475, 416.8358
782.3296, 413.6245
782.8117, 410.3662
783.2938, 407.7437
783.7759, 405.9945
784.2581, 404.5575
784.7402, 403.0036
785.2223, 401.3401
785.7044, 399.9725
786.1865, 398.9452
786.6686, 398.0523
787.1508, 397.0064
787.6329, 396.0023
788.1150, 395.4177
788.5971, 395.3818
789.0792, 395.2015
789.5613, 394.3790
790.0435, 393.3625
790.5256, 392.4816
791.0077, 391.7245
791.4898, 391.2430
791.9719, 391.2372
792.4540, 391.1702
792.9362, 390.3493
793.4183, 388.8737
793.9004, 388.1952
794.3825, 388.5098
794.8646, 388.8483
795.3467, 387.9241
795.8289, 386.6086
796.3110, 386.1548
796.7931, 386.9469
797.2752, 387.8431
797.7573, 388.9360
798.2394, 389.6274
798.7216, 389.3441
799.2037, 387.3929
799.6858, 386.4291
800.1679, 386.7922
800.6500, 387.3678
801.1321, 386.6565
801.6143, 385.0773
802.0964, 384.9125
802.5785, 386.5349
803.0606, 388.3751
803.5427, 389.1710
804.0248, 389.3494
804.5070, 389.3477
804.9891, 389.1783
805.4712, 389.0415
805.9533, 388.9933
806.4354, 388.9874
806.9175, 389.0103
807.3997, 389.0967
807.8818, 388.9875
808.3639, 388.5638
808.8460, 388.3898
809.3281, 389.5164
809.8102, 391.3088
810.2924, 391.9630
810.7745, 391.1253
811.2566, 390.2397
811.7387, 390.1312
812.2208, 390.5607
812.7029, 391.4194
813.1851, 393.0317
813.6672, 394.1122
814.1493, 394.5128
814.6314, 394.4844
815.1135, 394.1148
815.5956, 393.3768
816.0778, 392.8097
816.5599, 392.4247
817.0420, 392.2573
817.5241, 392.5610
818.0062, 393.0208
818.4883, 393.1319
818.9705, 392.7972
819.4526, 392.3542
819.9347, 391.5872
820.4168, 391.0426
820.8989, 391.3358
821.3810, 392.9330
821.8632, 393.3231
822.3453, 392.1181
822.8274, 390.5523
823.3095, 389.6995
823.7916, 389.3888
824.2737, 388.6298
824.7559, 387.3667
825.2380, 386.3098
825.7201, 386.0922
826.2022, 386.3402
826.6843, 386.8612
827.1664, 387.7047
827.6486, 388.0629
828.1307, 386.9053
828.6128, 386.0263
829.0949, 386.5015
829.5770, 388.4740
830.0591, 389.4831
830.5413, 389.4308
831.0234, 388.9694
831.5055, 388.2163
831.9876, 387.5141
832.4697, 387.8885
832.9518, 389.2561
833.4340, 390.0426
833.9161, 388.2913
834.3982, 386.5118
834.8803, 386.6065
835.3624, 388.8632
835.8445, 389.8902
836.3267, 389.1763
836.8088, 388.2294
837.2909, 387.7694
837.7730, 387.7012
838.2551, 387.3398
838.7372, 386.7237
839.2194, 386.4185
839.7015, 387.2119
840.1836, 388.1924
840.6657, 388.3656
841.1478, 387.8463
841.6299, 387.4623
842.1121, 387.9186
842.5942, 388.0389
843.0763, 387.1415
843.5584, 385.5382
844.0405, 385.2202
844.5226, 386.4057
845.0048, 387.2179
845.4869, 386.4302
845.9690, 385.0800
846.4511, 385.4689
846.9332, 387.0988
847.4153, 388.3410
847.8975, 388.1779
848.3796, 387.6636
848.8617, 387.0703
849.3438, 386.5201
849.8259, 386.3667
850.3080, 386.7450
850.7902, 387.3046
851.2723, 388.1893
851.7544, 388.9710
852.2365, 388.3828
852.7186, 386.6792
853.2007, 385.2975
853.6829, 384.6450
854.1650, 384.7143
854.6471, 386.1535
855.1292, 388.1530
855.6113, 389.3531
856.0934, 388.6346
856.5756, 388.0254
857.0577, 387.5571
857.5398, 387.4585
858.0219, 388.3712
858.5040, 390.4040
858.9861, 391.2495
859.4683, 390.2634
859.9504, 388.9672
860.4325, 389.4707
860.9146, 390.9127
861.3967, 391.7962
861.8788, 391.5246
862.3610, 391.2875
862.8431, 391.3171
863.3252, 391.7308
863.8073, 392.6814
864.2894, 394.5406
864.7715, 395.8666
865.2537, 396.6743
865.7358, 396.8530
866.2179, 395.7733
866.7000, 394.0324
867.1821, 393.2142
867.6642, 393.4852
868.1464, 394.4759
868.6285, 396.8873
869.1106, 399.2475
869.5927, 400.4637
870.0748, 400.2750
870.5569, 399.5141
871.0391, 397.9749
871.5212, 396.2455
872.0033, 394.3672
872.4854, 392.5010
872.9675, 392.1916
873.4496, 393.3415
873.9318, 394.6182
874.4139, 395.4991
874.8960, 395.7989
875.3781, 394.9657
875.8602, 393.1883
876.3423, 391.9908
876.8245, 391.9319
877.3066, 392.2935
877.7887, 392.8136
878.2708, 393.6337
878.7529, 395.9059
879.2350, 399.6330
879.7172, 401.8467
880.1993, 400.0299
880.6814, 397.4312
881.1635, 399.1578
881.6456, 403.4047
882.1277, 405.9551
882.6099, 404.0136
883.0920, 401.6168
883.5741, 399.3204
884.0562, 397.4521
884.5383, 396.5340
885.0204, 396.6485
885.5026, 397.2953
885.9847, 398.5419
886.4668, 399.8273
886.9489, 400.1315
887.4310, 399.9457
887.9131, 400.3599
888.3953, 401.9466
888.8774, 403.2736
889.3595, 403.2417
889.8416, 402.9411
890.3237, 403.5037
890.8058, 405.5268
891.2880, 406.6106
891.7701, 406.5629
892.2522, 406.1406
892.7343, 405.4707
893.2164, 405.0380
893.6985, 406.6544
894.1807, 410.4168
894.6628, 413.7417
895.1449, 415.0839
895.6270, 415.2909
896.1091, 414.5125
896.5912, 412.6752
897.0734, 411.9107
897.5555, 412.3751
898.0376, 413.5990
898.5197, 415.7651
899.0018, 418.3936
899.4839, 419.4287
899.9661, 419.1422
900.4482, 419.1121
900.9303, 420.8006
901.4124, 422.4907
901.8945, 422.8019
902.3766, 422.1772
902.8588, 422.1820
903.3409, 423.5363
903.8230, 424.4315
904.3051, 424.3839
904.7872, 423.9165
905.2693, 424.0146
905.7515, 424.6339
906.2336, 425.5563
906.7157, 426.8420
907.1978, 428.0681
907.6799, 429.1276
908.1620, 429.7961
908.6442, 429.7668
909.1263, 428.2451
909.6084, 427.3132
910.0905, 427.1351
910.5726, 427.4099
911.0547, 427.9545
911.5369, 428.7496
912.0190, 429.6090
912.5011, 430.5326
912.9832, 431.3038
913.4653, 431.0974
913.9474, 431.0962
914.4296, 432.9701
914.9117, 436.9777
915.3938, 439.3401
915.8759, 438.8961
916.3580, 437.5538
916.8401, 435.7070
917.3223, 433.5691
917.8044, 432.3423
918.2865, 432.0249
918.7686, 432.4946
919.2507, 434.4796
919.7328, 436.5406
920.2150, 436.8671
920.6971, 436.1662
921.1792, 436.2038
921.6613, 438.1947
922.1434, 440.0498
922.6255, 441.7378
923.1077, 442.9283
923.5898, 442.5779
924.0719, 440.8294
924.5540, 440.2972
925.0361, 441.7061
925.5182, 443.5957
926.0004, 444.5127
926.4825, 445.0552
926.9646, 446.0255
927.4467, 447.8727
927.9288, 449.2299
928.4109, 449.4659
928.8931, 449.8046
929.3752, 451.2818
929.8573, 453.8574
930.3394, 455.6585
930.8215, 456.6744
931.3036, 457.3517
931.7858, 457.9732
932.2679, 458.4523
932.7500, 458.6006
933.2321, 458.4823
933.7142, 458.5824
934.1964, 459.4702
934.6785, 459.9184
935.1606, 459.2501
935.6427, 458.1371
936.1248, 458.7636
936.6069, 461.0181
937.0891, 463.4779
937.5712, 466.0157
938.0533, 467.9602
938.5354, 467.8429
939.0175, 466.9880
939.4996, 467.3351
939.9818, 469.7706
940.4639, 472.9466
940.9460, 477.0223
941.4281, 481.4095
941.9102, 485.3157
942.3923, 488.8504
942.8745, 492.9487
943.3566, 497.7073
943.8387, 503.2491
944.3208, 509.1340
944.8029, 516.1531
945.2850, 525.2341
945.7672, 536.4644
946.2493, 548.4138
946.7314, 560.8968
947.2135, 574.0142
947.6956, 587.4716
948.1777, 601.8307
948.6599, 618.4554
949.1420, 637.2404
949.6241, 657.2148
950.1062, 676.9092
950.5883, 698.8538
951.0704, 725.4708
951.5526, 755.5278
952.0347, 786.2722
952.5168, 816.5486
952.9989, 849.8691
953.4810, 887.4449
953.9631, 926.2420
954.4453, 962.2017
954.9274, 996.1824
955.4095, 1032.079
955.8916, 1070.380
956.3737, 1106.374
956.8558, 1137.808
957.3380, 1164.911
957.8201, 1188.650
958.3022, 1209.325
958.7843, 1222.642
959.2664, 1228.597
959.7485, 1227.085
960.2307, 1217.747
960.7128, 1201.233
961.1949, 1178.452
961.6770, 1149.635
962.1591, 1116.197
962.6412, 1076.493
963.1234, 1034.555
963.6055, 990.2572
964.0876, 945.1606
964.5697, 900.7874
965.0518, 857.3236
965.5339, 815.3811
966.0161, 774.7001
966.4982, 736.3418
966.9803, 701.1575
967.4624, 668.9942
967.9445, 640.3013
968.4266, 614.8646
968.9088, 592.9049
969.3909, 575.3686
969.8730, 560.3728
970.3551, 546.6560
970.8372, 534.4458
971.3193, 524.3409
971.8015, 516.4576
972.2836, 509.4101
972.7657, 502.4647
973.2478, 496.0606
973.7299, 490.5013
974.2120, 485.8622
974.6942, 482.2613
975.1763, 480.0690
975.6584, 478.6603
976.1405, 478.6620
976.6226, 478.6047
977.1047, 475.4829
977.5869, 469.7618
978.0690, 467.4082
978.5511, 469.6485
979.0332, 471.7547
979.5153, 469.0069
979.9974, 464.7826
980.4796, 462.3231
980.9617, 462.3065
981.4438, 461.2730
981.9259, 458.1969
982.4080, 456.0809
982.8901, 456.8702
983.3723, 459.3246
983.8544, 459.4054
984.3365, 457.5835
984.8186, 455.8164
985.3007, 455.1234
985.7828, 454.6455
986.2650, 453.7021
986.7471, 452.8134
987.2292, 452.9244
987.7113, 454.5175
988.1934, 455.3039
988.6755, 454.9913
989.1577, 454.2200
989.6398, 453.4249
990.1219, 452.7693
990.6040, 452.7070
991.0861, 453.2985
991.5682, 453.5895
992.0504, 453.2127
992.5325, 452.3939
993.0146, 450.9117
993.4967, 449.0903
993.9788, 448.9217
994.4609, 450.4050
994.9431, 451.4466
995.4252, 450.8839
995.9073, 449.9756
996.3894, 450.1712
996.8715, 450.9473
997.3536, 451.4440
997.8358, 450.9271
998.3179, 450.9723
998.8000, 452.0588
999.2821, 453.0099
999.7642, 452.1544
1000.246, 450.0182
1000.728, 449.8652
1001.211, 451.7687
1001.693, 453.5170
1002.175, 453.4193
1002.657, 452.8880
1003.139, 452.8693
1003.621, 453.2821
1004.103, 453.2597
1004.585, 452.6624
1005.068, 452.1296
1005.550, 451.7816
1006.032, 451.6921
1006.514, 452.2124
1006.996, 453.0305
1007.478, 453.5214
1007.960, 453.4465
1008.442, 453.2000
1008.924, 452.7498
1009.407, 452.3055
1009.889, 452.0023
1010.371, 451.8457
1010.853, 451.8335
1011.335, 451.9682
1011.817, 451.7463
1012.299, 450.4360
1012.781, 448.9461
1013.263, 448.0674
1013.746, 447.7102
1014.228, 447.4947
1014.710, 447.4561
1015.192, 447.4189
1015.674, 447.4906
1016.156, 447.3288
1016.638, 446.4043
1017.120, 444.8134
1017.603, 442.5523
1018.085, 439.4246
1018.567, 437.1965
1019.049, 437.6869
1019.531, 438.7808
1020.013, 438.9822
1020.495, 438.3127
1020.977, 438.1467
1021.459, 438.6045
1021.942, 438.4681
1022.424, 436.9099
1022.906, 434.7531
1023.388, 432.8352
1023.870, 431.2089
1024.352, 429.9752
1024.834, 429.2331
1025.316, 428.8781
1025.799, 429.2079
1026.281, 429.4927
1026.763, 428.7639
1027.245, 427.2471
1027.727, 426.4795
1028.209, 426.5131
1028.691, 426.3887
1029.173, 425.2888
1029.656, 423.9465
1030.138, 422.6967
1030.620, 421.6224
1031.102, 420.9818
1031.584, 420.8381
1032.066, 420.9141
1032.548, 421.2737
1033.030, 421.4777
1033.512, 420.4274
1033.995, 418.9044
1034.477, 418.4584
1034.959, 419.9081
1035.441, 420.5839
1035.923, 418.8007
1036.405, 417.2807
1036.887, 417.7455
1037.369, 419.8882
1037.851, 421.0854
1038.334, 421.3543
1038.816, 421.0000
1039.298, 419.5044
1039.780, 418.1396
1040.262, 417.8786
1040.744, 418.3249
1041.226, 418.6550
1041.708, 418.7578
1042.191, 419.0286
1042.673, 419.5836
1043.155, 419.9981
1043.637, 419.5586
1044.119, 418.7935
1044.601, 418.7881
1045.083, 419.5658
1045.565, 419.9134
1046.047, 418.8658
1046.530, 417.9245
1047.012, 417.4814
1047.494, 417.5113
1047.976, 418.1906
1048.458, 419.4047
1048.940, 420.1296
1049.422, 419.9888
1049.904, 419.6225
1050.386, 419.5771
1050.869, 419.5075
1051.351, 418.8629
1051.833, 417.3407
1052.315, 417.1745
1052.797, 418.6518
1053.279, 420.1764
1053.761, 421.0382
1054.243, 421.2177
1054.726, 420.1065
1055.208, 418.2989
1055.690, 417.3721
1056.172, 418.9711
1056.654, 419.9464
1057.136, 419.4462
1057.618, 418.7266
1058.100, 419.5190
1058.583, 421.5174
1059.065, 422.6344
1059.547, 422.7286
1060.029, 422.6451
1060.511, 423.1577
1060.993, 423.5019
1061.475, 423.0947
1061.957, 422.0927
1062.439, 421.0677
1062.922, 419.9277
1063.404, 419.3957
1063.886, 419.7549
1064.368, 420.4867
1064.850, 421.2387
1065.332, 421.8305
1065.814, 421.9151
1066.296, 421.2299
1066.778, 420.9532
1067.261, 421.3315
1067.743, 421.8547
1068.225, 422.2592
1068.707, 422.6162
1069.189, 423.1655
1069.671, 423.8697
1070.153, 424.6095
1070.635, 425.8939
1071.118, 426.4339
1071.600, 424.7098
1072.082, 422.6440
1072.564, 422.3375
1073.046, 423.9843
1073.528, 424.9901
1074.010, 425.2581
1074.492, 425.1238
1074.974, 424.3477
1075.457, 423.6883
1075.939, 423.9279
1076.421, 424.8915
1076.903, 425.7792
1077.385, 426.4684
1077.867, 427.3320
1078.349, 428.6129
1078.831, 429.5648
1079.313, 428.7281
1079.796, 427.0370
1080.278, 426.1431
1080.760, 426.2880
1081.242, 426.8012
1081.724, 428.1388
1082.206, 428.9890
1082.688, 428.7425
1083.170, 427.7407
1083.652, 426.9871
1084.135, 426.4560
1084.617, 426.0291
1085.099, 425.6064
1085.581, 425.4505
1086.063, 425.9560
1086.545, 426.6521
1087.027, 427.1494
1087.509, 427.4523
1087.992, 427.4648
1088.474, 427.1751
1088.956, 426.8526
1089.438, 426.7014
1089.920, 426.5635
1090.402, 426.0219
1090.884, 425.4008
1091.366, 425.4158
1091.849, 426.3764
1092.331, 427.6485
1092.813, 429.4288
1093.295, 430.8590
1093.777, 431.2113
1094.259, 430.5361
1094.741, 428.2412
1095.223, 424.6884
1095.705, 422.4535
1096.188, 423.4146
1096.670, 424.9380
1097.152, 426.7165
1097.634, 428.2976
1098.116, 428.5909
1098.598, 427.8844
1099.080, 427.7811
1099.562, 428.5885
1100.044, 429.5350
1100.527, 430.5498
1101.009, 431.1300
1101.491, 430.6988
1101.973, 429.4937
1102.455, 428.9137
1102.937, 428.9680
1103.419, 429.1522
1103.901, 429.3153
1104.384, 429.4796
1104.866, 429.6555
1105.348, 429.8436
1105.830, 430.1021
1106.312, 430.5509
1106.794, 430.4280
1107.276, 429.5134
1107.758, 428.7757
1108.240, 428.6295
1108.723, 429.1159
1109.205, 430.8486
1109.687, 433.2114
1110.169, 434.7972
1110.651, 434.4527
1111.133, 434.3397
1111.615, 434.6281
1112.097, 435.1948
1112.579, 436.1448
1113.062, 437.2747
1113.544, 437.6629
1114.026, 437.4167
1114.508, 437.3551
1114.990, 438.2926
1115.472, 439.0102
1115.954, 438.8204
1116.436, 438.3434
1116.919, 438.7050
1117.401, 439.8097
1117.883, 439.8863
1118.365, 438.6937
1118.847, 437.7194
1119.329, 438.3250
1119.811, 439.3128
1120.293, 439.8697
1120.776, 440.0792
1121.258, 440.4076
1121.740, 440.8677
1122.222, 441.3271
1122.704, 441.7846
1123.186, 442.1158
1123.668, 441.8176
1124.150, 441.5683
1124.632, 442.3661
1125.115, 444.5240
1125.597, 445.5071
1126.079, 444.9639
1126.561, 444.3474
1127.043, 444.2217
1127.525, 444.3401
1128.007, 444.1958
1128.489, 444.0328
1128.971, 444.3119
1129.454, 445.3521
1129.936, 446.2809
1130.418, 447.1241
1130.900, 447.6220
1131.382, 447.3499
1131.864, 446.7437
1132.346, 447.2673
1132.828, 448.5873
1133.311, 449.6529
1133.793, 449.6685
1134.275, 449.8900
1134.757, 450.7880
1135.239, 451.7735
1135.721, 452.4162
1136.203, 452.7059
1136.685, 452.1588
1137.167, 450.9666
1137.650, 450.8273
1138.132, 454.5056
1138.614, 457.4499
1139.096, 456.6580
1139.578, 454.3690
1140.060, 453.4447
1140.542, 453.8867
1141.024, 455.5656
1141.506, 458.5039
1141.989, 460.6698
1142.471, 459.6139
1142.953, 458.1197
1143.435, 458.2372
1143.917, 459.5673
1144.399, 460.5417
1144.881, 461.1386
1145.363, 461.4984
1145.846, 461.6331
1146.328, 461.5844
1146.810, 460.8714
1147.292, 460.3740
1147.774, 461.0067
1148.256, 462.8646
1148.738, 465.2216
1149.220, 468.5376
1149.703, 470.2852
1150.185, 469.3513
1150.667, 467.7613
1151.149, 468.0679
1151.631, 469.4494
1152.113, 470.8442
1152.595, 472.0836
1153.077, 473.3112
1153.559, 474.5206
1154.042, 475.7728
1154.524, 477.2090
1155.006, 478.5219
1155.488, 478.8340
1155.970, 478.6815
1156.452, 479.1258
1156.934, 480.6178
1157.416, 482.1463
1157.898, 483.5927
1158.381, 485.0205
1158.863, 486.4600
1159.345, 487.9189
1159.827, 489.2900
1160.309, 490.6835
1160.791, 492.3805
1161.273, 494.4800
1161.755, 496.9718
1162.238, 500.3091
1162.720, 503.4330
1163.202, 505.1364
1163.684, 505.9144
1164.166, 508.7855
1164.648, 513.2789
1165.130, 517.2528
1165.612, 518.4987
1166.094, 520.5914
1166.577, 525.0928
1167.059, 530.4310
1167.541, 534.9624
1168.023, 538.8624
1168.505, 543.5520
1168.987, 549.0023
1169.469, 554.4996
1169.951, 559.8926
1170.433, 564.9214
1170.916, 569.5361
1171.398, 573.7326
1171.880, 577.3724
1172.362, 580.5056
1172.844, 584.1992
1173.326, 588.4630
1173.808, 591.2976
1174.290, 590.3787
1174.773, 588.5549
1175.255, 587.2320
1175.737, 586.2578
1176.219, 585.7651
1176.701, 585.7664
1177.183, 583.3774
1177.665, 578.1222
1178.147, 572.0790
1178.630, 566.0975
1179.112, 560.6565
1179.594, 556.1987
1180.076, 552.5294
1180.558, 549.0925
1181.040, 545.8671
1181.522, 542.5672
1182.004, 539.0534
1182.486, 536.0025
1182.969, 534.2023
1183.451, 532.9631
1183.933, 531.7753
1184.415, 530.6169
1184.897, 529.6845
1185.379, 529.0287
1185.861, 527.7241
1186.343, 525.2896
1186.825, 523.2254
1187.308, 523.6215
1187.790, 524.6694
1188.272, 524.6353
1188.754, 523.4440
1189.236, 522.0349
1189.718, 520.3752
1190.200, 518.9847
1190.682, 518.0152
1191.165, 517.4456
1191.647, 517.4684
1192.129, 517.7430
1192.611, 517.9152
1193.093, 517.9413
1193.575, 518.0980
1194.057, 518.5145
1194.539, 517.8983
1195.021, 515.1590
1195.504, 512.3559
1195.986, 512.0326
1196.468, 512.9153
1196.950, 513.3879
1197.432, 513.1696
1197.914, 513.4637
1198.396, 514.4437
1198.878, 514.7123
1199.360, 513.4061
1199.843, 511.3749
1200.325, 509.3371
1200.807, 507.3661
1201.289, 505.6540
1201.771, 504.4131
1202.253, 502.4186
1202.735, 499.4711
1203.217, 497.1298
1203.700, 496.6913
1204.182, 496.8323
1204.664, 496.2573
1205.146, 495.1279
1205.628, 493.6085
1206.110, 491.4972
1206.592, 489.8402
1207.074, 488.6878
1207.557, 487.5343
1208.039, 485.8775
1208.521, 484.2114
1209.003, 483.0319
1209.485, 482.2320
1209.967, 481.6762
1210.449, 481.4408
1210.931, 481.2134
1211.413, 481.0781
1211.896, 480.3533
1212.378, 477.8183
1212.860, 475.0934
1213.342, 474.1190
1213.824, 474.2242
1214.306, 474.0791
1214.788, 473.5935
1215.270, 472.7791
1215.752, 471.6041
1216.235, 470.3922
1216.717, 469.3200
1217.199, 468.3707
1217.681, 467.8629
1218.163, 467.3747
1218.645, 465.8108
1219.127, 462.4888
1219.609, 460.8737
1220.092, 461.2213
1220.574, 462.1056
1221.056, 462.8309
1221.538, 463.1837
1222.020, 462.8564
1222.502, 462.0106
1222.984, 460.9414
1223.466, 459.4503
1223.948, 458.9674
1224.431, 459.6554
1224.913, 460.2961
1225.395, 459.8099
1225.877, 458.9576
1226.359, 458.2007
1226.841, 457.6069
1227.323, 457.2872
1227.805, 457.3058
1228.287, 457.0447
1228.770, 456.4310
1229.252, 456.1554
1229.734, 457.2386
1230.216, 458.4067
1230.698, 458.9156
1231.180, 458.7038
1231.662, 457.5368
1232.144, 455.2539
1232.627, 454.3934
1233.109, 455.2029
1233.591, 455.8959
1234.073, 454.6066
1234.555, 453.2852
1235.037, 453.5558
1235.519, 452.8610
1236.001, 452.7529
1236.484, 453.2537
1236.966, 453.1529
1237.448, 454.3425
1237.930, 455.4226
1238.412, 455.1255
1238.894, 454.7926
1239.376, 455.6325
1239.858, 456.6721
1240.340, 455.9099
1240.823, 453.5998
1241.305, 452.8267
1241.787, 453.8270
1242.269, 454.5676
1242.751, 453.2460
1243.233, 452.0142
1243.715, 451.8534
1244.197, 452.2820
1244.679, 452.8208
1245.162, 453.3382
1245.644, 452.7525
1246.126, 451.0739
1246.608, 450.0943
1247.090, 451.4589
1247.572, 452.8101
1248.054, 453.4774
1248.536, 453.6311
1249.019, 453.1931
1249.501, 452.4721
1249.983, 452.7826
1250.465, 454.0860
1250.947, 454.6284
1251.429, 452.6315
1251.911, 451.2115
1252.393, 451.1007
1252.875, 451.6425
1253.358, 452.1812
1253.840, 452.6204
1254.322, 452.6010
1254.804, 452.1812
1255.286, 452.0866
1255.768, 452.6046
1256.250, 453.4508
1256.732, 454.8359
1257.214, 455.8992
1257.697, 454.8908
1258.179, 453.2402
1258.661, 453.6208
1259.143, 455.7910
1259.625, 456.9953
1260.107, 456.8846
1260.589, 455.6681
1261.071, 453.0482
1261.554, 450.7103
1262.036, 450.5146
1262.518, 451.5690
1263.000, 453.5571
1263.482, 455.9333
1263.964, 456.3425
1264.446, 453.9693
1264.928, 453.1678
1265.411, 454.6598
1265.893, 456.3202
1266.375, 455.8795
1266.857, 455.0961
1267.339, 455.6823
1267.821, 457.1574
1268.303, 457.8794
1268.785, 457.8145
1269.267, 457.2794
1269.750, 456.2808
1270.232, 455.7346
1270.714, 456.9196
1271.196, 458.1660
1271.678, 458.2228
1272.160, 457.7163
1272.642, 457.5957
1273.124, 457.8423
1273.606, 458.1308
1274.089, 458.4422
1274.571, 458.9300
1275.053, 460.3725
1275.535, 461.0702
1276.017, 459.6383
1276.499, 458.0453
1276.981, 459.4638
1277.463, 462.9538
1277.946, 464.7329
1278.428, 464.8142
1278.910, 465.2590
1279.392, 467.3457
1279.874, 469.3811
1280.356, 471.1477
1280.838, 472.6201
1281.320, 473.5624
1281.802, 474.3302
1282.285, 475.8011
1282.767, 477.8348
1283.249, 479.6185
1283.731, 480.7471
1284.213, 482.0144
1284.695, 483.5073
1285.177, 485.0559
1285.659, 486.4933
1286.141, 487.9126
1286.624, 489.5610
1287.106, 491.2587
1287.588, 492.4797
1288.070, 493.1310
1288.552, 493.5552
1289.034, 493.7396
1289.516, 494.0297
1289.998, 494.8341
1290.481, 495.7041
1290.963, 496.6018
1291.445, 497.1234
1291.927, 496.5401
1292.409, 494.7409
1292.891, 493.8700
1293.373, 493.9084
1293.855, 493.7809
1294.338, 492.8863
1294.820, 491.6066
1295.302, 489.9190
1295.784, 488.1033
1296.266, 486.3366
1296.748, 484.6493
1297.230, 483.4731
1297.712, 482.6169
1298.194, 481.1449
1298.677, 477.3099
1299.159, 474.6513
1299.641, 473.9428
1300.123, 473.8544
1300.605, 473.4904
1301.087, 472.9402
1301.569, 472.4013
1302.051, 471.7505
1302.533, 470.7191
1303.016, 468.8661
##END=



