##NAMES=Tsumoite
##RRUFFID=R080089
##IDEAL CHEMISTRY=BiTe
##LOCALITY=Sredniy Skarn, Tyrnyauz Mo-W Deposit, Baksan Valley, Kabardino-Balkarian Republic, Northern Caucasus Region, Russia
##OWNER=RRUFF
##SOURCE=Michael Scott
##DESCRIPTION=Aggregates of metallic grey platelets associated with orange grossular
##STATUS=The identification of this mineral has been confirmed only by single crystal X-ray diffraction.
##URL=rruff.info/R080089
92.52344, 122.1906
93.00555, 121.8399
93.48767, 121.9143
93.96979, 124.3704
94.45190, 127.5223
94.93402, 131.2607
95.41614, 133.3717
95.89825, 134.2416
96.38037, 134.8517
96.86249, 134.9916
97.34460, 133.8996
97.82672, 131.6434
98.30884, 128.7320
98.79095, 124.7880
99.27307, 120.1156
99.75519, 115.6685
100.2373, 112.5340
100.7194, 110.4296
101.2015, 107.5329
101.6837, 103.2466
102.1658, 98.66126
102.6479, 94.41203
103.1300, 90.45833
103.6121, 87.01216
104.0942, 84.46156
104.5764, 82.48046
105.0585, 80.74257
105.5406, 79.22340
106.0227, 77.84534
106.5048, 76.35283
106.9869, 74.47218
107.4691, 72.83424
107.9512, 71.80024
108.4333, 71.21965
108.9154, 70.72549
109.3975, 69.99060
109.8796, 68.95531
110.3618, 68.05101
110.8439, 67.26707
111.3260, 66.60739
111.8081, 66.10841
112.2902, 65.76123
112.7723, 65.50751
113.2544, 65.26692
113.7366, 65.01019
114.2187, 64.83460
114.7008, 64.88422
115.1829, 64.93719
115.6650, 64.77596
116.1471, 64.32107
116.6293, 63.68056
117.1114, 63.08450
117.5935, 62.47569
118.0756, 61.99695
118.5577, 61.85870
119.0398, 61.89216
119.5220, 61.62590
120.0041, 60.66974
120.4862, 59.44852
120.9683, 58.88968
121.4504, 59.23449
121.9325, 59.81088
122.4147, 60.13469
122.8968, 60.19418
123.3789, 60.13942
123.8610, 59.96888
124.3431, 59.74237
124.8252, 59.50206
125.3074, 59.24480
125.7895, 58.99982
126.2716, 58.79134
126.7537, 58.47918
127.2358, 58.49720
127.7179, 59.17831
128.2001, 60.16195
128.6822, 60.98405
129.1643, 61.34222
129.6464, 61.27200
130.1285, 61.20551
130.6107, 61.12850
131.0928, 61.06997
131.5749, 61.01225
132.0570, 60.97664
132.5391, 61.02151
133.0212, 61.22208
133.5034, 61.63651
133.9855, 61.77518
134.4676, 61.64131
134.9497, 61.30020
135.4318, 60.66344
135.9139, 59.77339
136.3960, 58.91671
136.8782, 58.49786
137.3603, 58.66582
137.8424, 58.39018
138.3245, 57.20831
138.8066, 55.70939
139.2887, 54.63117
139.7709, 54.19351
140.2530, 53.95993
140.7351, 53.35842
141.2172, 52.43200
141.6993, 51.53408
142.1814, 50.97353
142.6636, 50.60784
143.1457, 49.85944
143.6278, 48.36769
144.1099, 46.71748
144.5920, 45.42336
145.0741, 44.49319
145.5563, 43.61823
146.0384, 42.48499
146.5205, 41.04901
147.0026, 39.75606
147.4847, 38.85575
147.9668, 38.01049
148.4490, 37.00016
148.9311, 35.79364
149.4132, 34.55783
149.8953, 33.58904
150.3774, 33.12976
150.8595, 32.42158
151.3417, 31.21501
151.8238, 29.89364
152.3059, 28.74677
152.7880, 27.89206
153.2701, 27.25345
153.7522, 26.65490
154.2344, 26.14519
154.7165, 25.62798
155.1986, 25.06705
155.6807, 24.50415
156.1628, 23.98240
156.6449, 23.52221
157.1271, 23.12883
157.6092, 22.83739
158.0913, 22.68735
158.5734, 22.56883
159.0555, 22.49517
159.5376, 22.43729
160.0198, 22.30986
160.5019, 22.04291
160.9840, 21.68151
161.4661, 21.40579
161.9482, 21.28860
162.4303, 21.17669
162.9125, 20.90878
163.3946, 20.49527
163.8767, 20.21195
164.3588, 20.42813
164.8409, 20.81714
165.3230, 20.80536
165.8052, 20.08943
166.2873, 19.12390
166.7694, 18.48896
167.2515, 18.22425
167.7336, 18.15935
168.2157, 18.34705
168.6979, 18.63634
169.1800, 18.85415
169.6621, 18.91858
170.1442, 18.87068
170.6263, 18.81343
171.1084, 18.69658
171.5906, 18.65975
172.0727, 18.84875
172.5548, 19.11413
173.0369, 19.23886
173.5190, 19.07006
174.0011, 18.64758
174.4833, 18.30837
174.9654, 18.09839
175.4475, 17.93645
175.9296, 17.85544
176.4117, 17.80992
176.8938, 17.71212
177.3760, 17.48127
177.8581, 17.10956
178.3402, 16.91655
178.8223, 16.97449
179.3044, 17.11504
179.7865, 17.35305
180.2687, 17.63942
180.7508, 17.86904
181.2329, 17.95420
181.7150, 17.88269
182.1971, 17.71959
182.6792, 17.34859
183.1614, 16.99578
183.6435, 16.84824
184.1256, 16.89035
184.6077, 16.88458
185.0898, 16.55600
185.5719, 15.88930
186.0541, 15.55738
186.5362, 15.81704
187.0183, 16.27824
187.5004, 16.63133
187.9825, 16.84842
188.4646, 16.91796
188.9468, 16.72387
189.4289, 16.33851
189.9110, 16.05691
190.3931, 15.99635
190.8752, 16.06309
191.3573, 16.13015
191.8395, 16.20484
192.3216, 16.23257
192.8037, 16.11887
193.2858, 15.92341
193.7679, 15.78476
194.2500, 15.80570
194.7322, 15.93574
195.2143, 15.98931
195.6964, 15.85101
196.1785, 15.82276
196.6606, 16.21430
197.1427, 16.83306
197.6249, 17.24327
198.1070, 17.04299
198.5891, 16.31295
199.0712, 15.88199
199.5533, 15.97921
200.0354, 16.15138
200.5176, 16.25237
200.9997, 16.28939
201.4818, 16.30724
201.9639, 16.35125
202.4460, 16.42457
202.9281, 16.40842
203.4103, 16.25170
203.8924, 16.04401
204.3745, 15.66433
204.8566, 15.23180
205.3387, 15.03464
205.8208, 15.37538
206.3030, 16.35035
206.7851, 16.96780
207.2672, 17.21061
207.7493, 17.16578
208.2314, 16.59920
208.7135, 15.69966
209.1957, 14.99997
209.6778, 15.03804
210.1599, 15.96994
210.6420, 16.40432
211.1241, 16.01381
211.6062, 15.51632
212.0884, 15.23415
212.5705, 15.19127
213.0526, 15.28741
213.5347, 15.46450
214.0168, 15.73862
214.4989, 15.85752
214.9811, 15.66916
215.4632, 15.45778
215.9453, 15.41244
216.4274, 15.54101
216.9095, 15.74681
217.3916, 16.01294
217.8737, 16.31677
218.3559, 16.30946
218.8380, 15.67647
219.3201, 14.92906
219.8022, 14.50793
220.2843, 14.44592
220.7664, 14.50848
221.2486, 14.51166
221.7307, 14.48764
222.2128, 14.57004
222.6949, 14.91280
223.1770, 15.30166
223.6591, 15.47282
224.1413, 15.39557
224.6234, 15.26838
225.1055, 15.19499
225.5876, 15.17467
226.0697, 15.22823
226.5518, 15.53702
227.0340, 15.83192
227.5161, 15.57017
227.9982, 14.52842
228.4803, 13.71245
228.9624, 14.06705
229.4445, 14.92474
229.9267, 15.40420
230.4088, 15.04126
230.8909, 14.24243
231.3730, 13.80009
231.8551, 13.85121
232.3372, 13.91941
232.8194, 13.77649
233.3015, 13.54525
233.7836, 13.36096
234.2657, 13.27640
234.7478, 13.27474
235.2299, 13.34958
235.7121, 13.61279
236.1942, 13.71581
236.6763, 13.46144
237.1584, 13.06059
237.6405, 12.73031
238.1227, 12.56508
238.6048, 12.51122
239.0869, 12.42507
239.5690, 12.23941
240.0511, 12.14664
240.5332, 12.26783
241.0154, 12.44686
241.4975, 12.52031
241.9796, 12.41751
242.4617, 12.20631
242.9438, 12.05206
243.4259, 11.95472
243.9081, 11.92556
244.3902, 12.04237
244.8723, 12.18341
245.3544, 12.22963
245.8365, 12.13561
246.3186, 11.94976
246.8008, 11.78378
247.2829, 11.70132
247.7650, 11.54059
248.2471, 11.11465
248.7292, 10.70246
249.2113, 10.60593
249.6935, 10.91692
250.1756, 11.43681
250.6577, 11.77904
251.1398, 11.80609
251.6219, 11.83298
252.1040, 11.90036
252.5862, 11.94626
253.0683, 11.88085
253.5504, 11.68753
254.0325, 11.47377
254.5146, 11.42551
254.9967, 11.72671
255.4789, 11.84805
255.9610, 11.65026
256.4431, 11.35551
256.9252, 11.17307
257.4073, 11.14708
257.8894, 11.14501
258.3716, 10.96515
258.8537, 10.44557
259.3358, 10.21286
259.8179, 10.50009
260.3000, 10.93335
260.7821, 11.20658
261.2643, 11.26414
261.7464, 11.21166
262.2285, 11.17864
262.7106, 11.19206
263.1927, 11.00572
263.6748, 10.26615
264.1570, 9.547999
264.6391, 9.477164
265.1212, 10.08338
265.6033, 10.70170
266.0854, 10.66036
266.5675, 9.918352
267.0497, 9.432155
267.5318, 9.465302
268.0139, 9.593993
268.4960, 9.408386
268.9781, 8.907004
269.4602, 8.510724
269.9424, 8.605479
270.4245, 9.117416
270.9066, 9.400052
271.3887, 9.189305
271.8708, 8.934788
272.3529, 9.060360
272.8351, 9.532416
273.3172, 9.893338
273.7993, 9.832440
274.2814, 9.446229
274.7635, 9.122273
275.2456, 8.858842
275.7278, 8.669911
276.2099, 8.568202
276.6920, 8.551960
277.1741, 8.615847
277.6562, 8.794790
278.1383, 9.032382
278.6205, 9.215189
279.1026, 9.352370
279.5847, 9.419302
280.0668, 9.345799
280.5489, 9.162075
281.0310, 9.064016
281.5132, 9.183039
281.9953, 9.354239
282.4774, 9.327860
282.9595, 9.070350
283.4416, 8.818130
283.9237, 8.786440
284.4059, 8.900287
284.8880, 8.795355
285.3701, 8.213466
285.8522, 7.628617
286.3343, 7.585628
286.8164, 8.055590
287.2986, 8.528147
287.7807, 8.746270
288.2628, 8.755766
288.7449, 8.696572
289.2270, 8.571370
289.7091, 8.405364
290.1913, 8.137568
290.6734, 7.822058
291.1555, 7.671928
291.6376, 7.925748
292.1197, 8.402885
292.6018, 8.666258
293.0840, 8.639667
293.5661, 8.527105
294.0482, 8.452838
294.5303, 8.393934
295.0124, 8.302387
295.4945, 8.128730
295.9767, 7.928899
296.4588, 7.807981
296.9409, 7.781889
297.4230, 7.780581
297.9051, 7.763221
298.3872, 7.750696
298.8694, 7.780957
299.3515, 7.892488
299.8336, 8.002688
300.3157, 7.961823
300.7978, 7.729108
301.2799, 7.593208
301.7621, 7.796969
302.2442, 8.081374
302.7263, 8.218055
303.2084, 8.156721
303.6905, 8.003214
304.1726, 7.831793
304.6548, 7.639601
305.1369, 7.511132
305.6190, 7.501782
306.1011, 7.539502
306.5832, 7.601461
307.0653, 7.680701
307.5475, 7.694236
308.0296, 7.481637
308.5117, 7.077711
308.9938, 6.938188
309.4759, 7.383956
309.9580, 7.792197
310.4402, 7.624599
310.9223, 7.028786
311.4044, 6.579846
311.8865, 6.820819
312.3686, 7.552061
312.8507, 7.860431
313.3329, 7.508376
313.8150, 7.112879
314.2971, 7.038827
314.7792, 7.156141
315.2613, 7.221585
315.7434, 7.082689
316.2256, 6.851412
316.7077, 6.777150
317.1898, 6.901939
317.6719, 7.068326
318.1540, 7.259814
318.6361, 7.434646
319.1183, 7.520360
319.6004, 7.463567
320.0825, 7.402354
320.5646, 7.613971
321.0467, 8.182966
321.5288, 8.481398
322.0110, 8.066770
322.4931, 7.438642
322.9752, 6.922659
323.4573, 6.567897
323.9394, 6.394687
324.4215, 6.511635
324.9037, 6.910186
325.3858, 7.184926
325.8679, 7.163118
326.3500, 7.098464
326.8321, 7.227115
327.3142, 7.511245
327.7964, 7.697058
328.2785, 7.537283
328.7606, 7.112887
329.2427, 6.825278
329.7248, 6.751657
330.2069, 6.721950
330.6891, 6.591382
331.1712, 6.422925
331.6533, 6.358885
332.1354, 6.528023
332.6175, 6.808891
333.0996, 6.951725
333.5818, 6.929414
334.0639, 6.857524
334.5460, 6.792734
335.0281, 6.711096
335.5102, 6.569464
335.9923, 6.331442
336.4745, 6.087119
336.9566, 5.904366
337.4387, 5.778059
337.9208, 5.825672
338.4029, 6.298470
338.8850, 6.809042
339.3671, 6.954893
339.8492, 6.686917
340.3314, 6.320209
340.8135, 6.071608
341.2956, 5.923523
341.7777, 5.760443
342.2598, 5.485468
342.7419, 5.311345
343.2241, 5.494138
343.7062, 5.960641
344.1883, 6.337827
344.6704, 6.358477
345.1525, 6.181131
345.6346, 6.168389
346.1168, 6.383819
346.5989, 6.617543
347.0810, 6.766132
347.5631, 6.824430
348.0452, 6.743247
348.5273, 6.349008
349.0095, 5.954633
349.4916, 6.006495
349.9737, 6.516547
350.4558, 6.916718
350.9379, 6.925049
351.4200, 6.665205
351.9022, 6.318735
352.3843, 5.808468
352.8664, 5.452048
353.3485, 5.556238
353.8306, 6.015932
354.3127, 6.447184
354.7949, 6.811991
355.2770, 6.996453
355.7591, 6.725037
356.2412, 6.003458
356.7233, 5.523655
357.2054, 5.782996
357.6876, 6.358607
358.1697, 6.499201
358.6518, 6.049141
359.1339, 5.603982
359.6160, 5.782093
360.0981, 6.452244
360.5803, 6.885476
361.0624, 6.813751
361.5445, 6.609492
362.0266, 6.576650
362.5087, 6.700199
362.9908, 6.816776
363.4730, 6.841956
363.9551, 6.791450
364.4372, 6.722054
364.9193, 6.618708
365.4014, 6.523472
365.8835, 6.499172
366.3657, 6.491333
366.8478, 6.346490
367.3299, 5.983383
367.8120, 5.596587
368.2941, 5.518071
368.7762, 5.810109
369.2584, 6.102938
369.7405, 6.497763
370.2226, 6.783422
370.7047, 6.621908
371.1868, 6.010938
371.6689, 5.461232
372.1511, 5.475665
372.6332, 6.087230
373.1153, 6.390135
373.5974, 6.225130
374.0795, 5.946013
374.5616, 5.665414
375.0438, 5.405684
375.5259, 5.172448
376.0080, 4.958443
376.4901, 4.801076
376.9722, 4.844270
377.4543, 5.359501
377.9365, 5.722048
378.4186, 5.794944
378.9007, 5.717352
379.3828, 5.617927
379.8649, 5.538433
380.3470, 5.483052
380.8292, 5.462697
381.3113, 5.503480
381.7934, 5.498180
382.2755, 5.423989
382.7576, 5.330241
383.2397, 5.199218
383.7219, 5.065056
384.2040, 5.036141
384.6861, 5.224082
385.1682, 5.602321
385.6503, 5.735236
386.1324, 5.263500
386.6146, 4.937310
387.0967, 4.947105
387.5788, 5.156222
388.0609, 5.431381
388.5430, 5.713006
389.0251, 5.925491
389.5073, 5.877003
389.9894, 5.326946
390.4715, 5.026475
390.9536, 5.159295
391.4357, 5.404231
391.9178, 5.623566
392.4000, 5.766741
392.8821, 5.782231
393.3642, 5.571335
393.8463, 5.122415
394.3284, 4.831469
394.8105, 4.777104
395.2927, 4.802645
395.7748, 4.931798
396.2569, 5.086787
396.7390, 5.124619
397.2211, 4.938887
397.7032, 4.671354
398.1854, 4.676671
398.6675, 5.072120
399.1496, 5.384429
399.6317, 5.392692
400.1138, 5.322126
400.5959, 5.369400
401.0781, 5.564142
401.5602, 5.713943
402.0423, 5.547681
402.5244, 5.110984
403.0065, 4.934885
403.4886, 5.211098
403.9708, 5.574296
404.4529, 5.845096
404.9350, 6.003454
405.4171, 5.976546
405.8992, 5.576338
406.3813, 5.052372
406.8635, 4.817307
407.3456, 4.897393
407.8277, 5.022390
408.3098, 5.041562
408.7919, 5.038777
409.2740, 5.196977
409.7562, 5.650626
410.2383, 5.937882
410.7204, 5.557654
411.2025, 4.775016
411.6846, 4.424713
412.1667, 4.810516
412.6489, 5.404099
413.1310, 5.511710
413.6131, 5.151288
414.0952, 4.924794
414.5773, 5.088950
415.0594, 5.327096
415.5416, 5.353189
416.0237, 5.161712
416.5058, 4.852883
416.9879, 4.417415
417.4700, 3.942725
417.9521, 3.902305
418.4343, 4.731856
418.9164, 5.396416
419.3985, 5.509616
419.8806, 5.318655
420.3627, 5.179895
420.8448, 5.207733
421.3270, 5.296807
421.8091, 5.292311
422.2912, 5.163505
422.7733, 5.017503
423.2554, 4.838565
423.7375, 4.658075
424.2197, 4.455966
424.7018, 4.263914
425.1839, 4.166059
425.6660, 4.228764
426.1481, 4.431528
426.6302, 4.643518
427.1124, 5.015345
427.5945, 5.194962
428.0766, 4.989748
428.5587, 4.651793
429.0408, 4.422833
429.5229, 4.378505
430.0051, 4.445064
430.4872, 4.539904
430.9693, 4.683125
431.4514, 4.768914
431.9335, 4.674040
432.4156, 4.629788
432.8978, 4.813550
433.3799, 5.129683
433.8620, 5.330692
434.3441, 5.235250
434.8262, 4.940673
435.3083, 4.711816
435.7905, 4.542577
436.2726, 4.459709
436.7547, 4.561331
437.2368, 4.706916
437.7189, 4.757089
438.2010, 4.679564
438.6832, 4.603620
439.1653, 4.652326
439.6474, 4.803354
440.1295, 4.961591
440.6116, 5.172338
441.0938, 5.268758
441.5759, 4.967206
442.0580, 4.411351
442.5401, 4.055926
443.0222, 4.220580
443.5043, 4.509367
443.9865, 4.495889
444.4686, 4.211288
444.9507, 3.940697
445.4328, 3.788414
445.9149, 3.763110
446.3970, 3.913519
446.8792, 4.317515
447.3613, 4.640920
447.8434, 4.744707
448.3255, 4.741188
448.8076, 4.780115
449.2897, 4.883466
449.7719, 4.952659
450.2540, 4.884994
450.7361, 4.671257
451.2182, 4.504117
451.7003, 4.376009
452.1824, 4.294192
452.6646, 4.297369
453.1467, 4.340408
453.6288, 4.339483
454.1109, 4.257632
454.5930, 4.149889
455.0751, 4.132288
455.5573, 4.284134
456.0394, 4.371097
456.5215, 4.296401
457.0036, 4.249436
457.4857, 4.417703
457.9678, 4.732977
458.4500, 4.941903
458.9321, 4.820944
459.4142, 4.440815
459.8963, 4.221451
460.3784, 4.230974
460.8605, 4.287782
461.3427, 4.402748
461.8248, 4.503926
462.3069, 4.491980
462.7890, 4.342732
463.2711, 4.198002
463.7532, 4.214909
464.2354, 4.383273
464.7175, 4.584319
465.1996, 4.902976
465.6817, 5.089571
466.1638, 4.849652
466.6459, 4.346045
467.1281, 3.991471
467.6102, 3.997519
468.0923, 4.143594
468.5744, 4.181154
469.0565, 4.126187
469.5386, 4.160282
470.0208, 4.416351
470.5029, 4.718861
470.9850, 4.708212
471.4671, 4.322099
471.9492, 4.046443
472.4313, 4.095593
472.9135, 4.260819
473.3956, 4.353259
473.8777, 4.343860
474.3598, 4.210902
474.8419, 3.898197
475.3240, 3.443697
475.8062, 3.235923
476.2883, 3.400346
476.7704, 3.618896
477.2525, 3.912140
477.7346, 4.189299
478.2167, 4.330273
478.6989, 4.309761
479.1810, 4.214051
479.6631, 4.150087
480.1452, 4.125557
480.6273, 4.095521
481.1094, 3.987892
481.5916, 3.949923
482.0737, 4.089140
482.5558, 4.321558
483.0379, 4.505075
483.5200, 4.571613
484.0021, 4.559340
484.4843, 4.519044
484.9664, 4.427649
485.4485, 4.418245
485.9306, 4.640030
486.4127, 4.845193
486.8948, 4.822822
487.3770, 4.609896
487.8591, 4.446226
488.3412, 4.536415
488.8233, 4.746438
489.3054, 4.836456
489.7875, 4.805700
490.2697, 4.626302
490.7518, 4.160529
491.2339, 3.605759
491.7160, 3.354926
492.1981, 3.500942
492.6802, 3.680802
493.1624, 3.767860
493.6445, 3.785632
494.1266, 3.743922
494.6087, 3.647406
495.0908, 3.575375
495.5729, 3.609379
496.0551, 3.747468
496.5372, 3.820713
497.0193, 3.720698
497.5014, 3.691061
497.9835, 3.894612
498.4656, 4.183014
498.9478, 4.321928
499.4299, 4.242023
499.9120, 4.104674
500.3941, 4.181587
500.8762, 4.611527
501.3583, 4.700037
501.8405, 4.042993
502.3226, 3.455058
502.8047, 3.209765
503.2868, 3.248238
503.7689, 3.470257
504.2510, 3.858606
504.7331, 4.272021
505.2152, 4.422029
505.6974, 4.260837
506.1795, 4.137500
506.6616, 4.167949
507.1437, 4.213605
507.6258, 4.138163
508.1079, 3.969863
508.5901, 3.874300
509.0722, 4.033637
509.5543, 4.261321
510.0364, 4.251945
510.5185, 4.007789
511.0006, 3.782207
511.4828, 3.718383
511.9649, 3.721619
512.4470, 3.553048
512.9291, 3.108833
513.4113, 2.863595
513.8934, 3.128766
514.3755, 3.538233
514.8576, 3.677280
515.3397, 3.537629
515.8218, 3.414430
516.3040, 3.544490
516.7861, 3.874568
517.2682, 4.017093
517.7503, 3.729017
518.2324, 3.554490
518.7145, 3.622449
519.1967, 3.776683
519.6788, 3.900428
520.1609, 3.956332
520.6430, 3.923805
521.1251, 3.740697
521.6072, 3.415421
522.0894, 3.294963
522.5715, 3.560563
523.0536, 3.742086
523.5357, 3.605231
524.0178, 3.341980
524.4999, 3.158472
524.9821, 3.104933
525.4642, 3.150562
525.9463, 3.312511
526.4284, 3.559646
526.9105, 3.744094
527.3926, 3.822131
527.8748, 3.906753
528.3569, 4.144464
528.8390, 4.464846
529.3211, 4.622835
529.8032, 4.447128
530.2853, 4.271272
530.7675, 4.388186
531.2496, 4.614484
531.7317, 4.533712
532.2138, 4.020202
532.6959, 3.394416
533.1780, 3.037959
533.6602, 2.972216
534.1423, 3.060931
534.6244, 3.480829
535.1065, 3.838250
535.5886, 3.976914
536.0707, 3.958671
536.5529, 3.862320
537.0350, 3.723628
537.5171, 3.594399
537.9992, 3.587460
538.4813, 3.750057
538.9634, 3.784201
539.4456, 3.493614
539.9277, 3.278106
540.4098, 3.387740
540.8919, 3.694776
541.3740, 3.935521
541.8561, 3.991100
542.3383, 3.974029
542.8204, 4.027088
543.3025, 4.139505
543.7846, 4.212508
544.2667, 4.231686
544.7488, 4.185001
545.2310, 4.010905
545.7131, 3.728314
546.1952, 3.525521
546.6773, 3.485435
547.1594, 3.483571
547.6415, 3.426287
548.1237, 3.342658
548.6058, 3.323332
549.0879, 3.407568
549.5700, 3.522493
550.0521, 3.535903
550.5342, 3.367503
551.0164, 3.348250
551.4985, 3.542205
551.9806, 3.794621
552.4627, 4.171445
552.9448, 4.533951
553.4269, 4.611246
553.9091, 4.259227
554.3912, 3.729289
554.8733, 3.451916
555.3554, 3.451484
555.8375, 3.538162
556.3196, 3.765890
556.8018, 3.987953
557.2839, 4.148069
557.7660, 4.233214
558.2481, 4.202086
558.7302, 3.998907
559.2123, 3.722617
559.6945, 3.398713
560.1766, 3.068377
560.6587, 2.955117
561.1408, 3.167733
561.6229, 3.480546
562.1050, 3.602042
562.5872, 3.489208
563.0693, 3.489087
563.5514, 3.734570
564.0335, 3.963404
564.5156, 4.013611
564.9977, 3.957394
565.4799, 3.967597
565.9620, 4.108847
566.4441, 4.230302
566.9262, 4.044641
567.4083, 3.411178
567.8904, 3.042632
568.3726, 3.126946
568.8547, 3.298028
569.3368, 3.490095
569.8189, 3.672167
570.3010, 3.809672
570.7831, 3.892696
571.2653, 3.920591
571.7474, 3.850032
572.2295, 3.702411
572.7116, 3.689374
573.1937, 3.927817
573.6758, 4.093467
574.1580, 3.776092
574.6401, 3.136257
575.1222, 2.809323
575.6043, 3.098737
576.0864, 3.435064
576.5685, 3.561136
577.0507, 3.542337
577.5328, 3.477803
578.0149, 3.394283
578.4970, 3.270739
578.9791, 3.058076
579.4612, 2.743505
579.9434, 2.663106
580.4255, 3.066148
580.9076, 3.415435
581.3897, 3.613079
581.8718, 3.710052
582.3539, 3.752907
582.8361, 3.758395
583.3182, 3.743941
583.8003, 3.716645
584.2824, 3.680714
584.7645, 3.696423
585.2466, 3.826623
585.7288, 3.821965
586.2108, 3.388762
586.6929, 2.826239
587.1750, 2.577012
587.6572, 2.717334
588.1393, 2.970199
588.6214, 3.316345
589.1035, 3.648865
589.5856, 3.791144
590.0677, 3.746288
590.5499, 3.685897
591.0320, 3.720818
591.5141, 3.824903
591.9962, 3.901747
592.4783, 3.975270
592.9604, 3.981918
593.4426, 3.922333
593.9247, 3.796547
594.4068, 3.523217
594.8889, 3.175012
595.3710, 2.953986
595.8531, 3.003848
596.3353, 3.237938
596.8174, 3.481275
597.2995, 3.747381
597.7816, 3.938577
598.2637, 4.036124
598.7458, 4.042621
599.2280, 3.902770
599.7101, 3.658317
600.1922, 3.537188
600.6743, 3.766771
601.1564, 4.013290
601.6385, 3.956364
602.1207, 3.683748
602.6028, 3.446750
603.0849, 3.327043
603.5670, 3.295966
604.0491, 3.318310
604.5313, 3.391926
605.0134, 3.537217
605.4955, 3.930017
605.9776, 4.184058
606.4597, 4.121999
606.9418, 3.875182
607.4240, 3.560997
607.9061, 3.233075
608.3882, 2.999292
608.8703, 3.034457
609.3524, 3.313798
609.8345, 3.513010
610.3167, 3.631366
610.7988, 3.659858
611.2809, 3.474248
611.7630, 3.249969
612.2451, 3.246511
612.7272, 3.526539
613.2094, 3.829675
613.6915, 4.083361
614.1736, 4.270138
614.6557, 4.415997
615.1378, 4.495779
615.6199, 4.306480
616.1021, 3.672222
616.5842, 2.824034
617.0663, 2.434216
617.5484, 2.809669
618.0305, 3.138314
618.5126, 3.525199
618.9948, 3.773632
619.4769, 3.652297
619.9590, 3.308466
620.4411, 3.102938
620.9232, 3.243453
621.4053, 3.495433
621.8875, 3.471659
622.3696, 3.177203
622.8517, 2.860286
623.3338, 2.450951
623.8159, 2.247248
624.2980, 2.719170
624.7802, 3.622178
625.2623, 4.139110
625.7444, 3.946330
626.2265, 3.651261
626.7086, 3.495005
627.1907, 3.422801
627.6729, 3.334688
628.1550, 3.223890
628.6371, 3.211713
629.1192, 3.432766
629.6013, 3.838341
630.0834, 4.008643
630.5656, 3.751816
631.0477, 3.577016
631.5298, 3.586951
632.0119, 3.672130
632.4940, 3.791760
632.9761, 3.918896
633.4583, 3.985190
633.9404, 3.939302
634.4225, 3.818376
634.9046, 3.646430
635.3867, 3.431924
635.8688, 3.294933
636.3510, 3.276233
636.8331, 3.345618
637.3152, 3.527954
637.7973, 3.850417
638.2794, 3.879702
638.7615, 3.184228
639.2437, 2.669757
639.7258, 2.882871
640.2079, 3.435009
640.6900, 3.763856
641.1721, 3.732688
641.6542, 3.603324
642.1364, 3.679366
642.6185, 3.932167
643.1006, 3.961685
643.5827, 3.663028
644.0648, 3.372152
644.5469, 3.131424
645.0291, 3.001159
645.5112, 3.081611
645.9933, 3.376509
646.4754, 3.676131
646.9575, 3.995173
647.4396, 4.194446
647.9218, 4.034671
648.4039, 3.596340
648.8860, 3.208008
649.3681, 2.995151
649.8502, 2.931627
650.3323, 2.984942
650.8145, 3.173488
651.2966, 3.397592
651.7787, 3.749717
652.2608, 4.029009
652.7429, 4.171529
653.2250, 4.206911
653.7072, 4.143619
654.1893, 3.992302
654.6714, 3.851443
655.1535, 3.854524
655.6356, 3.942042
656.1177, 3.865220
656.5999, 3.585380
657.0820, 3.426406
657.5641, 3.577788
658.0462, 3.898652
658.5283, 4.155018
659.0104, 4.362799
659.4926, 4.457983
659.9747, 4.353596
660.4568, 4.207085
660.9389, 4.092812
661.4210, 4.017495
661.9031, 3.972552
662.3853, 3.955158
662.8674, 3.984411
663.3495, 4.143777
663.8316, 4.458082
664.3137, 4.475263
664.7958, 4.009362
665.2780, 3.584708
665.7601, 3.459080
666.2422, 3.487509
666.7243, 3.532213
667.2064, 3.583395
667.6885, 3.597869
668.1707, 3.509144
668.6528, 3.403937
669.1349, 3.393388
669.6170, 3.463337
670.0991, 3.523357
670.5812, 3.529160
671.0634, 3.525215
671.5455, 3.607435
672.0276, 3.844090
672.5097, 3.904074
672.9918, 3.541929
673.4739, 3.271301
673.9561, 3.316982
674.4382, 3.512563
674.9203, 3.612695
675.4024, 3.556762
675.8845, 3.559418
676.3666, 3.979427
676.8488, 4.530022
677.3309, 4.436834
677.8130, 3.682319
678.2951, 3.179199
678.7772, 3.425320
679.2593, 4.033472
679.7415, 4.294475
680.2236, 4.058679
680.7057, 3.920944
681.1878, 3.984693
681.6699, 4.032759
682.1520, 3.934486
682.6342, 3.768802
683.1163, 3.674198
683.5984, 3.687371
684.0805, 3.706505
684.5626, 3.594108
685.0447, 3.384816
685.5269, 3.258713
686.0090, 3.215924
686.4911, 3.270957
686.9732, 3.477389
687.4553, 3.743111
687.9374, 3.950502
688.4196, 4.119156
688.9017, 4.113438
689.3838, 3.696611
689.8659, 3.314699
690.3480, 3.258365
690.8301, 3.417223
691.3123, 3.612489
691.7944, 3.775667
692.2765, 3.875621
692.7586, 3.844950
693.2407, 3.700875
693.7228, 3.713042
694.2050, 3.969192
694.6871, 4.141059
695.1692, 4.014884
695.6513, 3.824680
696.1334, 3.832152
696.6155, 4.039102
697.0977, 4.245219
697.5798, 4.482850
698.0619, 4.613591
698.5440, 4.469355
699.0261, 4.155925
699.5082, 3.854557
699.9904, 3.628139
700.4725, 3.527439
700.9546, 3.643778
701.4367, 3.951267
701.9188, 4.042990
702.4009, 3.823205
702.8831, 3.576585
703.3652, 3.243885
703.8473, 3.008478
704.3294, 3.115286
704.8115, 3.497769
705.2936, 3.715418
705.7758, 3.331948
706.2579, 2.972329
706.7400, 3.324650
707.2221, 4.063325
707.7042, 4.447924
708.1863, 4.312363
708.6685, 3.986824
709.1506, 3.747147
709.6327, 3.596709
710.1148, 3.577748
710.5969, 3.794403
711.0790, 3.951884
711.5612, 3.969639
712.0433, 3.957791
712.5254, 3.996170
713.0075, 4.064722
713.4896, 4.086599
713.9717, 4.017182
714.4539, 3.920068
714.9360, 3.814014
715.4181, 3.729992
715.9002, 3.757142
716.3823, 3.904439
716.8644, 4.095269
717.3466, 4.304125
717.8287, 4.470009
718.3108, 4.341086
718.7929, 3.597034
719.2750, 3.170913
719.7571, 3.231608
720.2393, 3.453377
720.7214, 3.784219
721.2035, 4.134954
721.6856, 4.364481
722.1677, 4.417724
722.6498, 4.387486
723.1320, 4.334292
723.6141, 4.257983
724.0962, 4.124764
724.5783, 3.943570
725.0604, 3.879389
725.5425, 4.056990
726.0247, 4.291578
726.5068, 4.163671
726.9889, 3.410466
727.4710, 3.100844
727.9531, 3.734394
728.4352, 4.232875
728.9174, 4.121744
729.3995, 3.726836
729.8816, 3.466281
730.3637, 3.431034
730.8458, 3.451456
731.3279, 3.386990
731.8101, 3.313835
732.2922, 3.367715
732.7743, 3.536401
733.2564, 3.760465
733.7385, 4.038375
734.2206, 4.207812
734.7028, 3.993722
735.1849, 3.338336
735.6670, 3.178233
736.1491, 4.108214
736.6312, 4.775792
737.1133, 4.853879
737.5955, 4.669494
738.0776, 4.408838
738.5597, 4.144139
739.0418, 4.032555
739.5239, 4.248346
740.0060, 4.538026
740.4882, 4.608644
740.9703, 4.511256
741.4524, 4.387297
741.9345, 4.266951
742.4166, 4.159882
742.8987, 4.077886
743.3809, 4.013783
743.8630, 3.921010
744.3451, 3.670546
744.8272, 3.631736
745.3093, 4.021266
745.7914, 4.420801
746.2736, 4.639793
746.7557, 4.695243
747.2378, 4.632896
747.7199, 4.437875
748.2020, 4.253059
748.6841, 4.215113
749.1663, 4.247067
749.6484, 4.190579
750.1305, 4.055243
750.6126, 4.017304
751.0947, 4.182233
751.5768, 4.395937
752.0590, 4.358212
752.5411, 3.981998
753.0232, 3.771275
753.5053, 3.892061
753.9874, 3.957032
754.4695, 3.711893
754.9517, 3.437510
755.4338, 3.504771
755.9159, 3.935206
756.3980, 4.257917
756.8801, 4.156679
757.3622, 3.929791
757.8444, 3.800236
758.3265, 3.782644
758.8086, 3.960083
759.2907, 4.332307
759.7728, 4.662770
760.2549, 4.716414
760.7371, 4.528328
761.2192, 4.288500
761.7013, 3.914197
762.1834, 3.715672
762.6655, 3.911135
763.1476, 4.127614
763.6298, 4.063086
764.1119, 3.823493
764.5940, 3.705696
765.0761, 3.781065
765.5582, 3.962887
766.0403, 4.371194
766.5225, 4.756590
767.0046, 4.847362
767.4867, 4.643709
767.9688, 4.180105
768.4509, 3.459666
768.9330, 2.813489
769.4152, 2.892982
769.8973, 3.733896
770.3794, 4.371754
770.8615, 4.832161
771.3436, 4.944559
771.8257, 4.350011
772.3079, 3.570593
772.7900, 3.436074
773.2721, 4.001834
773.7542, 4.436523
774.2363, 4.564898
774.7184, 4.583814
775.2006, 4.525464
775.6827, 4.449887
776.1648, 4.466500
776.6469, 4.565129
777.1290, 4.571243
777.6111, 4.287237
778.0933, 3.910916
778.5754, 3.994475
779.0575, 4.512760
779.5396, 4.709639
780.0217, 4.367855
780.5038, 3.945706
780.9860, 3.775908
781.4681, 3.819328
781.9502, 3.908191
782.4323, 4.119939
782.9144, 4.247808
783.3965, 4.207818
783.8787, 4.155962
784.3608, 4.169470
784.8429, 4.238067
785.3250, 4.355541
785.8071, 4.520733
786.2892, 4.629313
786.7714, 4.512260
787.2535, 4.313293
787.7356, 4.386533
788.2177, 4.678067
788.6998, 4.696088
789.1819, 4.233157
789.6641, 3.708376
790.1462, 3.664784
790.6283, 4.099320
791.1104, 4.283898
791.5925, 4.014422
792.0746, 3.838025
792.5568, 3.927161
793.0389, 4.069029
793.5210, 4.171879
794.0031, 4.204864
794.4852, 4.073283
794.9673, 3.599154
795.4495, 3.251536
795.9316, 3.426596
796.4137, 3.838049
796.8958, 4.165495
797.3779, 4.364924
797.8600, 4.460436
798.3422, 4.463288
798.8243, 4.393741
799.3064, 4.231119
799.7885, 3.964112
800.2706, 3.967659
800.7527, 4.345833
801.2349, 4.684611
801.7170, 4.846232
802.1991, 4.864107
802.6812, 4.707588
803.1633, 4.372602
803.6454, 4.232985
804.1276, 4.534168
804.6097, 4.778586
805.0918, 4.817474
805.5739, 4.686813
806.0560, 4.289906
806.5381, 3.744655
807.0203, 3.453724
807.5024, 3.705701
807.9845, 4.154143
808.4666, 4.342636
808.9487, 4.316300
809.4308, 4.217419
809.9130, 4.061275
810.3951, 3.967752
810.8772, 4.018764
811.3593, 4.141005
811.8414, 4.174348
812.3235, 4.060092
812.8057, 4.081183
813.2878, 4.428179
813.7699, 4.672179
814.2520, 4.650043
814.7341, 4.504965
815.2162, 4.362604
815.6984, 4.239197
816.1805, 4.129516
816.6626, 3.984683
817.1447, 3.900411
817.6268, 4.012115
818.1089, 4.202937
818.5911, 4.241306
819.0732, 4.136488
819.5553, 4.147944
820.0374, 4.463374
820.5195, 4.900468
821.0016, 5.085925
821.4838, 5.014997
821.9659, 4.832365
822.4480, 4.484263
822.9301, 4.243443
823.4122, 4.308103
823.8943, 4.508684
824.3765, 4.538995
824.8586, 4.357367
825.3407, 4.225039
825.8228, 4.123224
826.3049, 4.105230
826.7870, 4.254923
827.2692, 4.453827
827.7513, 4.606308
828.2334, 4.687297
828.7155, 4.672585
829.1976, 4.506869
829.6797, 4.319853
830.1619, 4.211015
830.6440, 4.203494
831.1261, 4.456850
831.6082, 4.938046
832.0903, 5.189590
832.5724, 4.922730
833.0546, 4.422591
833.5367, 4.273244
834.0188, 4.547913
834.5009, 4.646838
834.9830, 4.475027
835.4651, 4.319716
835.9473, 4.316468
836.4294, 4.354500
836.9115, 4.297864
837.3936, 4.152962
837.8757, 4.050131
838.3578, 4.001854
838.8400, 4.008369
839.3221, 4.061843
839.8042, 4.175792
840.2863, 4.419747
840.7684, 4.738014
841.2505, 4.957359
841.7327, 4.984379
842.2148, 4.959194
842.6969, 5.134957
843.1790, 5.378016
843.6611, 5.248182
844.1432, 4.747272
844.6254, 4.235513
845.1075, 3.840921
845.5896, 3.645212
846.0717, 3.800031
846.5538, 4.306993
847.0359, 4.618207
847.5181, 4.717821
848.0002, 4.642607
848.4823, 4.134973
848.9644, 3.702995
849.4465, 3.785379
849.9286, 4.222555
850.4108, 4.520631
850.8929, 4.539597
851.3750, 4.553766
851.8571, 4.734602
852.3392, 4.883452
852.8214, 4.780978
853.3035, 4.532238
853.7856, 4.393870
854.2677, 4.435143
854.7498, 4.441389
855.2319, 4.102628
855.7141, 3.638101
856.1962, 3.604637
856.6783, 3.941668
857.1604, 4.223425
857.6425, 4.344424
858.1246, 4.408662
858.6068, 4.502925
859.0889, 4.606307
859.5710, 4.635766
860.0531, 4.559255
860.5352, 4.497176
861.0173, 4.529505
861.4995, 4.475386
861.9816, 4.171221
862.4637, 3.778934
862.9458, 3.451063
863.4279, 3.187855
863.9100, 3.219951
864.3922, 3.925661
864.8743, 4.577056
865.3564, 4.731805
865.8385, 4.651910
866.3206, 4.676097
866.8027, 4.806678
867.2849, 4.801764
867.7670, 4.491693
868.2491, 4.115938
868.7312, 4.024611
869.2133, 4.112576
869.6954, 4.041306
870.1776, 3.803221
870.6597, 3.692036
871.1418, 3.858231
871.6239, 4.052356
872.1060, 3.881261
872.5881, 3.350173
873.0703, 3.198138
873.5524, 3.607529
874.0345, 3.927330
874.5166, 3.957827
874.9987, 3.924471
875.4808, 3.996495
875.9630, 4.149714
876.4451, 4.337188
876.9272, 4.688879
877.4093, 4.788243
877.8914, 4.306636
878.3735, 3.802623
878.8557, 3.551435
879.3378, 3.534096
879.8199, 3.813121
880.3020, 4.336303
880.7841, 4.591820
881.2662, 3.939145
881.7484, 3.113407
882.2305, 3.104613
882.7126, 3.620312
883.1947, 3.993245
883.6768, 4.113241
884.1589, 4.157222
884.6411, 4.238476
885.1232, 4.306001
885.6053, 4.235089
886.0874, 4.020555
886.5695, 3.883112
887.0516, 3.847542
887.5338, 3.812499
888.0159, 3.754644
888.4980, 3.651551
888.9801, 3.419567
889.4622, 3.059945
889.9443, 2.999868
890.4265, 3.647901
890.9086, 4.003661
891.3907, 3.715488
891.8728, 3.363132
892.3549, 3.297970
892.8370, 3.433839
893.3192, 3.569170
893.8013, 3.660016
894.2834, 3.753617
894.7655, 3.877213
895.2476, 4.009187
895.7297, 4.204564
896.2119, 4.365871
896.6940, 4.295456
897.1761, 3.989849
897.6582, 3.640890
898.1403, 3.356149
898.6224, 3.172540
899.1046, 3.214796
899.5867, 3.417085
900.0688, 3.453453
900.5509, 3.299367
901.0330, 3.229450
901.5151, 3.388057
901.9973, 3.612500
902.4794, 3.664352
902.9615, 3.543454
903.4436, 3.360447
903.9257, 2.987466
904.4078, 2.911752
904.8900, 3.511064
905.3721, 4.077222
905.8542, 3.941043
906.3363, 3.350839
906.8184, 3.092164
907.3005, 3.366070
907.7827, 3.507500
908.2648, 3.291826
908.7469, 3.087280
909.2290, 3.056002
909.7111, 3.147286
910.1932, 3.406178
910.6754, 3.758738
911.1575, 3.778608
911.6396, 2.923074
912.1217, 2.163262
912.6038, 2.498466
913.0859, 3.294089
913.5681, 3.689189
914.0502, 3.663103
914.5323, 3.527753
915.0144, 3.422880
915.4965, 3.353020
915.9786, 3.347872
916.4607, 3.377608
916.9428, 3.323560
917.4249, 3.192518
917.9070, 3.045495
918.3892, 2.883928
918.8713, 2.887854
919.3534, 3.248495
919.8355, 3.797387
920.3176, 3.998956
920.7997, 3.756196
921.2819, 3.525575
921.7640, 3.291332
922.2461, 3.109154
922.7282, 2.971675
923.2103, 2.921970
923.6924, 3.068522
924.1746, 3.396348
924.6567, 3.610425
925.1388, 3.714256
925.6209, 3.680994
926.1030, 3.356999
926.5851, 3.036319
927.0673, 2.897236
927.5494, 2.913164
928.0315, 3.052019
928.5136, 3.311835
928.9957, 3.487096
929.4778, 3.376342
929.9600, 3.231689
930.4421, 3.255231
930.9242, 3.383532
931.4063, 3.573599
931.8884, 3.767875
932.3705, 3.774544
932.8527, 3.456108
933.3348, 3.126941
933.8169, 3.267106
934.2990, 3.701528
934.7811, 3.981865
935.2632, 4.090263
935.7454, 4.059885
936.2275, 3.901164
936.7096, 3.669002
937.1917, 3.394854
937.6738, 3.123423
938.1559, 3.093781
938.6381, 3.372799
939.1202, 3.275917
939.6023, 2.571179
940.0844, 2.046656
940.5665, 2.171488
941.0486, 2.610054
941.5308, 2.854935
942.0129, 2.897939
942.4950, 2.839150
942.9771, 2.462548
943.4592, 2.312462
943.9413, 2.740214
944.4235, 3.139149
944.9056, 3.007919
945.3877, 2.598592
945.8698, 2.497302
946.3519, 2.853587
946.8340, 3.164176
947.3162, 3.287527
947.7983, 3.349580
948.2804, 3.446681
948.7625, 3.496555
949.2446, 3.338619
949.7267, 3.028492
950.2089, 2.820281
950.6910, 2.829208
951.1731, 2.955217
951.6552, 3.258365
952.1373, 3.533339
952.6194, 3.465473
953.1016, 3.159837
953.5837, 2.860436
954.0658, 2.660146
954.5479, 2.636138
955.0300, 2.909112
955.5121, 3.282890
955.9943, 3.352173
956.4764, 3.203950
956.9585, 3.202819
957.4406, 3.376755
957.9227, 3.563491
958.4048, 3.699675
958.8870, 3.656307
959.3691, 3.172843
959.8512, 2.357949
960.3333, 2.171765
960.8154, 2.721465
961.2975, 3.104077
961.7797, 3.130738
962.2618, 3.073991
962.7439, 3.127673
963.2260, 3.185132
963.7081, 2.969739
964.1902, 2.347187
964.6724, 2.184384
965.1545, 2.866150
965.6366, 3.366156
966.1187, 3.297619
966.6008, 3.111261
967.0829, 3.167871
967.5651, 3.384966
968.0472, 3.529410
968.5293, 3.660511
969.0114, 3.528032
969.4935, 2.631032
969.9756, 2.013066
970.4578, 2.406159
970.9399, 3.125492
971.4220, 3.436617
971.9041, 3.327596
972.3862, 3.168242
972.8683, 3.039364
973.3505, 2.980831
973.8326, 3.137866
974.3147, 3.261025
974.7968, 3.029561
975.2789, 2.636617
975.7610, 2.477996
976.2432, 2.606411
976.7253, 2.700538
977.2074, 2.504896
977.6895, 2.269355
978.1716, 2.288418
978.6537, 2.444068
979.1359, 2.506030
979.6180, 2.505772
980.1001, 2.685009
980.5822, 3.115972
981.0643, 3.495242
981.5464, 3.492172
982.0286, 3.246629
982.5107, 3.072498
982.9928, 2.949007
983.4749, 2.742821
983.9570, 2.446503
984.4391, 2.219579
984.9213, 2.142229
985.4034, 2.229221
985.8855, 2.572274
986.3676, 3.107961
986.8497, 3.222643
987.3318, 2.875753
987.8140, 2.571046
988.2961, 2.395606
988.7782, 2.316964
989.2603, 2.315554
989.7424, 2.397138
990.2245, 2.595947
990.7067, 2.944708
991.1888, 3.134947
991.6709, 3.103060
992.1530, 3.067940
992.6351, 3.063133
993.1172, 3.098858
993.5994, 3.239590
994.0815, 3.411220
994.5636, 3.356582
995.0457, 2.889618
995.5278, 2.722895
996.0099, 3.191494
996.4921, 3.519855
996.9742, 3.349500
997.4563, 3.099216
997.9384, 3.184504
998.4205, 3.494069
998.9026, 3.584404
999.3848, 3.274800
999.8669, 3.075222
1000.349, 3.202641
1000.831, 3.322568
1001.313, 3.295601
1001.795, 3.163185
1002.277, 2.836902
1002.760, 2.435885
1003.242, 2.465236
1003.724, 3.362146
1004.206, 3.997890
1004.688, 3.611015
1005.170, 3.007792
1005.652, 2.711765
1006.134, 2.665573
1006.617, 2.815810
1007.099, 3.078146
1007.581, 3.152883
1008.063, 2.781513
1008.545, 2.456536
1009.027, 2.747145
1009.509, 3.165466
1009.991, 3.042970
1010.473, 2.600644
1010.956, 2.396477
1011.438, 2.550968
1011.920, 2.814996
1012.402, 3.045734
1012.884, 3.243171
1013.366, 3.418274
1013.848, 3.554790
1014.330, 3.666533
1014.813, 3.712091
1015.295, 3.457986
1015.777, 2.881343
1016.259, 2.503124
1016.741, 2.860629
1017.223, 3.487023
1017.705, 3.501757
1018.187, 3.049219
1018.669, 2.517464
1019.152, 1.993207
1019.634, 1.831767
1020.116, 2.156322
1020.598, 2.558700
1021.080, 2.598278
1021.562, 2.441384
1022.044, 2.625209
1022.526, 3.099094
1023.008, 3.298918
1023.491, 3.169238
1023.973, 2.989361
1024.455, 2.868848
1024.937, 2.818123
1025.419, 2.867001
1025.901, 2.979410
1026.383, 2.941990
1026.865, 2.729634
1027.348, 2.818440
1027.830, 3.332331
1028.312, 3.645455
1028.794, 3.424300
1029.276, 3.049871
1029.758, 3.006140
1030.240, 3.244667
1030.722, 3.400189
1031.204, 3.481725
1031.687, 3.417858
1032.169, 3.142448
1032.651, 2.882953
1033.133, 2.707428
1033.615, 2.678245
1034.097, 2.953007
1034.579, 3.488402
1035.061, 3.563888
1035.544, 2.907216
1036.026, 2.511964
1036.508, 2.594884
1036.990, 2.682327
1037.472, 2.465686
1037.954, 2.238650
1038.436, 2.470652
1038.918, 3.134202
1039.401, 3.399065
1039.883, 2.901753
1040.365, 2.688727
1040.847, 3.100513
1041.329, 3.433385
1041.811, 3.310827
1042.293, 2.988673
1042.775, 2.746921
1043.257, 2.588197
1043.740, 2.592436
1044.222, 2.830697
1044.704, 3.121814
1045.186, 3.689191
1045.668, 4.039041
1046.150, 3.778157
1046.632, 3.297254
1047.114, 3.056821
1047.596, 3.057039
1048.079, 3.076109
1048.561, 3.153611
1049.043, 3.159146
1049.525, 2.937018
1050.007, 2.800932
1050.489, 3.012990
1050.971, 3.319795
1051.453, 3.382416
1051.936, 3.219353
1052.418, 3.158393
1052.900, 3.389680
1053.382, 3.489082
1053.864, 3.246497
1054.346, 3.000430
1054.828, 2.950366
1055.310, 2.978603
1055.792, 2.922116
1056.275, 2.792217
1056.757, 2.749638
1057.239, 2.941627
1057.721, 2.989282
1058.203, 2.654466
1058.685, 2.302836
1059.167, 2.090852
1059.649, 2.004597
1060.131, 2.054612
1060.614, 2.206349
1061.096, 2.326080
1061.578, 2.349384
1062.060, 2.416526
1062.542, 2.555354
1063.024, 2.772937
1063.506, 3.240973
1063.988, 3.671507
1064.471, 3.633980
1064.953, 3.245748
1065.435, 3.092459
1065.917, 3.449153
1066.399, 3.619721
1066.881, 3.117731
1067.363, 2.596143
1067.845, 2.419838
1068.328, 2.436213
1068.810, 2.492924
1069.292, 2.570490
1069.774, 2.709288
1070.256, 2.948692
1070.738, 3.083621
1071.220, 3.011896
1071.702, 2.825096
1072.184, 2.408497
1072.667, 2.035527
1073.149, 2.008668
1073.631, 2.269496
1074.113, 2.658856
1074.595, 3.162348
1075.077, 3.440577
1075.559, 3.087359
1076.041, 2.770704
1076.523, 3.011588
1077.006, 3.344190
1077.488, 3.299408
1077.970, 2.971405
1078.452, 2.611450
1078.934, 2.280353
1079.416, 2.131145
1079.898, 2.346067
1080.380, 2.614165
1080.862, 2.886873
1081.345, 3.039861
1081.827, 2.915687
1082.309, 2.607028
1082.791, 2.183778
1083.273, 1.700628
1083.755, 1.598443
1084.237, 2.446454
1084.719, 3.172632
1085.202, 3.168153
1085.684, 2.934539
1086.166, 2.809131
1086.648, 2.765985
1087.130, 2.728610
1087.612, 2.678843
1088.094, 2.594486
1088.576, 2.381406
1089.058, 2.304124
1089.541, 2.685921
1090.023, 3.022713
1090.505, 2.847816
1090.987, 2.482026
1091.469, 2.355125
1091.951, 2.481925
1092.433, 2.658410
1092.915, 2.882142
1093.397, 2.973011
1093.880, 2.699341
1094.362, 2.457470
1094.844, 2.570095
1095.326, 2.771365
1095.808, 2.733785
1096.290, 2.514660
1096.772, 2.395430
1097.254, 2.472915
1097.737, 2.499916
1098.219, 2.314404
1098.701, 2.160582
1099.183, 2.176670
1099.665, 2.248478
1100.147, 2.257803
1100.629, 2.242965
1101.111, 2.328408
1101.594, 2.547933
1102.076, 2.684975
1102.558, 2.685229
1103.040, 2.592084
1103.522, 2.304029
1104.004, 2.044084
1104.486, 1.939607
1104.968, 1.982500
1105.450, 2.173841
1105.932, 2.506839
1106.415, 2.842927
1106.897, 3.305019
1107.379, 3.544266
1107.861, 3.329925
1108.343, 3.064701
1108.825, 3.032750
1109.307, 3.013048
1109.789, 2.587046
1110.272, 1.854798
1110.754, 1.605093
1111.236, 2.286507
1111.718, 2.716989
1112.200, 2.578120
1112.682, 2.447299
1113.164, 2.586612
1113.646, 2.765868
1114.129, 2.768746
1114.611, 2.639075
1115.093, 2.530816
1115.575, 2.452756
1116.057, 2.374009
1116.539, 2.244033
1117.021, 2.191510
1117.503, 2.305312
1117.985, 2.424649
1118.468, 2.374662
1118.950, 2.305020
1119.432, 2.588212
1119.914, 3.298197
1120.396, 3.420074
1120.878, 2.494048
1121.360, 1.980710
1121.842, 2.193504
1122.324, 2.592568
1122.807, 3.055051
1123.289, 3.382092
1123.771, 3.263694
1124.253, 2.768418
1124.735, 2.486178
1125.217, 2.491798
1125.699, 2.416539
1126.181, 2.157928
1126.664, 2.126043
1127.146, 2.576682
1127.628, 2.976229
1128.110, 2.777580
1128.592, 2.232196
1129.074, 2.114616
1129.556, 2.483813
1130.038, 2.644605
1130.521, 2.570703
1131.003, 2.452531
1131.485, 2.317160
1131.967, 2.255135
1132.449, 2.335633
1132.931, 2.475133
1133.413, 2.518553
1133.895, 2.497862
1134.377, 2.700180
1134.859, 3.112553
1135.342, 3.280009
1135.824, 3.144503
1136.306, 2.867451
1136.788, 2.512912
1137.270, 2.257124
1137.752, 2.315671
1138.234, 2.549315
1138.716, 2.585382
1139.199, 2.492600
1139.681, 2.609348
1140.163, 2.908942
1140.645, 3.108968
1141.127, 3.136978
1141.609, 3.111425
1142.091, 3.108829
1142.573, 3.125182
1143.056, 3.228271
1143.538, 3.305315
1144.020, 3.033511
1144.502, 2.567269
1144.984, 2.289572
1145.466, 2.245876
1145.948, 2.344990
1146.430, 2.543435
1146.912, 2.729526
1147.395, 2.782155
1147.877, 2.798506
1148.359, 2.909801
1148.841, 3.040074
1149.323, 3.127303
1149.805, 3.128669
1150.287, 2.910763
1150.769, 2.495378
1151.251, 2.202916
1151.734, 2.222991
1152.216, 2.352477
1152.698, 2.562264
1153.180, 2.718026
1153.662, 2.700255
1154.144, 2.563659
1154.626, 2.279195
1155.108, 1.956118
1155.591, 1.939319
1156.073, 2.386851
1156.555, 2.704689
1157.037, 2.558379
1157.519, 2.409054
1158.001, 2.519915
1158.483, 2.625482
1158.965, 2.410523
1159.448, 2.098615
1159.930, 2.141845
1160.412, 2.567621
1160.894, 2.815629
1161.376, 2.683122
1161.858, 2.593906
1162.340, 2.639695
1162.822, 2.658669
1163.304, 2.486904
1163.786, 2.372182
1164.269, 2.659980
1164.751, 3.165790
1165.233, 3.215524
1165.715, 2.635006
1166.197, 2.384646
1166.679, 2.590425
1167.161, 2.785102
1167.643, 2.910260
1168.126, 2.894493
1168.608, 2.627407
1169.090, 2.359380
1169.572, 2.506937
1170.054, 2.987222
1170.536, 3.154149
1171.018, 2.996047
1171.500, 2.743618
1171.983, 2.404106
1172.465, 2.376610
1172.947, 2.818716
1173.429, 3.129517
1173.911, 2.754323
1174.393, 2.166341
1174.875, 2.417177
1175.357, 3.201343
1175.839, 3.249801
1176.322, 2.739372
1176.804, 2.500803
1177.286, 2.641755
1177.768, 2.847896
1178.250, 2.971869
1178.732, 3.017789
1179.214, 2.927222
1179.696, 2.846755
1180.178, 3.062477
1180.661, 3.358865
1181.143, 3.433299
1181.625, 3.293651
1182.107, 2.934539
1182.589, 2.432960
1183.071, 2.102731
1183.553, 2.110135
1184.035, 2.245579
1184.518, 2.550091
1185.000, 2.738476
1185.482, 2.451943
1185.964, 2.074040
1186.446, 2.052221
1186.928, 2.268460
1187.410, 2.343720
1187.892, 2.207878
1188.375, 2.221877
1188.857, 2.665013
1189.339, 2.972440
1189.821, 2.884374
1190.303, 2.806075
1190.785, 3.062755
1191.267, 3.324564
1191.749, 3.200508
1192.231, 2.784354
1192.714, 2.421467
1193.196, 2.072195
1193.678, 1.944760
1194.160, 2.128623
1194.642, 2.281859
1195.124, 2.306251
1195.606, 2.396323
1196.088, 2.697522
1196.570, 3.026702
1197.053, 3.113780
1197.535, 3.016330
1198.017, 3.056180
1198.499, 3.225481
1198.981, 3.132473
1199.463, 2.769664
1199.945, 2.631115
1200.427, 2.844680
1200.910, 2.962017
1201.392, 2.660414
1201.874, 2.226215
1202.356, 2.035978
1202.838, 2.026798
1203.320, 2.155104
1203.802, 2.321729
1204.284, 2.246534
1204.766, 1.994301
1205.249, 1.873583
1205.731, 1.970988
1206.213, 2.122407
1206.695, 2.253975
1207.177, 2.341083
1207.659, 2.286203
1208.141, 2.259183
1208.623, 2.463581
1209.105, 2.746091
1209.588, 2.943295
1210.070, 3.030831
1210.552, 2.977973
1211.034, 2.748040
1211.516, 2.679931
1211.998, 3.029443
1212.480, 3.289656
1212.962, 3.231101
1213.445, 3.179864
1213.927, 3.468119
1214.409, 3.718830
1214.891, 3.467353
1215.373, 2.827810
1215.855, 2.282046
1216.337, 1.766661
1216.819, 1.689181
1217.302, 2.216639
1217.784, 2.500370
1218.266, 2.306577
1218.748, 2.167769
1219.230, 2.410803
1219.712, 2.675467
1220.194, 2.443455
1220.676, 1.940629
1221.158, 1.911461
1221.641, 2.281267
1222.123, 2.742750
1222.605, 3.221435
1223.087, 3.486740
1223.569, 3.489521
1224.051, 3.298660
1224.533, 2.945621
1225.015, 2.555344
1225.497, 2.110756
1225.980, 1.837301
1226.462, 2.193329
1226.944, 2.731924
1227.426, 2.858766
1227.908, 2.693965
1228.390, 2.557647
1228.872, 2.515354
1229.354, 2.507746
1229.837, 2.508502
1230.319, 2.559149
1230.801, 2.731988
1231.283, 2.881726
1231.765, 3.016975
1232.247, 3.036012
1232.729, 2.671191
1233.211, 2.232508
1233.693, 2.351898
1234.176, 2.999741
1234.658, 3.287792
1235.140, 3.117567
1235.622, 2.865320
1236.104, 2.492686
1236.586, 2.211131
1237.068, 2.057054
1237.550, 2.159539
1238.032, 2.663073
1238.515, 3.256787
1238.997, 3.410608
1239.479, 3.217541
1239.961, 2.982322
1240.443, 2.745718
1240.925, 2.753863
1241.407, 2.959389
1241.889, 3.046165
1242.372, 2.933090
1242.854, 2.768598
1243.336, 2.642389
1243.818, 2.505980
1244.300, 2.177259
1244.782, 1.959691
1245.264, 2.242876
1245.746, 2.734712
1246.229, 3.214412
1246.711, 3.559419
1247.193, 3.553478
1247.675, 3.199138
1248.157, 2.880674
1248.639, 2.705535
1249.121, 2.544108
1249.603, 2.315048
1250.085, 2.180776
1250.568, 2.217061
1251.050, 2.333184
1251.532, 2.499379
1252.014, 2.682567
1252.496, 2.840229
1252.978, 2.965629
1253.460, 2.933765
1253.942, 2.704446
1254.424, 2.854387
1254.907, 3.439834
1255.389, 3.709804
1255.871, 3.460545
1256.353, 2.994458
1256.835, 2.482641
1257.317, 2.158598
1257.799, 2.433228
1258.281, 2.979866
1258.764, 3.270792
1259.246, 3.367240
1259.728, 3.376343
1260.210, 3.290300
1260.692, 2.959138
1261.174, 2.459215
1261.656, 2.250349
1262.138, 2.569269
1262.620, 2.892463
1263.103, 3.036636
1263.585, 3.052396
1264.067, 2.861979
1264.549, 2.658215
1265.031, 2.609525
1265.513, 2.603337
1265.995, 2.387800
1266.477, 2.058388
1266.959, 2.159362
1267.442, 2.870659
1267.924, 3.263469
1268.406, 3.287585
1268.888, 3.224382
1269.370, 3.125048
1269.852, 2.922511
1270.334, 2.566396
1270.816, 2.287295
1271.299, 2.345201
1271.781, 2.605627
1272.263, 2.883183
1272.745, 3.108565
1273.227, 3.082854
1273.709, 2.872993
1274.191, 2.588048
1274.673, 2.304215
1275.156, 2.158196
1275.638, 2.195678
1276.120, 2.373471
1276.602, 2.799327
1277.084, 3.129753
1277.566, 3.140196
1278.048, 3.067508
1278.530, 2.985367
1279.012, 2.947536
1279.495, 3.050831
1279.977, 3.218719
1280.459, 3.284106
1280.941, 3.247755
1281.423, 3.055292
1281.905, 2.611192
1282.387, 2.390710
1282.869, 2.460830
1283.351, 2.548352
1283.834, 2.573207
1284.316, 2.590035
1284.798, 2.629864
1285.280, 2.733544
1285.762, 2.950458
1286.244, 3.283679
##END=



