##NAMES=Tsumgallite
##RRUFFID=R100125
##IDEAL CHEMISTRY=GaOOH
##LOCALITY=Tsumeb, Namibia
##OWNER=RRUFF
##SOURCE=William W. Pinch
##DESCRIPTION=Pale green platy crystals, associated with galena and tennantite
##STATUS=The identification of this mineral has been confirmed by X-ray diffraction.
##URL=rruff.info/R100125
170.5845, 5.007509
171.0666, 5.057253
171.5487, 5.109989
172.0309, 5.164694
172.5130, 5.204543
172.9951, 5.205231
173.4772, 5.185656
173.9593, 5.175187
174.4414, 5.174089
174.9236, 5.192929
175.4057, 5.251737
175.8878, 5.351000
176.3699, 5.455275
176.8520, 5.540487
177.3341, 5.609693
177.8163, 5.669528
178.2984, 5.726598
178.7805, 5.774430
179.2626, 5.794756
179.7447, 5.784419
180.2268, 5.776423
180.7090, 5.804837
181.1911, 5.862726
181.6732, 5.929380
182.1553, 6.005359
182.6374, 6.082169
183.1195, 6.138808
183.6017, 6.174510
184.0838, 6.196710
184.5659, 6.207410
185.0480, 6.209721
185.5301, 6.220293
186.0123, 6.250894
186.4944, 6.296211
186.9765, 6.336027
187.4586, 6.367200
187.9407, 6.402875
188.4228, 6.466124
188.9050, 6.554218
189.3871, 6.643351
189.8692, 6.722151
190.3513, 6.791208
190.8334, 6.858037
191.3155, 6.925816
191.7977, 6.983305
192.2798, 7.013833
192.7619, 7.017686
193.2440, 6.999818
193.7261, 6.958512
194.2082, 6.895320
194.6904, 6.824361
195.1725, 6.745767
195.6546, 6.661059
196.1367, 6.580307
196.6188, 6.504721
197.1009, 6.414070
197.5831, 6.286287
198.0652, 6.120477
198.5473, 5.982562
199.0294, 5.878949
199.5115, 5.800291
199.9937, 5.727703
200.4758, 5.661048
200.9579, 5.605598
201.4400, 5.570032
201.9221, 5.556333
202.4042, 5.533236
202.8864, 5.497448
203.3685, 5.452850
203.8506, 5.408224
204.3327, 5.364434
204.8148, 5.318772
205.2969, 5.265648
205.7791, 5.201620
206.2612, 5.155434
206.7433, 5.130928
207.2254, 5.123355
207.7075, 5.123365
208.1896, 5.134281
208.6718, 5.143147
209.1539, 5.139998
209.6360, 5.120310
210.1181, 5.111652
210.6002, 5.115639
211.0823, 5.131434
211.5645, 5.162610
212.0466, 5.221820
212.5287, 5.267065
213.0108, 5.268514
213.4929, 5.209505
213.9750, 5.173943
214.4572, 5.173140
214.9393, 5.195901
215.4214, 5.208738
215.9035, 5.207179
216.3856, 5.204813
216.8678, 5.209695
217.3499, 5.225114
217.8320, 5.236855
218.3141, 5.243873
218.7962, 5.246667
219.2783, 5.245731
219.7605, 5.237679
220.2426, 5.231731
220.7247, 5.232347
221.2068, 5.239329
221.6889, 5.252681
222.1710, 5.270640
222.6532, 5.295388
223.1353, 5.338251
223.6174, 5.420910
224.0995, 5.486468
224.5816, 5.498795
225.0637, 5.422768
225.5459, 5.384988
226.0280, 5.401467
226.5101, 5.455935
226.9922, 5.497065
227.4743, 5.514045
227.9564, 5.535243
228.4386, 5.579693
228.9207, 5.669575
229.4028, 5.724862
229.8849, 5.729089
230.3670, 5.701836
230.8492, 5.699586
231.3313, 5.736162
231.8134, 5.776730
232.2955, 5.804275
232.7776, 5.806196
233.2597, 5.823171
233.7419, 5.855303
234.2240, 5.902856
234.7061, 5.970660
235.1882, 6.084906
235.6703, 6.179690
236.1524, 6.219546
236.6346, 6.157223
237.1167, 6.150512
237.5988, 6.220736
238.0809, 6.338276
238.5630, 6.435220
239.0451, 6.498160
239.5273, 6.559390
240.0094, 6.629326
240.4915, 6.702484
240.9736, 6.800565
241.4557, 6.934716
241.9378, 7.089135
242.4200, 7.230688
242.9021, 7.355850
243.3842, 7.475650
243.8663, 7.591163
244.3484, 7.693728
244.8306, 7.820065
245.3127, 7.981464
245.7948, 8.159471
246.2769, 8.317330
246.7590, 8.436955
247.2411, 8.564511
247.7233, 8.720380
248.2054, 8.918461
248.6875, 9.092410
249.1696, 9.229326
249.6517, 9.349300
250.1338, 9.482949
250.6160, 9.631998
251.0981, 9.792183
251.5802, 9.958070
252.0623, 10.12636
252.5444, 10.32590
253.0265, 10.57470
253.5087, 10.83873
253.9908, 11.06081
254.4729, 11.21783
254.9550, 11.38366
255.4371, 11.58644
255.9192, 11.83244
256.4014, 12.05155
256.8835, 12.24790
257.3656, 12.41323
257.8477, 12.54047
258.3298, 12.62085
258.8120, 12.68333
259.2941, 12.73706
259.7762, 12.78309
260.2583, 12.80301
260.7404, 12.79589
261.2225, 12.76369
261.7047, 12.70866
262.1868, 12.63190
262.6689, 12.52650
263.1510, 12.38035
263.6331, 12.19619
264.1152, 12.03416
264.5974, 11.90730
265.0795, 11.78393
265.5616, 11.62728
266.0437, 11.41005
266.5258, 11.24370
267.0079, 11.15803
267.4901, 11.14408
267.9722, 11.12710
268.4543, 11.10097
268.9364, 11.08430
269.4185, 11.09037
269.9006, 11.11865
270.3828, 11.17513
270.8649, 11.27324
271.3470, 11.39948
271.8291, 11.48972
272.3112, 11.53715
272.7933, 11.56822
273.2755, 11.60257
273.7576, 11.64243
274.2397, 11.67336
274.7218, 11.70501
275.2039, 11.71956
275.6860, 11.65627
276.1682, 11.50301
276.6503, 11.31549
277.1324, 11.12809
277.6145, 10.94461
278.0966, 10.73315
278.5787, 10.48450
279.0609, 10.21658
279.5430, 9.958986
280.0251, 9.711697
280.5072, 9.484617
280.9893, 9.292612
281.4715, 9.137074
281.9536, 8.960527
282.4357, 8.755301
282.9178, 8.538335
283.3999, 8.333710
283.8820, 8.140875
284.3642, 7.966328
284.8463, 7.820772
285.3284, 7.700404
285.8105, 7.568491
286.2926, 7.420709
286.7747, 7.271401
287.2569, 7.136111
287.7390, 7.014949
288.2211, 6.913073
288.7032, 6.844687
289.1853, 6.799330
289.6674, 6.719688
290.1496, 6.599246
290.6317, 6.484881
291.1138, 6.447910
291.5959, 6.475038
292.0780, 6.472795
292.5602, 6.390238
293.0423, 6.265124
293.5244, 6.200389
294.0065, 6.198602
294.4886, 6.206957
294.9707, 6.174534
295.4529, 6.111329
295.9350, 6.055034
296.4171, 6.019601
296.8992, 5.991719
297.3813, 5.940185
297.8634, 5.868146
298.3456, 5.809135
298.8277, 5.801209
299.3098, 5.825007
299.7919, 5.839108
300.2740, 5.835178
300.7561, 5.817624
301.2383, 5.778332
301.7204, 5.724426
302.2025, 5.691284
302.6846, 5.726404
303.1667, 5.788889
303.6488, 5.813216
304.1310, 5.780751
304.6131, 5.735878
305.0952, 5.717449
305.5773, 5.721282
306.0594, 5.736021
306.5415, 5.772894
307.0237, 5.809117
307.5058, 5.813515
307.9879, 5.777977
308.4700, 5.746587
308.9521, 5.765428
309.4343, 5.810184
309.9164, 5.838399
310.3985, 5.806336
310.8806, 5.768260
311.3627, 5.769747
311.8448, 5.813194
312.3270, 5.860779
312.8091, 5.890357
313.2912, 5.911219
313.7733, 5.934342
314.2554, 5.969082
314.7375, 6.002361
315.2197, 6.028305
315.7018, 6.047206
316.1839, 6.059978
316.6660, 6.058187
317.1481, 6.055122
317.6302, 6.062248
318.1124, 6.096058
318.5945, 6.123310
319.0766, 6.130859
319.5587, 6.122467
320.0408, 6.111473
320.5229, 6.101285
321.0051, 6.090168
321.4872, 6.076673
321.9693, 6.058227
322.4514, 6.042134
322.9335, 6.029708
323.4156, 6.020645
323.8978, 6.014352
324.3799, 6.020036
324.8620, 6.020409
325.3441, 6.006145
325.8262, 5.968449
326.3083, 5.942395
326.7905, 5.942027
327.2726, 5.951016
327.7547, 5.949279
328.2368, 5.921389
328.7189, 5.898057
329.2010, 5.884306
329.6832, 5.880418
330.1653, 5.884401
330.6474, 5.905893
331.1295, 5.928322
331.6116, 5.938160
332.0938, 5.928318
332.5759, 5.916770
333.0580, 5.903143
333.5401, 5.888558
334.0222, 5.884773
334.5043, 5.905787
334.9865, 5.918266
335.4686, 5.898824
335.9507, 5.831115
336.4328, 5.775505
336.9149, 5.736297
337.3970, 5.709956
337.8792, 5.689217
338.3613, 5.675099
338.8434, 5.662865
339.3255, 5.648232
339.8076, 5.629317
340.2898, 5.626225
340.7719, 5.646320
341.2540, 5.669728
341.7361, 5.661247
342.2182, 5.616849
342.7003, 5.580954
343.1825, 5.572526
343.6646, 5.586981
344.1467, 5.594257
344.6288, 5.593573
345.1109, 5.589894
345.5930, 5.588181
346.0752, 5.588138
346.5573, 5.586588
347.0394, 5.581645
347.5215, 5.575564
348.0036, 5.572656
348.4857, 5.572925
348.9679, 5.576747
349.4500, 5.584946
349.9321, 5.597021
350.4142, 5.614447
350.8963, 5.642065
351.3784, 5.663503
351.8606, 5.648929
352.3427, 5.607059
352.8248, 5.569628
353.3069, 5.565096
353.7890, 5.571926
354.2711, 5.557028
354.7533, 5.515701
355.2354, 5.473738
355.7175, 5.443809
356.1996, 5.429696
356.6817, 5.437996
357.1638, 5.501163
357.6460, 5.566186
358.1281, 5.589800
358.6102, 5.574039
359.0923, 5.551503
359.5744, 5.537363
360.0565, 5.526886
360.5387, 5.515191
361.0208, 5.496214
361.5029, 5.481655
361.9850, 5.479089
362.4671, 5.485558
362.9492, 5.492057
363.4314, 5.491606
363.9135, 5.493161
364.3956, 5.502769
364.8777, 5.525921
365.3598, 5.546094
365.8419, 5.563599
366.3241, 5.575310
366.8062, 5.576307
367.2883, 5.535261
367.7704, 5.512955
368.2526, 5.537132
368.7347, 5.621901
369.2168, 5.673001
369.6989, 5.653978
370.1810, 5.622725
370.6631, 5.628509
371.1453, 5.713564
371.6274, 5.772449
372.1095, 5.785090
372.5916, 5.758816
373.0737, 5.741562
373.5558, 5.733418
374.0380, 5.733864
374.5201, 5.745497
375.0022, 5.775108
375.4843, 5.792605
375.9664, 5.794939
376.4485, 5.786510
376.9307, 5.772910
377.4128, 5.751178
377.8949, 5.737554
378.3770, 5.743345
378.8591, 5.766982
379.3412, 5.775701
379.8234, 5.766875
380.3055, 5.752114
380.7876, 5.746175
381.2697, 5.748236
381.7518, 5.743626
382.2339, 5.725540
382.7161, 5.700751
383.1982, 5.683558
383.6803, 5.674058
384.1624, 5.670602
384.6445, 5.677215
385.1266, 5.688930
385.6088, 5.691086
386.0909, 5.678282
386.5730, 5.665705
387.0551, 5.669825
387.5372, 5.688434
388.0193, 5.715518
388.5015, 5.765478
388.9836, 5.812737
389.4657, 5.824988
389.9478, 5.799666
390.4299, 5.768111
390.9120, 5.736759
391.3942, 5.716121
391.8763, 5.720091
392.3584, 5.786185
392.8405, 5.846625
393.3226, 5.856636
393.8047, 5.827379
394.2869, 5.809896
394.7690, 5.830422
395.2511, 5.864569
395.7332, 5.899912
396.2154, 5.942941
396.6975, 5.969316
397.1796, 5.950160
397.6617, 5.915064
398.1438, 5.914661
398.6259, 5.994498
399.1081, 6.071652
399.5902, 6.118393
400.0723, 6.127631
400.5544, 6.154599
401.0365, 6.208018
401.5186, 6.272782
402.0008, 6.337044
402.4829, 6.405960
402.9650, 6.464922
403.4471, 6.509898
403.9292, 6.543819
404.4113, 6.577715
404.8935, 6.611620
405.3756, 6.645855
405.8577, 6.679688
406.3398, 6.712007
406.8219, 6.747688
407.3040, 6.782578
407.7862, 6.829247
408.2683, 6.919669
408.7504, 7.055931
409.2325, 7.168241
409.7146, 7.220165
410.1967, 7.232843
410.6789, 7.279646
411.1610, 7.361270
411.6431, 7.460744
412.1252, 7.575329
412.6073, 7.696499
413.0894, 7.794431
413.5716, 7.851922
414.0537, 7.904992
414.5358, 8.002633
415.0179, 8.133155
415.5000, 8.261963
415.9821, 8.354343
416.4643, 8.442211
416.9464, 8.569081
417.4285, 8.740697
417.9106, 8.897577
418.3927, 8.977656
418.8748, 9.029154
419.3570, 9.107846
419.8391, 9.260022
420.3212, 9.417206
420.8033, 9.559525
421.2854, 9.685764
421.7675, 9.793869
422.2497, 9.861455
422.7318, 9.927338
423.2139, 10.01500
423.6960, 10.14707
424.1781, 10.25705
424.6602, 10.31543
425.1424, 10.35347
425.6245, 10.41724
426.1066, 10.54665
426.5887, 10.65047
427.0709, 10.70471
427.5530, 10.70936
428.0351, 10.70918
428.5172, 10.70434
428.9993, 10.69412
429.4814, 10.68250
429.9636, 10.67779
430.4457, 10.63704
430.9278, 10.54992
431.4099, 10.43159
431.8920, 10.31271
432.3741, 10.19209
432.8563, 10.07207
433.3384, 9.959209
433.8205, 9.849294
434.3026, 9.717684
434.7847, 9.563107
435.2668, 9.393017
435.7490, 9.204009
436.2311, 9.002668
436.7132, 8.819858
437.1953, 8.667470
437.6774, 8.531284
438.1595, 8.396136
438.6417, 8.260267
439.1238, 8.116306
439.6059, 7.930755
440.0880, 7.749756
440.5701, 7.636961
441.0522, 7.609871
441.5344, 7.571827
442.0165, 7.445240
442.4986, 7.278109
442.9807, 7.129780
443.4628, 7.028518
443.9449, 6.941157
444.4271, 6.857004
444.9092, 6.776306
445.3913, 6.701184
445.8734, 6.637043
446.3555, 6.576518
446.8376, 6.517226
447.3198, 6.464007
447.8019, 6.401101
448.2840, 6.312984
448.7661, 6.221955
449.2482, 6.160692
449.7303, 6.147210
450.2125, 6.133860
450.6946, 6.109468
451.1767, 6.075067
451.6588, 6.049663
452.1409, 6.039093
452.6230, 6.023653
453.1052, 5.981541
453.5873, 5.908355
454.0694, 5.866267
454.5515, 5.866808
455.0337, 5.886188
455.5158, 5.887226
455.9979, 5.870650
456.4800, 5.847116
456.9621, 5.814356
457.4442, 5.779588
457.9264, 5.764484
458.4085, 5.768298
458.8906, 5.768732
459.3727, 5.740561
459.8548, 5.698890
460.3369, 5.669260
460.8191, 5.660195
461.3012, 5.656361
461.7833, 5.642539
462.2654, 5.624891
462.7475, 5.616198
463.2296, 5.634040
463.7118, 5.652386
464.1939, 5.655691
464.6760, 5.642863
465.1581, 5.628293
465.6402, 5.613357
466.1223, 5.600140
466.6045, 5.590288
467.0866, 5.583789
467.5687, 5.580839
468.0508, 5.588694
468.5329, 5.599283
469.0150, 5.593314
469.4972, 5.556553
469.9793, 5.525130
470.4614, 5.512982
470.9435, 5.521544
471.4256, 5.519310
471.9077, 5.500499
472.3899, 5.482621
472.8720, 5.487120
473.3541, 5.517488
473.8362, 5.527208
474.3183, 5.505430
474.8004, 5.467194
475.2826, 5.440003
475.7647, 5.423400
476.2468, 5.411151
476.7289, 5.400595
477.2110, 5.391957
477.6931, 5.384431
478.1753, 5.377964
478.6574, 5.377635
479.1395, 5.391440
479.6216, 5.412980
480.1037, 5.434756
480.5858, 5.461516
481.0680, 5.475602
481.5501, 5.450076
482.0322, 5.403598
482.5143, 5.375307
482.9964, 5.400900
483.4786, 5.430676
483.9607, 5.438556
484.4428, 5.421004
484.9249, 5.409674
485.4070, 5.412525
485.8892, 5.422606
486.3713, 5.435764
486.8534, 5.466773
487.3355, 5.478161
487.8176, 5.460641
488.2997, 5.425777
488.7819, 5.394765
489.2640, 5.360387
489.7461, 5.346679
490.2282, 5.365577
490.7103, 5.415249
491.1924, 5.466088
491.6746, 5.521854
492.1567, 5.564504
492.6388, 5.566137
493.1209, 5.533233
493.6030, 5.524452
494.0851, 5.550838
494.5673, 5.594170
495.0494, 5.637883
495.5315, 5.678514
496.0136, 5.702057
496.4957, 5.674250
496.9778, 5.642736
497.4600, 5.671661
497.9421, 5.755087
498.4242, 5.832557
498.9063, 5.863358
499.3884, 5.875401
499.8705, 5.891864
500.3527, 5.915375
500.8348, 5.947876
501.3169, 6.005788
501.7990, 6.068373
502.2811, 6.106617
502.7632, 6.070973
503.2454, 6.057696
503.7275, 6.093508
504.2096, 6.174296
504.6917, 6.261952
505.1738, 6.377905
505.6559, 6.470644
506.1381, 6.501935
506.6202, 6.446367
507.1023, 6.436241
507.5844, 6.482583
508.0665, 6.554471
508.5486, 6.609834
509.0308, 6.648396
509.5129, 6.693185
509.9950, 6.754173
510.4771, 6.821206
510.9592, 6.870378
511.4413, 6.903227
511.9235, 6.937610
512.4056, 6.994516
512.8877, 7.056141
513.3698, 7.094359
513.8519, 7.105950
514.3340, 7.110763
514.8162, 7.124743
515.2983, 7.139761
515.7804, 7.145914
516.2625, 7.135690
516.7446, 7.122077
517.2267, 7.105845
517.7089, 7.090129
518.1910, 7.082745
518.6731, 7.107643
519.1552, 7.120415
519.6373, 7.102701
520.1194, 7.052296
520.6016, 6.997499
521.0837, 6.933228
521.5658, 6.870824
522.0479, 6.821574
522.5300, 6.794108
523.0121, 6.747073
523.4943, 6.670034
523.9764, 6.582489
524.4585, 6.519401
524.9406, 6.482162
525.4227, 6.452538
525.9048, 6.432309
526.3870, 6.411423
526.8691, 6.356425
527.3513, 6.269387
527.8334, 6.185406
528.3155, 6.134424
528.7976, 6.099688
529.2797, 6.056214
529.7618, 5.999574
530.2440, 5.940941
530.7261, 5.879083
531.2082, 5.823026
531.6903, 5.785448
532.1724, 5.802778
532.6545, 5.804422
533.1367, 5.747141
533.6188, 5.651924
534.1009, 5.591865
534.5830, 5.627337
535.0651, 5.652151
535.5472, 5.626432
536.0294, 5.540498
536.5115, 5.471656
536.9936, 5.421709
537.4757, 5.386353
537.9578, 5.367067
538.4399, 5.368322
538.9221, 5.354062
539.4042, 5.315515
539.8863, 5.268525
540.3684, 5.245456
540.8505, 5.243807
541.3326, 5.232956
541.8148, 5.188873
542.2969, 5.134955
542.7790, 5.116286
543.2611, 5.129465
543.7432, 5.146290
544.2253, 5.156651
544.7075, 5.156209
545.1896, 5.136292
545.6717, 5.091852
546.1538, 5.050347
546.6359, 5.036098
547.1180, 5.027191
547.6002, 5.000489
548.0823, 4.904809
548.5644, 4.843636
549.0465, 4.856942
549.5286, 4.918965
550.0107, 4.954854
550.4929, 4.951235
550.9750, 4.941300
551.4571, 4.934469
551.9392, 4.930714
552.4213, 4.927731
552.9034, 4.927046
553.3856, 4.922330
553.8677, 4.906953
554.3498, 4.881735
554.8319, 4.854502
555.3140, 4.824007
555.7961, 4.799066
556.2783, 4.799897
556.7604, 4.816647
557.2425, 4.820657
557.7246, 4.790862
558.2067, 4.754786
558.6888, 4.744179
559.1710, 4.751221
559.6531, 4.749391
560.1352, 4.715540
560.6173, 4.677141
561.0994, 4.646600
561.5815, 4.623638
562.0637, 4.619800
562.5458, 4.657381
563.0279, 4.701939
563.5100, 4.728780
563.9921, 4.730079
564.4742, 4.726709
564.9564, 4.717709
565.4385, 4.705293
565.9206, 4.692010
566.4027, 4.676822
566.8848, 4.666246
567.3669, 4.662462
567.8491, 4.664486
568.3312, 4.672429
568.8133, 4.685881
569.2954, 4.694716
569.7775, 4.681096
570.2596, 4.661583
570.7418, 4.677691
571.2239, 4.733531
571.7060, 4.772951
572.1881, 4.721156
572.6702, 4.644091
573.1523, 4.617064
573.6345, 4.683007
574.1166, 4.757640
574.5987, 4.823641
575.0808, 4.874909
575.5629, 4.902110
576.0450, 4.859941
576.5272, 4.843016
577.0093, 4.888003
577.4914, 4.979918
577.9735, 5.013204
578.4556, 4.955097
578.9377, 4.905705
579.4199, 4.923682
579.9020, 5.010562
580.3841, 5.063236
580.8662, 5.077031
581.3483, 5.081530
581.8304, 5.102286
582.3126, 5.137597
582.7947, 5.185057
583.2768, 5.249417
583.7589, 5.309859
584.2410, 5.337418
584.7231, 5.345262
585.2053, 5.359471
585.6874, 5.381043
586.1696, 5.421036
586.6517, 5.502595
587.1338, 5.613026
587.6159, 5.696773
588.0980, 5.703047
588.5801, 5.711712
589.0623, 5.758096
589.5444, 5.846782
590.0265, 5.943837
590.5086, 6.062221
590.9907, 6.172434
591.4728, 6.247292
591.9550, 6.279366
592.4371, 6.320136
592.9192, 6.372832
593.4013, 6.435562
593.8834, 6.512376
594.3655, 6.599826
594.8477, 6.675691
595.3298, 6.731001
595.8119, 6.772617
596.2940, 6.801174
596.7761, 6.821593
597.2582, 6.851250
597.7404, 6.918575
598.2225, 6.983368
598.7046, 7.012931
599.1867, 7.005586
599.6688, 6.999633
600.1509, 7.007707
600.6331, 7.019727
601.1152, 7.032856
601.5973, 7.063566
602.0794, 7.052554
602.5615, 6.969946
603.0436, 6.874324
603.5258, 6.843057
604.0079, 6.894906
604.4900, 6.909088
604.9721, 6.860540
605.4542, 6.773766
605.9363, 6.698595
606.4185, 6.632835
606.9006, 6.549060
607.3827, 6.422811
607.8648, 6.280705
608.3469, 6.158751
608.8290, 6.055920
609.3112, 5.973100
609.7933, 5.931954
610.2754, 5.894944
610.7575, 5.823570
611.2396, 5.707575
611.7217, 5.617460
612.2039, 5.614490
612.6860, 5.619553
613.1681, 5.569410
613.6502, 5.411963
614.1323, 5.288371
614.6144, 5.206308
615.0966, 5.154196
615.5787, 5.120578
616.0608, 5.110960
616.5429, 5.083728
617.0250, 5.023214
617.5071, 4.946503
617.9893, 4.895988
618.4714, 4.868412
618.9535, 4.839927
619.4356, 4.790878
619.9177, 4.737076
620.3998, 4.699389
620.8820, 4.676823
621.3641, 4.657871
621.8462, 4.642723
622.3283, 4.623790
622.8104, 4.592682
623.2925, 4.542705
623.7747, 4.502923
624.2568, 4.478332
624.7389, 4.466351
625.2210, 4.468241
625.7031, 4.505306
626.1852, 4.506670
626.6674, 4.457771
627.1495, 4.384163
627.6316, 4.319512
628.1137, 4.262907
628.5958, 4.241024
629.0779, 4.274802
629.5601, 4.332527
630.0422, 4.351890
630.5243, 4.338510
631.0064, 4.319604
631.4885, 4.305336
631.9706, 4.295952
632.4528, 4.293068
632.9349, 4.296279
633.4170, 4.300502
633.8991, 4.316245
634.3812, 4.322721
634.8633, 4.303395
635.3455, 4.243926
635.8276, 4.199712
636.3097, 4.171966
636.7918, 4.159947
637.2739, 4.168630
637.7560, 4.208534
638.2382, 4.223276
638.7203, 4.201331
639.2024, 4.166005
639.6845, 4.151869
640.1666, 4.156963
640.6487, 4.167070
641.1309, 4.182650
641.6130, 4.194307
642.0951, 4.178831
642.5772, 4.147260
643.0594, 4.131517
643.5415, 4.161589
644.0236, 4.199399
644.5057, 4.227447
644.9879, 4.244613
645.4700, 4.247923
645.9521, 4.223449
646.4342, 4.197136
646.9163, 4.179702
647.3984, 4.171750
647.8806, 4.168016
648.3627, 4.167389
648.8448, 4.173230
649.3269, 4.192849
649.8090, 4.226256
650.2911, 4.250019
650.7733, 4.264411
651.2554, 4.261916
651.7375, 4.210979
652.2196, 4.136889
652.7017, 4.104670
653.1838, 4.148473
653.6660, 4.207314
654.1481, 4.239706
654.6302, 4.253344
655.1123, 4.262222
655.5944, 4.273250
656.0765, 4.277282
656.5587, 4.267251
657.0408, 4.246546
657.5229, 4.229626
658.0050, 4.208378
658.4871, 4.206952
658.9692, 4.247792
659.4514, 4.322701
659.9335, 4.329333
660.4156, 4.259908
660.8977, 4.186718
661.3798, 4.159657
661.8619, 4.169377
662.3441, 4.199915
662.8262, 4.251239
663.3083, 4.289694
663.7904, 4.274232
664.2725, 4.238384
664.7546, 4.220249
665.2368, 4.234415
665.7189, 4.247782
666.2010, 4.249661
666.6831, 4.244964
667.1652, 4.238897
667.6473, 4.228140
668.1295, 4.221270
668.6116, 4.214205
669.0937, 4.214796
669.5758, 4.245243
670.0579, 4.310243
670.5400, 4.360149
671.0222, 4.376462
671.5043, 4.372963
671.9864, 4.377248
672.4685, 4.387770
672.9506, 4.397130
673.4327, 4.398747
673.9149, 4.398919
674.3970, 4.395446
674.8791, 4.391879
675.3612, 4.411468
675.8433, 4.501793
676.3254, 4.585593
676.8076, 4.614641
677.2897, 4.574697
677.7718, 4.557668
678.2539, 4.574798
678.7360, 4.599551
679.2181, 4.612801
679.7003, 4.612363
680.1824, 4.622884
680.6645, 4.645311
681.1466, 4.677704
681.6287, 4.727879
682.1108, 4.786508
682.5930, 4.824057
683.0751, 4.830908
683.5572, 4.829994
684.0393, 4.842335
684.5214, 4.858819
685.0035, 4.866530
685.4857, 4.852429
685.9678, 4.839241
686.4499, 4.830711
686.9320, 4.827262
687.4141, 4.828435
687.8962, 4.829011
688.3784, 4.846101
688.8605, 4.892561
689.3426, 4.954536
689.8247, 4.982274
690.3068, 4.975117
690.7889, 4.958048
691.2711, 4.938911
691.7532, 4.920087
692.2353, 4.909757
692.7174, 4.906163
693.1995, 4.897619
693.6816, 4.879901
694.1638, 4.852408
694.6459, 4.806732
695.1280, 4.741145
695.6101, 4.696206
696.0922, 4.705121
696.5743, 4.718217
697.0565, 4.709794
697.5386, 4.677234
698.0207, 4.628638
698.5028, 4.551738
698.9849, 4.484890
699.4670, 4.484413
699.9492, 4.539713
700.4313, 4.524459
700.9135, 4.412024
701.3956, 4.298054
701.8777, 4.308364
702.3598, 4.383364
702.8419, 4.420228
703.3240, 4.378433
703.8062, 4.318416
704.2883, 4.264397
704.7704, 4.213539
705.2525, 4.162817
705.7346, 4.096368
706.2167, 4.050261
706.6989, 4.034973
707.1810, 4.039029
707.6631, 4.043565
708.1452, 4.053770
708.6273, 4.030340
709.1094, 3.946258
709.5916, 3.836273
710.0737, 3.780443
710.5558, 3.772587
711.0379, 3.778077
711.5200, 3.795460
712.0021, 3.805158
712.4843, 3.783596
712.9664, 3.736210
713.4485, 3.692501
713.9306, 3.668223
714.4127, 3.646034
714.8948, 3.614694
715.3770, 3.573369
715.8591, 3.549559
716.3412, 3.548053
716.8233, 3.554721
717.3054, 3.568778
717.7875, 3.589063
718.2697, 3.575776
718.7518, 3.526470
719.2339, 3.475667
719.7160, 3.452047
720.1981, 3.446763
720.6802, 3.449249
721.1624, 3.459360
721.6445, 3.463548
722.1266, 3.455073
722.6087, 3.436332
723.0908, 3.407761
723.5729, 3.359529
724.0551, 3.322617
724.5372, 3.298517
725.0193, 3.285986
725.5014, 3.288633
725.9835, 3.311513
726.4656, 3.315488
726.9478, 3.291047
727.4299, 3.261493
727.9120, 3.268571
728.3941, 3.299090
728.8762, 3.309217
729.3583, 3.279721
729.8405, 3.241612
730.3226, 3.211778
730.8047, 3.192641
731.2868, 3.189046
731.7689, 3.226558
732.2510, 3.251337
732.7332, 3.244551
733.2153, 3.218663
733.6974, 3.196668
734.1795, 3.179062
734.6616, 3.163899
735.1437, 3.149251
735.6259, 3.138205
736.1080, 3.142277
736.5901, 3.159771
737.0722, 3.175903
737.5543, 3.189684
738.0364, 3.193706
738.5186, 3.169133
739.0007, 3.125203
739.4828, 3.094151
739.9649, 3.101018
740.4470, 3.113216
740.9291, 3.119578
741.4113, 3.119072
741.8934, 3.108566
742.3755, 3.079268
742.8576, 3.055856
743.3397, 3.048931
743.8218, 3.056904
744.3040, 3.073060
744.7861, 3.097893
745.2682, 3.107197
745.7503, 3.066524
746.2324, 3.006975
746.7145, 2.980117
747.1967, 2.986182
747.6788, 3.002022
748.1609, 3.036013
748.6430, 3.059144
749.1251, 3.046642
749.6072, 2.986188
750.0894, 2.942561
750.5715, 2.918141
751.0536, 2.910533
751.5357, 2.925516
752.0178, 2.966964
752.4999, 2.983038
752.9821, 2.971877
753.4642, 2.948129
753.9463, 2.917104
754.4284, 2.885555
754.9105, 2.867487
755.3926, 2.864948
755.8748, 2.871191
756.3569, 2.905064
756.8390, 2.931942
757.3211, 2.914817
757.8032, 2.807888
758.2853, 2.748989
758.7675, 2.771104
759.2496, 2.816943
759.7318, 2.836191
760.2139, 2.825759
760.6960, 2.808279
761.1781, 2.782416
761.6602, 2.761299
762.1423, 2.764190
762.6245, 2.784057
763.1066, 2.805894
763.5887, 2.829191
764.0708, 2.844273
764.5529, 2.842481
765.0350, 2.829196
765.5172, 2.810757
765.9993, 2.762710
766.4814, 2.746380
766.9635, 2.782315
767.4456, 2.837083
767.9277, 2.866869
768.4099, 2.868582
768.8920, 2.866741
769.3741, 2.864982
769.8562, 2.861458
770.3383, 2.855481
770.8204, 2.845545
771.3026, 2.825917
771.7847, 2.787138
772.2668, 2.752833
772.7489, 2.748202
773.2310, 2.756159
773.7131, 2.749982
774.1953, 2.703045
774.6774, 2.668646
775.1595, 2.652783
775.6416, 2.652121
776.1237, 2.662890
776.6058, 2.686573
777.0880, 2.712160
777.5701, 2.740824
778.0522, 2.762686
778.5343, 2.753252
779.0164, 2.722327
779.4985, 2.698418
779.9807, 2.697282
780.4628, 2.701687
780.9449, 2.701325
781.4270, 2.698904
781.9091, 2.700093
782.3912, 2.713886
782.8734, 2.721044
783.3555, 2.716537
783.8376, 2.704887
784.3197, 2.693885
784.8018, 2.682270
785.2839, 2.689182
785.7661, 2.732279
786.2482, 2.779872
786.7303, 2.768718
787.2124, 2.716773
787.6945, 2.674898
788.1766, 2.677016
788.6588, 2.684830
789.1409, 2.680450
789.6230, 2.666497
790.1051, 2.649739
790.5872, 2.616665
791.0693, 2.604155
791.5515, 2.626090
792.0336, 2.670007
792.5157, 2.702933
792.9978, 2.724893
793.4799, 2.732008
793.9620, 2.716297
794.4442, 2.692816
794.9263, 2.681810
795.4084, 2.681159
795.8905, 2.684717
796.3726, 2.701369
796.8547, 2.709452
797.3369, 2.690484
797.8190, 2.654705
798.3011, 2.637868
798.7832, 2.647683
799.2653, 2.662025
799.7474, 2.676546
800.2296, 2.691328
800.7117, 2.709992
801.1938, 2.731344
801.6759, 2.741824
802.1580, 2.728380
802.6401, 2.709238
803.1223, 2.708741
803.6044, 2.719589
804.0865, 2.722729
804.5686, 2.701853
805.0507, 2.682522
805.5328, 2.672805
806.0150, 2.670662
806.4971, 2.671471
806.9792, 2.676158
807.4613, 2.681039
807.9434, 2.685541
808.4255, 2.689131
808.9077, 2.689776
809.3898, 2.688189
809.8719, 2.687582
810.3540, 2.687882
810.8361, 2.691222
811.3182, 2.703212
811.8004, 2.719319
812.2825, 2.729118
812.7646, 2.730140
813.2467, 2.723346
813.7288, 2.702597
814.2109, 2.676835
814.6931, 2.672645
815.1752, 2.693203
815.6573, 2.705352
816.1394, 2.696746
816.6215, 2.679621
817.1037, 2.677520
817.5858, 2.683698
818.0679, 2.680103
818.5500, 2.638731
819.0322, 2.608013
819.5143, 2.620167
819.9964, 2.658595
820.4785, 2.689654
820.9606, 2.710289
821.4427, 2.725484
821.9249, 2.738523
822.4070, 2.743774
822.8891, 2.723867
823.3712, 2.681467
823.8533, 2.645879
824.3354, 2.625553
824.8176, 2.614535
825.2997, 2.605945
825.7818, 2.602128
826.2639, 2.607228
826.7460, 2.635715
827.2281, 2.657442
827.7103, 2.664148
828.1924, 2.661257
828.6745, 2.652687
829.1566, 2.633627
829.6387, 2.629867
830.1208, 2.648174
830.6030, 2.675907
831.0851, 2.696893
831.5672, 2.711118
832.0493, 2.717835
832.5314, 2.715070
833.0135, 2.709177
833.4957, 2.714324
833.9778, 2.714582
834.4599, 2.691065
834.9420, 2.593388
835.4241, 2.542063
835.9063, 2.554734
836.3884, 2.592995
836.8705, 2.613556
837.3526, 2.616889
837.8347, 2.619638
838.3168, 2.624254
838.7990, 2.626370
839.2811, 2.616042
839.7632, 2.602568
840.2453, 2.600573
840.7274, 2.617465
841.2095, 2.629842
841.6917, 2.623224
842.1738, 2.613620
842.6559, 2.615279
843.1380, 2.635853
843.6201, 2.635317
844.1022, 2.605703
844.5844, 2.582422
845.0665, 2.613790
845.5486, 2.676388
846.0307, 2.703716
846.5128, 2.689541
846.9949, 2.662070
847.4771, 2.622432
847.9592, 2.589829
848.4413, 2.584461
848.9234, 2.616872
849.4055, 2.628178
849.8876, 2.603058
850.3698, 2.578868
850.8519, 2.582636
851.3340, 2.610763
851.8161, 2.611506
852.2982, 2.585074
852.7803, 2.563139
853.2625, 2.578053
853.7446, 2.603413
854.2267, 2.607415
854.7088, 2.591143
855.1909, 2.584319
855.6730, 2.611441
856.1552, 2.634059
856.6373, 2.633680
857.1194, 2.614530
857.6015, 2.613374
858.0836, 2.632842
858.5657, 2.650798
859.0479, 2.657659
859.5300, 2.655858
860.0121, 2.648910
860.4942, 2.637195
860.9763, 2.621900
861.4584, 2.587440
861.9406, 2.566522
862.4227, 2.588433
862.9048, 2.637553
863.3869, 2.657309
863.8690, 2.635259
864.3511, 2.614484
864.8333, 2.603997
865.3154, 2.601344
865.7975, 2.603950
866.2796, 2.610129
866.7617, 2.612776
867.2438, 2.609703
867.7260, 2.601786
868.2081, 2.576353
868.6902, 2.550374
869.1723, 2.549644
869.6544, 2.620428
870.1365, 2.657670
870.6187, 2.644396
871.1008, 2.608793
871.5829, 2.585292
872.0650, 2.573848
872.5471, 2.575000
873.0292, 2.590376
873.5114, 2.610303
873.9935, 2.637903
874.4756, 2.658213
874.9577, 2.646577
875.4399, 2.582859
875.9220, 2.536953
876.4041, 2.545473
876.8862, 2.561713
877.3683, 2.551773
877.8505, 2.507409
878.3326, 2.495406
878.8147, 2.518253
879.2968, 2.554676
879.7789, 2.611234
880.2610, 2.658384
880.7432, 2.629181
881.2253, 2.523634
881.7074, 2.443787
882.1895, 2.461625
882.6716, 2.496613
883.1537, 2.501597
883.6359, 2.478376
884.1180, 2.479742
884.6001, 2.511070
885.0822, 2.544815
885.5643, 2.571934
886.0464, 2.589994
886.5286, 2.589132
887.0107, 2.572806
887.4928, 2.555116
887.9749, 2.541150
888.4570, 2.530526
888.9391, 2.527250
889.4213, 2.527326
889.9034, 2.516962
890.3855, 2.487151
890.8676, 2.468144
891.3497, 2.467227
891.8318, 2.478385
892.3140, 2.496358
892.7961, 2.517519
893.2782, 2.525695
893.7603, 2.509622
894.2424, 2.494385
894.7245, 2.503270
895.2067, 2.521776
895.6888, 2.532372
896.1709, 2.533699
896.6530, 2.521174
897.1351, 2.483323
897.6172, 2.449804
898.0994, 2.464681
898.5815, 2.517808
899.0636, 2.530042
899.5457, 2.492272
900.0278, 2.443962
900.5099, 2.395902
900.9921, 2.366339
901.4742, 2.381953
901.9563, 2.453876
902.4384, 2.500315
902.9205, 2.506880
903.4026, 2.493601
903.8848, 2.457591
904.3669, 2.406341
904.8490, 2.411971
905.3311, 2.472328
905.8132, 2.528557
906.2953, 2.551261
906.7775, 2.548067
907.2596, 2.510608
907.7417, 2.451900
908.2238, 2.415478
908.7059, 2.432178
909.1880, 2.450922
909.6702, 2.464258
910.1523, 2.471357
910.6344, 2.466442
911.1165, 2.449925
911.5986, 2.443106
912.0807, 2.456855
912.5629, 2.469843
913.0450, 2.450630
913.5271, 2.417097
914.0092, 2.395684
914.4913, 2.398446
914.9734, 2.406487
915.4556, 2.425825
915.9377, 2.440764
916.4198, 2.432871
916.9019, 2.400098
917.3840, 2.379374
917.8661, 2.372284
918.3483, 2.380106
918.8304, 2.417195
919.3125, 2.462400
919.7946, 2.492459
920.2767, 2.504690
920.7589, 2.500083
921.2410, 2.457812
921.7231, 2.420923
922.2052, 2.410297
922.6873, 2.421463
923.1694, 2.410926
923.6516, 2.377950
924.1337, 2.351790
924.6158, 2.349655
925.0979, 2.360176
925.5800, 2.367284
926.0621, 2.374951
926.5443, 2.393281
927.0264, 2.461327
927.5085, 2.493545
927.9906, 2.456960
928.4727, 2.388692
928.9548, 2.347172
929.4370, 2.332879
929.9191, 2.335918
930.4012, 2.357233
930.8833, 2.384038
931.3654, 2.407350
931.8475, 2.424833
932.3297, 2.431229
932.8118, 2.420403
933.2939, 2.417768
933.7761, 2.447910
934.2582, 2.468761
934.7403, 2.446053
935.2224, 2.377672
935.7045, 2.361212
936.1866, 2.398407
936.6688, 2.434908
937.1509, 2.428961
937.6330, 2.404153
938.1151, 2.382572
938.5972, 2.365406
939.0793, 2.354659
939.5615, 2.355977
940.0436, 2.357507
940.5257, 2.354055
941.0078, 2.350071
941.4899, 2.360406
941.9720, 2.384382
942.4542, 2.403309
942.9363, 2.410994
943.4184, 2.414209
943.9005, 2.424247
944.3826, 2.432959
944.8647, 2.427844
945.3469, 2.390733
945.8290, 2.369152
946.3111, 2.370508
946.7932, 2.382776
947.2753, 2.398967
947.7574, 2.418708
948.2396, 2.432322
948.7217, 2.439613
949.2038, 2.434774
949.6859, 2.397678
950.1680, 2.358144
950.6501, 2.349437
951.1323, 2.370706
951.6144, 2.372517
952.0965, 2.326741
952.5786, 2.301285
953.0607, 2.328120
953.5428, 2.381806
954.0250, 2.379746
954.5071, 2.330887
954.9892, 2.286605
955.4713, 2.261646
955.9534, 2.256863
956.4355, 2.294518
956.9177, 2.344925
957.3998, 2.364022
957.8819, 2.321408
958.3640, 2.295755
958.8461, 2.291239
959.3282, 2.298611
959.8104, 2.308117
960.2925, 2.321283
960.7746, 2.350678
961.2567, 2.397101
961.7388, 2.426062
962.2209, 2.391264
962.7031, 2.352058
963.1852, 2.354329
963.6673, 2.396981
964.1494, 2.423582
964.6315, 2.431901
965.1136, 2.429931
965.5958, 2.415831
966.0779, 2.398582
966.5600, 2.398962
967.0421, 2.411604
967.5242, 2.422243
968.0063, 2.431401
968.4885, 2.429243
968.9706, 2.397697
969.4527, 2.360773
969.9348, 2.347274
970.4169, 2.360939
970.8990, 2.383205
971.3812, 2.414945
971.8633, 2.443895
972.3454, 2.457501
972.8275, 2.460275
973.3096, 2.453223
973.7917, 2.437061
974.2739, 2.434994
974.7560, 2.477445
975.2381, 2.510572
975.7202, 2.507622
976.2023, 2.478908
976.6844, 2.482620
977.1666, 2.518241
977.6487, 2.537443
978.1308, 2.506719
978.6129, 2.473114
979.0950, 2.495569
979.5771, 2.546579
980.0593, 2.581025
980.5414, 2.575664
981.0235, 2.569731
981.5056, 2.565798
981.9877, 2.560513
982.4698, 2.548673
982.9520, 2.531778
983.4341, 2.518706
983.9162, 2.510034
984.3983, 2.506137
984.8804, 2.511713
985.3625, 2.518461
985.8447, 2.524116
986.3268, 2.526982
986.8089, 2.511213
987.2910, 2.466552
987.7731, 2.432481
988.2552, 2.423347
988.7374, 2.430010
989.2195, 2.440871
989.7016, 2.451967
990.1837, 2.451927
990.6658, 2.430930
991.1479, 2.410243
991.6301, 2.398009
992.1122, 2.390881
992.5944, 2.383390
993.0765, 2.372230
993.5586, 2.385925
994.0407, 2.428948
994.5228, 2.462905
995.0049, 2.444802
995.4871, 2.405807
995.9692, 2.384924
996.4513, 2.382275
996.9334, 2.384684
997.4155, 2.398634
997.8976, 2.402847
998.3798, 2.386068
998.8619, 2.360879
999.3440, 2.361612
999.8261, 2.385023
1000.308, 2.397956
1000.790, 2.387399
1001.272, 2.379093
1001.755, 2.399157
1002.237, 2.430441
1002.719, 2.456227
1003.201, 2.477953
1003.683, 2.482746
1004.165, 2.472717
1004.647, 2.440405
1005.129, 2.352456
1005.612, 2.243898
1006.094, 2.227343
1006.576, 2.287068
1007.058, 2.348080
1007.540, 2.390833
1008.022, 2.405925
1008.504, 2.369382
1008.986, 2.310401
1009.468, 2.277560
1009.951, 2.273856
1010.433, 2.274434
1010.915, 2.276126
1011.397, 2.278292
1011.879, 2.276287
1012.361, 2.276340
1012.843, 2.289092
1013.325, 2.318272
1013.807, 2.340173
1014.290, 2.355870
1014.772, 2.356221
1015.254, 2.333163
1015.736, 2.292536
1016.218, 2.243336
1016.700, 2.192835
1017.182, 2.184914
1017.664, 2.276583
1018.147, 2.367941
1018.629, 2.392219
1019.111, 2.376704
1019.593, 2.364567
1020.075, 2.362640
1020.557, 2.346977
1021.039, 2.312289
1021.521, 2.280950
1022.003, 2.280253
1022.486, 2.295060
1022.968, 2.301190
1023.450, 2.296982
1023.932, 2.283495
1024.414, 2.239616
1024.896, 2.213036
1025.378, 2.226981
1025.860, 2.264237
1026.343, 2.272001
1026.825, 2.252734
1027.307, 2.243699
1027.789, 2.258078
1028.271, 2.275506
1028.753, 2.277258
1029.235, 2.272363
1029.717, 2.271356
1030.199, 2.278301
1030.682, 2.278430
1031.164, 2.269144
1031.646, 2.260274
1032.128, 2.257607
1032.610, 2.259891
1033.092, 2.264352
1033.574, 2.270981
1034.056, 2.279599
1034.539, 2.294755
1035.021, 2.306198
1035.503, 2.310311
1035.985, 2.309259
1036.467, 2.303929
1036.949, 2.294126
1037.431, 2.290575
1037.913, 2.295156
1038.396, 2.298953
1038.878, 2.282094
1039.360, 2.269219
1039.842, 2.296747
1040.324, 2.366153
1040.806, 2.387249
1041.288, 2.333995
1041.770, 2.284593
1042.252, 2.262909
1042.734, 2.260213
1043.217, 2.263192
1043.699, 2.269721
1044.181, 2.275242
1044.663, 2.282318
1045.145, 2.278842
1045.627, 2.244441
1046.109, 2.210807
1046.591, 2.205742
1047.074, 2.231097
1047.556, 2.229588
1048.038, 2.201086
1048.520, 2.185809
1049.002, 2.225558
1049.484, 2.276712
1049.966, 2.308423
1050.448, 2.320790
1050.931, 2.313751
1051.413, 2.272154
1051.895, 2.248284
1052.377, 2.250980
1052.859, 2.265039
1053.341, 2.275102
1053.823, 2.281615
1054.305, 2.284465
1054.787, 2.283635
1055.270, 2.284672
1055.752, 2.298825
1056.234, 2.304859
1056.716, 2.288393
1057.198, 2.258617
1057.680, 2.256759
1058.162, 2.280498
1058.644, 2.291955
1059.126, 2.273300
1059.609, 2.252969
1060.091, 2.261673
1060.573, 2.279797
1061.055, 2.284595
1061.537, 2.270577
1062.019, 2.256913
1062.501, 2.243619
1062.983, 2.230624
1063.466, 2.211373
1063.948, 2.196028
1064.430, 2.215887
1064.912, 2.256634
1065.394, 2.275325
1065.876, 2.218004
1066.358, 2.190237
1066.840, 2.227203
1067.323, 2.278935
1067.805, 2.277385
1068.287, 2.231586
1068.769, 2.204921
1069.251, 2.202454
1069.733, 2.212131
1070.215, 2.245609
1070.697, 2.270157
1071.179, 2.250295
1071.661, 2.200555
1072.144, 2.185359
1072.626, 2.209593
1073.108, 2.237539
1073.590, 2.262380
1074.072, 2.280068
1074.554, 2.280184
1075.036, 2.272284
1075.518, 2.268356
1076.001, 2.270587
1076.483, 2.278218
1076.965, 2.296828
1077.447, 2.308841
1077.929, 2.303658
1078.411, 2.286194
1078.893, 2.269525
1079.375, 2.252833
1079.858, 2.233074
1080.340, 2.195474
1080.822, 2.173476
1081.304, 2.189846
1081.786, 2.218931
1082.268, 2.239222
1082.750, 2.250387
1083.232, 2.264295
1083.714, 2.281144
1084.197, 2.286381
1084.679, 2.260520
1085.161, 2.227515
1085.643, 2.193088
1086.125, 2.167645
1086.607, 2.182706
1087.089, 2.258650
1087.571, 2.302180
1088.054, 2.296280
1088.536, 2.268028
1089.018, 2.234688
1089.500, 2.206604
1089.982, 2.202038
1090.464, 2.223066
1090.946, 2.245933
1091.428, 2.273708
1091.911, 2.289267
1092.393, 2.283581
1092.875, 2.266137
1093.357, 2.252353
1093.839, 2.246022
1094.321, 2.263517
1094.803, 2.321297
1095.285, 2.364455
1095.767, 2.353488
1096.250, 2.330293
1096.732, 2.323426
1097.214, 2.331768
1097.696, 2.329355
1098.178, 2.316818
1098.660, 2.307127
1099.142, 2.303014
1099.624, 2.308848
1100.106, 2.341700
1100.589, 2.381301
1101.071, 2.394024
1101.553, 2.368622
1102.035, 2.350725
1102.517, 2.341191
1102.999, 2.339239
1103.481, 2.351828
1103.963, 2.366676
1104.446, 2.363745
1104.928, 2.347465
1105.410, 2.338040
1105.892, 2.337934
1106.374, 2.350152
1106.856, 2.380079
1107.338, 2.412996
1107.820, 2.432291
1108.302, 2.438470
1108.785, 2.427713
1109.267, 2.399815
1109.749, 2.383197
1110.231, 2.402678
1110.713, 2.421636
1111.195, 2.429603
1111.677, 2.426022
1112.159, 2.398280
1112.641, 2.353654
1113.124, 2.342626
1113.606, 2.386248
1114.088, 2.428468
1114.570, 2.423399
1115.052, 2.408336
1115.534, 2.416176
1116.016, 2.445537
1116.498, 2.454345
1116.981, 2.442190
1117.463, 2.422426
1117.945, 2.392601
1118.427, 2.370945
1118.909, 2.382918
1119.391, 2.411522
1119.873, 2.434025
1120.355, 2.452191
1120.838, 2.447780
1121.320, 2.415701
1121.802, 2.382855
1122.284, 2.371267
1122.766, 2.368455
1123.248, 2.345973
1123.730, 2.316293
1124.212, 2.312836
1124.694, 2.393132
1125.177, 2.423775
1125.659, 2.376195
1126.141, 2.315737
1126.623, 2.322173
1127.105, 2.367542
1127.587, 2.374018
1128.069, 2.342687
1128.551, 2.314638
1129.033, 2.319721
1129.516, 2.314506
1129.998, 2.280673
1130.480, 2.237273
1130.962, 2.218711
1131.444, 2.219972
1131.926, 2.215113
1132.408, 2.200537
1132.890, 2.179533
1133.373, 2.131449
1133.855, 2.101849
1134.337, 2.135800
1134.819, 2.098040
1135.301, 2.190032
1135.783, 2.097474
1136.265, 2.047655
1136.747, 2.081753
1137.229, 2.125242
1137.712, 2.114151
1138.194, 2.083842
1138.676, 2.064299
1139.158, 2.056623
1139.640, 2.052663
1140.122, 2.052430
1140.604, 2.056329
1141.086, 2.068569
1141.569, 2.077579
1142.051, 2.061138
1142.533, 2.037880
1143.015, 2.035999
1143.497, 2.071887
1143.979, 2.082445
1144.461, 2.060774
1144.943, 2.040981
1145.426, 2.053205
1145.908, 2.072298
1146.390, 2.052235
1146.872, 2.008802
1147.354, 1.974738
1147.836, 1.964641
1148.318, 1.956529
1148.800, 1.946956
1149.282, 1.945876
1149.765, 1.970467
1150.247, 2.006383
1150.729, 2.023723
1151.211, 2.023158
1151.693, 2.011183
1152.175, 1.963272
1152.657, 1.946030
1153.139, 1.986338
1153.621, 2.034005
1154.104, 2.018313
1154.586, 1.961322
1155.068, 1.947189
1155.550, 1.975418
1156.032, 1.980460
1156.514, 1.891925
1156.996, 1.822747
1157.478, 1.810540
1157.961, 1.833502
1158.443, 1.861861
1158.925, 1.892359
1159.407, 1.904297
1159.889, 1.894314
1160.371, 1.880662
1160.853, 1.863914
1161.335, 1.858141
1161.818, 1.875269
1162.300, 1.906145
1162.782, 1.925652
1163.264, 1.934244
1163.746, 1.938989
1164.228, 1.941664
1164.710, 1.939554
1165.192, 1.930358
1165.674, 1.915730
1166.156, 1.897000
1166.639, 1.874300
1167.121, 1.837637
1167.603, 1.787544
1168.085, 1.777412
1168.567, 1.838574
1169.049, 1.901345
1169.531, 1.902041
1170.013, 1.877165
1170.496, 1.857884
1170.978, 1.845308
1171.460, 1.860655
1171.942, 1.906056
1172.424, 1.941607
1172.906, 1.947131
1173.388, 1.939284
1173.870, 1.923492
1174.353, 1.909864
1174.835, 1.917176
1175.317, 1.954697
1175.799, 1.960013
1176.281, 1.930053
1176.763, 1.892137
1177.245, 1.848135
1177.727, 1.818429
1178.209, 1.841926
1178.692, 1.890373
1179.174, 1.914921
1179.656, 1.902360
1180.138, 1.884629
1180.620, 1.859071
1181.102, 1.841184
1181.584, 1.850315
1182.066, 1.867166
1182.548, 1.860000
1183.031, 1.879409
1183.513, 1.847316
1183.995, 1.900760
1184.477, 1.929959
1184.959, 1.930211
1185.441, 1.913640
1185.923, 1.877289
1186.405, 1.839901
1186.888, 1.828290
1187.370, 1.838851
1187.852, 1.859213
1188.334, 1.913128
1188.816, 1.910992
1189.298, 1.825592
1189.780, 1.747600
1190.262, 1.805009
1190.745, 1.910502
1191.227, 1.922829
1191.709, 1.852831
1192.191, 1.799885
1192.673, 1.778377
1193.155, 1.790331
1193.637, 1.844592
1194.119, 1.909017
1194.601, 1.961386
1195.084, 1.990813
1195.566, 1.963521
1196.048, 1.884922
1196.530, 1.835806
1197.012, 1.843549
1197.494, 1.859148
1197.976, 1.879930
1198.458, 1.889715
1198.941, 1.846410
1199.423, 1.784837
1199.905, 1.774383
1200.387, 1.820388
1200.869, 1.841174
1201.351, 1.797500
1201.833, 1.777655
1202.315, 1.810397
1202.797, 1.861688
1203.280, 1.876244
1203.762, 1.870506
1204.244, 1.875391
1204.726, 1.896370
1205.208, 1.904459
1205.690, 1.891753
1206.172, 1.870777
1206.654, 1.838270
1207.136, 1.811718
1207.619, 1.838324
1208.101, 1.886310
1208.583, 1.896017
1209.065, 1.851282
1209.547, 1.812577
1210.029, 1.778052
1210.511, 1.773988
1210.993, 1.821086
1211.476, 1.885733
1211.958, 1.911810
1212.440, 1.909603
1212.922, 1.893095
1213.404, 1.860423
1213.886, 1.839606
1214.368, 1.838575
1214.850, 1.835653
1215.333, 1.817109
1215.815, 1.798660
1216.297, 1.824993
1216.779, 1.867215
1217.261, 1.865766
1217.743, 1.786794
1218.225, 1.753983
1218.707, 1.791569
1219.189, 1.835171
1219.672, 1.857184
1220.154, 1.864758
1220.636, 1.869354
1221.118, 1.869959
1221.600, 1.863534
1222.082, 1.844899
1222.564, 1.833804
1223.046, 1.831247
1223.528, 1.835764
1224.011, 1.848542
1224.493, 1.865605
1224.975, 1.887354
1225.457, 1.906082
1225.939, 1.908257
1226.421, 1.885846
1226.903, 1.852852
1227.385, 1.799403
1227.868, 1.772591
1228.350, 1.815860
1228.832, 1.881591
1229.314, 1.901576
1229.796, 1.890174
1230.278, 1.869531
1230.760, 1.837663
1231.242, 1.812890
1231.724, 1.794115
1232.207, 1.787071
1232.689, 1.799816
1233.171, 1.821187
1233.653, 1.844538
1234.135, 1.863702
1234.617, 1.864914
1235.099, 1.832045
1235.581, 1.839077
1236.063, 1.893888
1236.546, 1.933360
1237.028, 1.900292
1237.510, 1.850965
1237.992, 1.848251
1238.474, 1.868562
1238.956, 1.871276
1239.438, 1.846971
1239.920, 1.836891
1240.403, 1.842097
1240.885, 1.848775
1241.367, 1.852260
1241.849, 1.849100
1242.331, 1.830266
1242.813, 1.805552
1243.295, 1.787065
1243.777, 1.771006
1244.260, 1.793192
1244.742, 1.853873
1245.224, 1.898718
1245.706, 1.888331
1246.188, 1.857183
1246.670, 1.815500
1247.152, 1.774417
1247.634, 1.745467
1248.116, 1.727327
1248.599, 1.744207
1249.081, 1.793231
1249.563, 1.832371
1250.045, 1.822779
1250.527, 1.812119
1251.009, 1.842311
1251.491, 1.871190
1251.973, 1.842592
1252.455, 1.761087
1252.938, 1.745377
1253.420, 1.789957
1253.902, 1.841051
1254.384, 1.884810
1254.866, 1.909582
1255.348, 1.906954
1255.830, 1.888269
1256.313, 1.853156
1256.795, 1.808091
1257.277, 1.803863
1257.759, 1.831366
1258.241, 1.843054
1258.723, 1.786865
1259.205, 1.757218
1259.687, 1.784194
1260.169, 1.822244
1260.651, 1.833862
1261.134, 1.824054
1261.616, 1.794024
1262.098, 1.755622
1262.580, 1.748052
1263.062, 1.826431
1263.544, 1.873055
1264.026, 1.870258
1264.508, 1.853349
1264.991, 1.848409
1265.473, 1.851475
1265.955, 1.856714
1266.437, 1.863380
1266.919, 1.869823
1267.401, 1.879018
1267.883, 1.880289
1268.365, 1.871277
1268.848, 1.863089
1269.330, 1.866834
1269.812, 1.874347
1270.294, 1.879959
1270.776, 1.880168
1271.258, 1.865282
1271.740, 1.827299
1272.222, 1.800751
1272.704, 1.787047
1273.187, 1.776782
1273.669, 1.751827
1274.151, 1.738844
1274.633, 1.774122
1275.115, 1.831449
1275.597, 1.868936
1276.079, 1.882774
1276.561, 1.898335
1277.043, 1.915379
1277.526, 1.922191
1278.008, 1.905854
1278.490, 1.883746
1278.972, 1.852455
1279.454, 1.831487
1279.936, 1.851014
1280.418, 1.907982
1280.900, 1.904210
1281.383, 1.850340
1281.865, 1.815215
1282.347, 1.858309
1282.829, 1.888819
1283.311, 1.864268
1283.793, 1.831380
1284.275, 1.824877
1284.757, 1.839038
1285.240, 1.858384
1285.722, 1.877832
1286.204, 1.879289
1286.686, 1.831190
1287.168, 1.812287
1287.650, 1.843030
1288.132, 1.873937
1288.614, 1.864110
1289.096, 1.836341
1289.578, 1.836023
1290.061, 1.854271
1290.543, 1.873924
1291.025, 1.896814
1291.507, 1.903212
1291.989, 1.889547
1292.471, 1.876163
1292.953, 1.878183
1293.435, 1.882026
1293.918, 1.873392
1294.400, 1.855059
1294.882, 1.821966
1295.364, 1.766377
1295.846, 1.786864
1296.328, 1.885335
1296.810, 1.950321
1297.292, 1.911711
1297.775, 1.853838
1298.257, 1.833048
1298.739, 1.831160
1299.221, 1.829475
1299.703, 1.828794
1300.185, 1.844576
1300.667, 1.872381
1301.149, 1.883736
1301.631, 1.859707
1302.114, 1.838670
1302.596, 1.834686
##END=



