##NAMES=Tsumcorite
##RRUFFID=R100185
##IDEAL CHEMISTRY=Pb^2+^Zn^2+^_2_(As^5+^O_4_)_2_&#183;2H_2_O
##LOCALITY=Mina Ojuela (Campo Sur), Mapimi, Durango, Mexico
##OWNER=RRUFF
##SOURCE=Marcus Origlieri
##DESCRIPTION=Brilliant brown wedge-shaped crystals on pulverant segnitite, associated with colorless mimetite
##STATUS=The identification of this mineral has been confirmed by single-crystal X-ray diffraction.
##URL=rruff.info/R100185
105.0690, 38.41864
105.5511, 38.71574
106.0332, 39.20843
106.5153, 39.58171
106.9974, 39.84319
107.4795, 40.16460
107.9617, 40.79035
108.4438, 41.57381
108.9259, 42.01683
109.4080, 41.74554
109.8901, 41.20998
110.3722, 41.03856
110.8544, 41.30968
111.3365, 41.80310
111.8186, 42.63538
112.3007, 43.58242
112.7828, 44.15870
113.2649, 43.63944
113.7471, 42.17334
114.2292, 41.83682
114.7113, 44.31825
115.1934, 46.38520
115.6755, 46.17208
116.1576, 44.15730
116.6397, 42.25403
117.1219, 42.70561
117.6040, 46.71336
118.0861, 49.41344
118.5682, 50.26884
119.0503, 50.49195
119.5324, 50.54613
120.0146, 50.62712
120.4967, 50.90070
120.9788, 51.65425
121.4609, 53.38885
121.9430, 54.89512
122.4251, 55.98979
122.9073, 56.91925
123.3894, 58.03254
123.8715, 59.51384
124.3536, 61.08248
124.8357, 61.87052
125.3178, 61.42422
125.8000, 61.33275
126.2821, 62.60063
126.7642, 64.84714
127.2463, 66.59230
127.7284, 66.97412
128.2105, 66.54955
128.6927, 66.38443
129.1748, 66.42741
129.6569, 66.88025
130.1390, 68.15047
130.6211, 70.40625
131.1032, 72.46719
131.5854, 73.46539
132.0675, 74.12912
132.5496, 75.15053
133.0317, 76.87114
133.5138, 78.97769
133.9959, 80.73806
134.4781, 82.00061
134.9602, 83.13248
135.4423, 84.15711
135.9244, 85.15584
136.4065, 86.20433
136.8886, 87.33424
137.3708, 88.56422
137.8529, 90.05025
138.3350, 92.35328
138.8171, 94.37603
139.2992, 95.87337
139.7813, 96.88093
140.2635, 97.50889
140.7456, 97.79877
141.2277, 97.68322
141.7098, 97.87624
142.1919, 98.80684
142.6740, 99.62935
143.1561, 99.87757
143.6383, 99.52565
144.1204, 98.86238
144.6025, 98.17752
145.0846, 97.48235
145.5667, 96.51902
146.0488, 94.92852
146.5310, 93.22511
147.0131, 91.96243
147.4952, 91.25809
147.9773, 90.87753
148.4594, 90.66811
148.9415, 90.59790
149.4237, 90.49059
149.9058, 90.17043
150.3879, 89.75500
150.8700, 89.62740
151.3521, 90.06766
151.8342, 90.50088
152.3164, 90.38734
152.7985, 89.79146
153.2806, 89.19999
153.7627, 89.15260
154.2448, 89.67022
154.7269, 89.65894
155.2091, 88.44569
155.6912, 87.02896
156.1733, 85.88497
156.6554, 85.05450
157.1375, 84.33120
157.6196, 83.47057
158.1018, 82.43258
158.5839, 81.36588
159.0660, 80.47462
159.5481, 79.43382
160.0302, 78.02005
160.5123, 76.18537
160.9945, 74.05480
161.4766, 71.82866
161.9587, 69.09161
162.4408, 66.90182
162.9229, 65.69058
163.4050, 64.78394
163.8871, 63.53321
164.3693, 61.69520
164.8514, 59.55939
165.3335, 57.83419
165.8156, 56.99172
166.2977, 55.90824
166.7798, 54.11066
167.2620, 52.05725
167.7441, 50.46009
168.2262, 49.64936
168.7083, 49.43045
169.1904, 49.33660
169.6725, 49.61549
170.1547, 49.58623
170.6368, 48.84189
171.1189, 47.53502
171.6010, 46.12201
172.0831, 44.59768
172.5652, 43.29765
173.0474, 42.81239
173.5295, 43.56645
174.0116, 44.32458
174.4937, 43.86827
174.9758, 42.20048
175.4579, 41.02334
175.9401, 41.59666
176.4222, 42.80694
176.9043, 43.51028
177.3864, 43.50245
177.8685, 42.94905
178.3506, 41.79110
178.8328, 39.67039
179.3149, 38.25550
179.7970, 38.91858
180.2791, 40.14610
180.7612, 40.51430
181.2433, 39.39628
181.7255, 37.62108
182.2076, 37.06089
182.6897, 38.58211
183.1718, 39.76550
183.6539, 39.90620
184.1360, 39.59407
184.6181, 39.49357
185.1003, 39.94976
185.5824, 40.68551
186.0645, 40.68589
186.5466, 38.91038
187.0287, 37.64763
187.5108, 37.50926
187.9930, 37.96331
188.4751, 38.34702
188.9572, 38.28871
189.4393, 37.86429
189.9214, 37.48763
190.4035, 36.96356
190.8857, 36.70367
191.3678, 36.93478
191.8499, 37.47469
192.3320, 38.01921
192.8141, 38.38809
193.2962, 38.60540
193.7784, 38.85897
194.2605, 39.34135
194.7426, 39.65467
195.2247, 39.69136
195.7068, 39.45423
196.1889, 38.89835
196.6711, 37.86309
197.1532, 36.54293
197.6353, 35.86521
198.1174, 36.21244
198.5995, 36.77161
199.0816, 37.25039
199.5638, 37.62135
200.0459, 37.67630
200.5280, 37.10614
201.0101, 36.17696
201.4922, 35.68791
201.9743, 35.88478
202.4565, 36.30587
202.9386, 36.69842
203.4207, 37.07239
203.9028, 37.10269
204.3849, 36.16249
204.8670, 34.92125
205.3492, 34.41599
205.8313, 35.17927
206.3134, 36.29294
206.7955, 36.55703
207.2776, 35.79417
207.7597, 35.00513
208.2419, 34.56494
208.7240, 34.36190
209.2061, 34.34385
209.6882, 34.52080
210.1703, 34.81981
210.6524, 35.19222
211.1346, 35.79633
211.6167, 36.03516
212.0988, 35.61126
212.5809, 34.82570
213.0630, 33.81899
213.5451, 32.58331
214.0273, 31.43264
214.5094, 31.19152
214.9915, 32.57517
215.4736, 33.59061
215.9557, 33.78759
216.4378, 33.52184
216.9200, 33.07189
217.4021, 32.55227
217.8842, 32.04252
218.3663, 31.79550
218.8484, 32.15267
219.3305, 32.27872
219.8127, 31.71597
220.2948, 31.03450
220.7769, 31.00224
221.2590, 31.97029
221.7411, 33.41790
222.2232, 33.78956
222.7054, 31.61089
223.1875, 30.06386
223.6696, 29.58591
224.1517, 29.73785
224.6338, 30.09465
225.1159, 30.47065
225.5980, 30.80328
226.0802, 30.90529
226.5623, 30.37890
227.0444, 30.09354
227.5265, 30.33321
228.0086, 30.78635
228.4907, 31.02927
228.9729, 30.87616
229.4550, 30.49381
229.9371, 30.32033
230.4192, 30.55098
230.9013, 30.67274
231.3834, 30.44763
231.8656, 30.10190
232.3477, 30.02994
232.8298, 30.42020
233.3119, 30.99615
233.7940, 31.11277
234.2761, 30.61710
234.7583, 30.16140
235.2404, 30.00397
235.7225, 29.97751
236.2046, 29.68963
236.6867, 28.89943
237.1688, 28.08631
237.6510, 28.24295
238.1331, 29.49577
238.6152, 30.60556
239.0973, 31.09141
239.5794, 31.14706
240.0615, 31.19297
240.5437, 31.36962
241.0258, 31.50175
241.5079, 31.27206
241.9900, 30.67978
242.4721, 30.22549
242.9542, 30.30905
243.4364, 30.69315
243.9185, 30.68667
244.4006, 29.94554
244.8827, 29.18513
245.3648, 29.28101
245.8469, 30.10840
246.3290, 30.74728
246.8112, 30.52906
247.2933, 29.75592
247.7754, 29.43463
248.2575, 30.01150
248.7396, 30.49895
249.2217, 29.81047
249.7039, 28.31712
250.1860, 27.31272
250.6681, 27.99705
251.1502, 29.81405
251.6323, 30.59064
252.1144, 29.62478
252.5966, 28.59119
253.0787, 28.55927
253.5608, 29.21498
254.0429, 29.87505
254.5250, 30.31196
255.0071, 30.46107
255.4893, 29.89456
255.9714, 27.77432
256.4535, 26.34019
256.9356, 27.10055
257.4177, 29.02286
257.8998, 30.39343
258.3820, 30.10006
258.8641, 28.65917
259.3462, 27.92955
259.8283, 28.38126
260.3104, 28.80036
260.7925, 28.62336
261.2747, 28.22238
261.7568, 28.14508
262.2389, 28.74000
262.7210, 29.68397
263.2031, 29.96198
263.6852, 28.95072
264.1674, 28.34370
264.6495, 28.82265
265.1316, 29.72664
265.6137, 30.33397
266.0958, 30.32351
266.5779, 29.95962
267.0601, 29.86265
267.5422, 30.14775
268.0243, 30.51892
268.5064, 30.97479
268.9885, 31.45754
269.4706, 31.92090
269.9528, 32.34797
270.4349, 32.74094
270.9170, 33.14491
271.3991, 33.77670
271.8812, 33.94700
272.3633, 33.12096
272.8455, 32.20700
273.3276, 31.93601
273.8097, 32.46474
274.2918, 33.39837
274.7739, 34.12877
275.2560, 34.44250
275.7382, 35.02001
276.2202, 36.51078
276.7024, 37.73725
277.1845, 37.72346
277.6666, 36.47528
278.1487, 34.90676
278.6308, 34.09690
279.1129, 34.17937
279.5951, 34.62118
280.0772, 35.91387
280.5593, 37.08345
281.0414, 37.36601
281.5235, 36.92976
282.0056, 36.66545
282.4878, 37.53046
282.9699, 39.81509
283.4520, 41.12503
283.9341, 40.73506
284.4162, 40.23556
284.8983, 40.46737
285.3805, 41.16863
285.8626, 41.43157
286.3447, 40.44470
286.8268, 38.24894
287.3089, 37.18457
287.7910, 38.20415
288.2732, 39.23100
288.7553, 39.79495
289.2374, 39.93002
289.7195, 39.70095
290.2016, 39.09740
290.6837, 38.26660
291.1659, 38.04783
291.6480, 39.03325
292.1301, 39.93428
292.6122, 40.71672
293.0943, 41.24689
293.5764, 41.27422
294.0586, 40.66931
294.5407, 39.68172
295.0228, 38.98471
295.5049, 39.16318
295.9870, 38.91394
296.4691, 37.62255
296.9513, 36.12638
297.4334, 35.45840
297.9155, 35.93058
298.3976, 36.85586
298.8797, 37.08186
299.3618, 36.13789
299.8440, 35.30165
300.3261, 34.30970
300.8082, 33.58886
301.2903, 33.73617
301.7724, 34.76036
302.2545, 35.83756
302.7367, 35.97702
303.2188, 34.87495
303.7009, 33.89468
304.1830, 32.83616
304.6651, 32.03744
305.1472, 31.94826
305.6294, 32.43058
306.1115, 32.75191
306.5936, 32.21086
307.0757, 30.73018
307.5578, 29.92922
308.0399, 30.27582
308.5221, 30.70403
309.0042, 30.63640
309.4863, 30.25459
309.9684, 30.16322
310.4505, 30.81668
310.9326, 32.03701
311.4148, 32.53468
311.8969, 31.90203
312.3790, 31.14714
312.8611, 30.17200
313.3432, 29.28988
313.8253, 29.15129
314.3075, 30.11425
314.7896, 31.58506
315.2717, 32.01170
315.7538, 30.21079
316.2359, 29.07512
316.7180, 29.13625
317.2001, 29.83801
317.6823, 30.74429
318.1644, 31.70666
318.6465, 32.46744
319.1286, 32.58395
319.6107, 31.53477
320.0928, 31.11196
320.5750, 31.87603
321.0571, 32.85860
321.5392, 33.24073
322.0213, 32.97638
322.5034, 32.66066
322.9855, 32.91150
323.4677, 33.84541
323.9498, 34.52692
324.4319, 34.78725
324.9140, 34.99522
325.3961, 35.33247
325.8782, 35.77916
326.3604, 36.24908
326.8425, 36.70143
327.3246, 37.11989
327.8067, 37.31429
328.2888, 37.31322
328.7709, 37.09657
329.2531, 36.37907
329.7352, 35.49083
330.2173, 34.98856
330.6994, 35.14803
331.1815, 35.74727
331.6636, 36.19087
332.1458, 36.12385
332.6279, 36.34576
333.1100, 37.24006
333.5921, 38.25465
334.0742, 38.77354
334.5563, 38.64436
335.0385, 38.28032
335.5206, 38.29021
336.0027, 38.89043
336.4848, 39.32321
336.9669, 39.43542
337.4490, 39.52248
337.9312, 39.81175
338.4133, 40.28941
338.8954, 40.75628
339.3775, 41.01343
339.8596, 41.03344
340.3417, 41.19633
340.8239, 41.82885
341.3060, 42.24979
341.7881, 42.01969
342.2702, 41.39935
342.7523, 40.93592
343.2344, 40.97606
343.7166, 41.41862
344.1987, 41.77290
344.6808, 41.86156
345.1629, 42.06548
345.6450, 42.54809
346.1271, 43.10915
346.6093, 43.52209
347.0914, 43.70284
347.5735, 43.74022
348.0556, 43.82383
348.5377, 44.21098
349.0198, 44.14262
349.5020, 43.22250
349.9841, 42.20816
350.4662, 41.62566
350.9483, 41.52228
351.4304, 41.60743
351.9125, 41.57679
352.3947, 41.40657
352.8768, 41.28035
353.3589, 40.89305
353.8410, 40.84877
354.3231, 41.75186
354.8052, 43.16317
355.2874, 44.18054
355.7695, 44.15924
356.2516, 43.26891
356.7337, 42.44343
357.2158, 41.38273
357.6979, 40.84778
358.1800, 41.46163
358.6621, 42.42516
359.1443, 42.80357
359.6264, 42.24245
360.1085, 41.23926
360.5906, 40.75996
361.0727, 41.19069
361.5548, 41.12266
362.0370, 39.77235
362.5191, 38.39917
363.0012, 37.82802
363.4833, 38.09471
363.9654, 38.65681
364.4475, 39.08021
364.9297, 39.37812
365.4118, 39.28791
365.8939, 38.30502
366.3760, 37.48133
366.8581, 37.47784
367.3402, 37.93406
367.8224, 38.04824
368.3045, 37.19083
368.7866, 35.80305
369.2687, 35.29934
369.7508, 36.18407
370.2329, 36.84149
370.7151, 36.42906
371.1972, 35.68144
371.6793, 35.38861
372.1614, 35.82877
372.6435, 36.36804
373.1256, 36.02513
373.6078, 34.69772
374.0899, 34.00114
374.5720, 34.84529
375.0541, 35.93453
375.5362, 36.22519
376.0183, 35.76879
376.5005, 35.36681
376.9826, 35.68651
377.4647, 36.50348
377.9468, 37.00842
378.4289, 37.14892
378.9110, 36.97663
379.3932, 36.13062
379.8753, 35.03042
380.3574, 34.53728
380.8395, 35.16111
381.3216, 36.28646
381.8037, 37.33496
382.2859, 38.31686
382.7680, 38.83427
383.2501, 38.46016
383.7322, 37.66380
384.2143, 37.21861
384.6964, 37.20947
385.1786, 37.30937
385.6607, 37.21822
386.1428, 37.09182
386.6249, 37.42710
387.1070, 38.44994
387.5891, 39.64264
388.0713, 40.57170
388.5534, 41.25384
389.0355, 41.27387
389.5176, 39.76928
389.9997, 38.04758
390.4818, 37.44942
390.9640, 38.01490
391.4461, 39.05362
391.9282, 40.31157
392.4103, 41.62592
392.8924, 42.23851
393.3745, 41.67295
393.8567, 40.99480
394.3388, 40.44611
394.8209, 40.09629
395.3030, 40.26420
395.7851, 41.14921
396.2672, 42.09681
396.7494, 41.86723
397.2315, 39.72607
397.7136, 38.14415
398.1957, 37.56835
398.6778, 37.34790
399.1599, 36.99131
399.6420, 36.43188
400.1241, 35.79168
400.6063, 35.14699
401.0884, 34.48664
401.5705, 34.15430
402.0526, 34.72011
402.5347, 34.94017
403.0168, 34.16475
403.4990, 32.84543
403.9811, 31.78763
404.4632, 31.38779
404.9453, 31.28716
405.4274, 30.52660
405.9095, 27.96868
406.3917, 26.74544
406.8738, 27.79113
407.3559, 29.44095
407.8380, 30.67875
408.3201, 31.29412
408.8022, 31.50758
409.2844, 31.55573
409.7665, 31.45409
410.2486, 30.88898
410.7307, 29.32332
411.2128, 27.85972
411.6949, 26.49592
412.1771, 25.51447
412.6592, 25.43360
413.1413, 26.62205
413.6234, 28.46088
414.1055, 29.67420
414.5876, 30.21764
415.0698, 30.27217
415.5519, 29.40030
416.0340, 28.37132
416.5161, 27.63464
416.9982, 27.25909
417.4803, 27.19348
417.9625, 27.56130
418.4446, 28.27244
418.9267, 28.67986
419.4088, 28.58942
419.8909, 28.46017
420.3730, 28.54789
420.8552, 28.81262
421.3373, 29.21111
421.8194, 29.88351
422.3015, 30.52294
422.7836, 30.70555
423.2657, 30.43592
423.7479, 30.11562
424.2300, 29.83121
424.7121, 29.64947
425.1942, 29.70130
425.6763, 30.05181
426.1584, 30.29742
426.6406, 30.10011
427.1227, 29.73267
427.6048, 29.62623
428.0869, 29.84905
428.5690, 30.39085
429.0511, 31.43819
429.5333, 32.95403
430.0154, 33.69512
430.4975, 32.86488
430.9796, 32.00556
431.4617, 32.15284
431.9438, 32.97334
432.4260, 33.52680
432.9081, 33.34769
433.3902, 32.73154
433.8723, 32.36876
434.3544, 32.38560
434.8365, 32.46581
435.3187, 32.72114
435.8008, 32.95530
436.2829, 32.96586
436.7650, 32.75734
437.2471, 32.48443
437.7292, 32.24381
438.2114, 32.02292
438.6935, 32.31865
439.1756, 33.84214
439.6577, 35.09794
440.1398, 35.70035
440.6219, 35.84689
441.1040, 35.74259
441.5862, 35.47680
442.0683, 35.19574
442.5504, 35.13046
443.0325, 35.22850
443.5146, 35.71096
443.9967, 37.16848
444.4789, 38.53571
444.9610, 39.29068
445.4431, 39.44044
445.9252, 39.20250
446.4073, 38.45009
446.8894, 37.46922
447.3716, 37.54132
447.8537, 39.20539
448.3358, 40.57349
448.8179, 40.51447
449.3000, 39.85498
449.7821, 39.35911
450.2643, 39.13149
450.7464, 39.32058
451.2285, 40.38384
451.7106, 42.08818
452.1927, 43.21736
452.6748, 43.46336
453.1570, 43.21454
453.6391, 42.57871
454.1212, 41.67523
454.6033, 41.14476
455.0854, 41.40711
455.5675, 41.90558
456.0497, 42.17888
456.5318, 42.23512
457.0139, 42.20278
457.4960, 42.11290
457.9781, 42.01722
458.4602, 42.04213
458.9424, 42.06183
459.4245, 42.41978
459.9066, 43.60712
460.3887, 44.92031
460.8708, 45.56045
461.3529, 45.45502
461.8351, 45.13736
462.3172, 45.07312
462.7993, 45.26307
463.2814, 45.71716
463.7635, 47.02081
464.2456, 47.90072
464.7278, 47.69770
465.2099, 46.99498
465.6920, 46.53149
466.1741, 46.60165
466.6562, 47.12786
467.1383, 48.08223
467.6205, 49.73709
468.1026, 50.99322
468.5847, 51.47760
469.0668, 51.85657
469.5489, 52.41102
470.0310, 53.10833
470.5132, 53.77024
470.9953, 54.24206
471.4774, 54.65020
471.9595, 55.40078
472.4416, 56.64681
472.9237, 57.65557
473.4059, 57.73061
473.8880, 57.71639
474.3701, 58.50222
474.8522, 60.20780
475.3343, 61.90296
475.8164, 62.91753
476.2986, 63.47467
476.7807, 64.10261
477.2628, 64.84354
477.7449, 65.73500
478.2270, 66.95515
478.7091, 68.36194
479.1913, 69.36789
479.6734, 69.67287
480.1555, 69.87101
480.6376, 70.25224
481.1197, 70.74857
481.6018, 71.19695
482.0839, 71.53816
482.5660, 71.89843
483.0482, 72.48338
483.5303, 73.41006
484.0124, 74.11555
484.4945, 74.28932
484.9766, 74.54477
485.4587, 75.41196
485.9409, 76.63139
486.4230, 77.52943
486.9051, 77.71762
487.3872, 77.42650
487.8693, 77.35658
488.3514, 77.89214
488.8336, 77.90165
489.3157, 76.69035
489.7978, 75.49419
490.2799, 75.43159
490.7620, 76.31323
491.2441, 76.90037
491.7263, 76.06804
492.2084, 74.12720
492.6905, 72.64046
493.1726, 71.89890
493.6547, 70.91854
494.1368, 69.12491
494.6190, 66.98018
495.1011, 64.87349
495.5832, 62.85761
496.0653, 61.01463
496.5474, 59.57161
497.0295, 58.36972
497.5117, 56.98142
497.9938, 55.37420
498.4759, 53.41826
498.9580, 50.63696
499.4401, 47.30910
499.9222, 44.90731
500.4044, 44.24866
500.8865, 43.77555
501.3686, 42.73322
501.8507, 41.28320
502.3328, 39.68552
502.8149, 38.02354
503.2971, 36.41773
503.7792, 35.02458
504.2613, 33.81041
504.7434, 32.95556
505.2255, 32.85102
505.7076, 32.68077
506.1898, 31.94024
506.6719, 30.84613
507.1540, 29.88515
507.6361, 29.31306
508.1182, 28.99954
508.6003, 28.71869
509.0825, 28.66477
509.5646, 28.11642
510.0467, 26.25710
510.5288, 24.52703
511.0109, 23.88010
511.4930, 24.11339
511.9752, 24.29043
512.4573, 23.73671
512.9394, 22.79472
513.4215, 22.23033
513.9036, 22.06491
514.3857, 22.15706
514.8679, 22.72996
515.3500, 23.32816
515.8321, 23.32376
516.3142, 22.63953
516.7963, 21.95517
517.2784, 21.53676
517.7606, 21.29968
518.2427, 21.23677
518.7248, 21.32080
519.2069, 21.13671
519.6890, 20.25609
520.1711, 18.93634
520.6533, 18.52085
521.1354, 20.02504
521.6175, 20.93287
522.0996, 20.30958
522.5817, 19.19842
523.0638, 18.69946
523.5460, 18.94770
524.0281, 19.29790
524.5102, 19.09896
524.9923, 18.37532
525.4744, 17.98495
525.9565, 18.13031
526.4387, 18.37242
526.9208, 18.84288
527.4029, 19.24674
527.8850, 19.18564
528.3671, 18.58436
528.8492, 17.91513
529.3314, 17.78259
529.8135, 18.10340
530.2956, 17.95630
530.7777, 16.98623
531.2598, 16.18253
531.7419, 16.49817
532.2241, 17.31631
532.7062, 17.59217
533.1883, 16.85753
533.6704, 16.12483
534.1525, 16.23728
534.6346, 16.85256
535.1168, 17.18361
535.5989, 17.05217
536.0810, 16.61147
536.5631, 15.91271
537.0452, 14.93663
537.5273, 14.42886
538.0095, 14.63014
538.4916, 14.98271
538.9737, 15.55982
539.4558, 16.06648
539.9379, 15.94594
540.4200, 15.06402
540.9022, 14.03517
541.3843, 13.77890
541.8664, 14.49308
542.3485, 14.86059
542.8306, 14.67731
543.3127, 14.34312
543.7948, 13.85758
544.2769, 13.33771
544.7590, 12.97243
545.2411, 12.84703
545.7233, 12.76859
546.2054, 12.30105
546.6875, 11.51161
547.1696, 11.60107
547.6517, 13.29296
548.1339, 14.86031
548.6160, 14.17827
549.0981, 12.12760
549.5802, 11.26700
550.0623, 13.24379
550.5444, 15.28620
551.0266, 15.62115
551.5087, 14.67762
551.9908, 13.10341
552.4729, 11.03863
552.9550, 9.509256
553.4371, 9.993284
553.9193, 13.03640
554.4014, 14.77640
554.8835, 14.79904
555.3656, 14.18653
555.8477, 12.58850
556.3298, 10.84774
556.8120, 10.38202
557.2941, 11.65001
557.7762, 13.37102
558.2583, 13.55353
558.7404, 11.93390
559.2225, 11.00438
559.7047, 11.27999
560.1868, 11.68798
560.6689, 11.75401
561.1510, 11.59261
561.6331, 11.37371
562.1152, 11.10306
562.5974, 10.91596
563.0795, 11.07230
563.5616, 11.43553
564.0437, 11.40124
564.5258, 10.74493
565.0079, 10.18572
565.4901, 10.52089
565.9722, 11.68693
566.4543, 12.26157
566.9364, 11.65378
567.4185, 11.13559
567.9006, 11.24827
568.3828, 11.72279
568.8649, 12.21309
569.3470, 12.60969
569.8291, 12.94898
570.3112, 13.31407
570.7933, 13.73504
571.2755, 13.64399
571.7576, 12.54235
572.2397, 11.53825
572.7218, 10.75897
573.2039, 10.27697
573.6860, 10.26305
574.1682, 10.74411
574.6503, 11.28940
575.1324, 11.60624
575.6145, 11.66382
576.0966, 11.16773
576.5787, 9.892341
577.0609, 8.890311
577.5430, 8.922304
578.0251, 9.661550
578.5072, 10.28005
578.9893, 10.76287
579.4714, 11.12232
579.9536, 11.28528
580.4357, 11.36763
580.9178, 11.55092
581.3999, 11.83283
581.8820, 12.03427
582.3641, 12.01725
582.8463, 11.80417
583.3284, 11.52185
583.8105, 11.05453
584.2926, 10.68666
584.7747, 10.37464
585.2568, 10.21051
585.7390, 10.26174
586.2211, 10.52996
586.7032, 11.01330
587.1853, 11.87527
587.6674, 12.83273
588.1495, 13.03797
588.6317, 12.38927
589.1138, 11.57727
589.5959, 10.55328
590.0780, 9.724910
590.5601, 9.631674
591.0422, 10.25855
591.5244, 10.89095
592.0065, 11.50352
592.4886, 11.87891
592.9707, 11.74485
593.4528, 11.18549
593.9349, 10.34336
594.4171, 9.221161
594.8992, 8.332493
595.3813, 8.679662
595.8634, 10.96001
596.3455, 12.41235
596.8276, 12.83205
597.3098, 12.76737
597.7919, 12.09922
598.2740, 11.19514
598.7561, 10.63638
599.2382, 10.66866
599.7203, 10.92959
600.2025, 10.89295
600.6846, 10.57189
601.1667, 10.48238
601.6488, 10.75101
602.1309, 11.10417
602.6130, 11.40286
603.0952, 11.64673
603.5773, 11.81429
604.0594, 11.87306
604.5415, 11.91395
605.0236, 12.20710
605.5057, 12.42639
605.9879, 11.80261
606.4700, 10.32437
606.9521, 9.131639
607.4342, 9.254481
607.9163, 10.47123
608.3984, 11.09299
608.8806, 10.49513
609.3627, 10.14124
609.8448, 10.33427
610.3269, 10.67314
610.8090, 10.80414
611.2911, 10.75039
611.7733, 10.83814
612.2554, 11.46436
612.7375, 12.23021
613.2196, 11.99845
613.7017, 10.63105
614.1838, 9.751330
614.6660, 10.04198
615.1481, 10.77941
615.6302, 11.24082
616.1123, 11.44000
616.5944, 11.28208
617.0765, 10.35217
617.5587, 9.434244
618.0408, 9.064090
618.5229, 9.111455
619.0050, 9.285396
619.4871, 9.480273
619.9692, 9.680803
620.4514, 9.852079
620.9335, 9.972858
621.4156, 10.23908
621.8977, 11.05136
622.3798, 11.52217
622.8619, 11.09875
623.3441, 10.38019
623.8262, 10.06390
624.3083, 10.31249
624.7904, 10.75432
625.2725, 11.22689
625.7546, 11.63559
626.2367, 11.63192
626.7188, 11.16052
627.2009, 10.71424
627.6830, 10.51149
628.1652, 10.52267
628.6473, 10.74787
629.1294, 11.32294
629.6115, 11.64479
630.0936, 11.42868
630.5757, 11.10000
631.0579, 11.10753
631.5400, 11.26473
632.0221, 10.88365
632.5042, 9.590682
632.9863, 8.137887
633.4684, 8.123921
633.9506, 9.969379
634.4327, 11.17801
634.9148, 11.52654
635.3969, 11.30658
635.8790, 10.08699
636.3611, 8.600951
636.8433, 8.296274
637.3254, 9.937697
637.8075, 11.49118
638.2896, 10.95227
638.7717, 9.442514
639.2538, 9.426990
639.7360, 11.18509
640.2181, 12.67892
640.7002, 12.34597
641.1823, 10.73016
641.6644, 10.04792
642.1465, 11.24666
642.6287, 12.11072
643.1108, 12.62687
643.5929, 12.79345
644.0750, 12.44654
644.5571, 11.74760
645.0392, 11.04028
645.5214, 10.46319
646.0035, 10.15543
646.4856, 10.54588
646.9677, 11.63019
647.4498, 12.28238
647.9319, 12.18369
648.4141, 11.87178
648.8962, 11.85075
649.3783, 11.98525
649.8604, 11.74284
650.3425, 10.50856
650.8246, 9.673145
651.3068, 10.12013
651.7889, 11.09236
652.2710, 11.66359
652.7531, 11.72584
653.2352, 11.70480
653.7173, 11.93646
654.1995, 12.34430
654.6816, 12.63819
655.1637, 12.89837
655.6458, 12.84837
656.1279, 12.08773
656.6100, 11.29768
657.0922, 10.80797
657.5743, 10.61778
658.0564, 10.65714
658.5385, 10.97951
659.0206, 11.40581
659.5027, 11.85783
659.9849, 12.27483
660.4670, 12.47197
660.9491, 12.40321
661.4312, 12.20722
661.9133, 12.03614
662.3954, 11.86530
662.8776, 11.35390
663.3597, 9.668866
663.8418, 8.747119
664.3239, 9.246110
664.8060, 10.22106
665.2881, 10.97596
665.7703, 11.45837
666.2524, 11.96271
666.7345, 12.79722
667.2166, 13.57935
667.6987, 13.41139
668.1808, 12.32761
668.6630, 11.65118
669.1451, 11.79264
669.6272, 12.18655
670.1093, 12.35594
670.5914, 12.29928
671.0735, 12.11806
671.5557, 11.63825
672.0378, 11.24918
672.5199, 11.11336
673.0020, 11.11316
673.4841, 11.15759
673.9662, 11.20852
674.4484, 11.20886
674.9305, 11.10138
675.4126, 10.93086
675.8947, 10.83899
676.3768, 10.82578
676.8589, 10.90782
677.3411, 11.25441
677.8232, 11.50732
678.3053, 11.22422
678.7874, 10.58953
679.2695, 10.28554
679.7516, 10.53761
680.2338, 11.06829
680.7159, 12.01854
681.1980, 13.02535
681.6801, 13.49312
682.1622, 13.34014
682.6443, 12.83883
683.1265, 12.12080
683.6086, 11.35184
684.0907, 11.42734
684.5728, 12.97452
685.0549, 13.99124
685.5370, 13.95193
686.0192, 13.53017
686.5013, 12.84985
686.9834, 12.09194
687.4655, 11.70832
687.9476, 12.05607
688.4297, 12.49001
688.9119, 12.26722
689.3940, 11.72272
689.8761, 11.72397
690.3582, 12.41126
690.8403, 13.14717
691.3224, 13.44319
691.8046, 13.38352
692.2867, 13.36696
692.7688, 13.35643
693.2509, 13.45556
693.7330, 13.93895
694.2151, 14.27652
694.6973, 13.91191
695.1794, 13.16179
695.6615, 12.85226
696.1436, 13.42590
696.6257, 14.24453
697.1078, 14.56851
697.5900, 14.54948
698.0721, 14.83398
698.5542, 15.54766
699.0363, 15.92679
699.5184, 15.25224
700.0005, 13.99398
700.4827, 13.83225
700.9648, 15.88980
701.4469, 17.21904
701.9290, 17.47714
702.4111, 17.28633
702.8932, 16.68713
703.3754, 15.98944
703.8575, 15.70852
704.3396, 16.06692
704.8217, 16.76968
705.3038, 17.52871
705.7859, 18.33402
706.2681, 19.21058
706.7502, 20.20206
707.2323, 20.94586
707.7144, 21.22163
708.1965, 21.13974
708.6786, 20.92836
709.1607, 20.54824
709.6428, 20.16211
710.1249, 19.38223
710.6071, 18.99425
711.0892, 19.79178
711.5713, 21.18302
712.0534, 22.09390
712.5355, 22.18467
713.0176, 22.12791
713.4998, 22.71373
713.9819, 23.82348
714.4640, 24.96953
714.9461, 26.24356
715.4282, 26.82985
715.9103, 26.06848
716.3925, 24.78061
716.8746, 24.21514
717.3567, 24.42126
717.8388, 24.77806
718.3209, 25.49907
718.8030, 26.07208
719.2852, 26.01959
719.7673, 25.77825
720.2494, 25.98521
720.7315, 26.75700
721.2136, 27.69401
721.6957, 28.44113
722.1779, 29.05961
722.6600, 29.86424
723.1421, 30.93465
723.6242, 31.46050
724.1063, 30.90156
724.5884, 30.20630
725.0706, 30.57252
725.5527, 31.88840
726.0348, 32.58570
726.5169, 32.30707
726.9990, 31.74057
727.4811, 30.66815
727.9633, 29.70486
728.4454, 29.60937
728.9275, 30.34538
729.4096, 31.37842
729.8917, 32.48417
730.3738, 33.29584
730.8560, 32.68075
731.3381, 30.57581
731.8202, 29.40599
732.3023, 29.75671
732.7844, 30.63334
733.2665, 31.58062
733.7487, 32.45288
734.2308, 32.72038
734.7129, 31.84661
735.1950, 31.38459
735.6771, 32.45137
736.1592, 33.36653
736.6414, 32.45259
737.1235, 30.29794
737.6056, 28.53609
738.0877, 27.89141
738.5698, 27.92422
739.0519, 28.23677
739.5341, 28.76037
740.0162, 28.75620
740.4983, 28.03196
740.9804, 27.56227
741.4625, 28.05816
741.9446, 28.88548
742.4268, 28.83304
742.9089, 27.77303
743.3910, 26.62146
743.8731, 25.17791
744.3552, 23.95385
744.8373, 23.22183
745.3195, 22.85146
745.8016, 22.66247
746.2837, 22.60553
746.7658, 22.73298
747.2479, 23.29966
747.7300, 23.97803
748.2122, 23.78796
748.6943, 22.71725
749.1764, 21.40226
749.6585, 19.83543
750.1406, 18.58047
750.6227, 18.31873
751.1049, 19.02233
751.5870, 19.47926
752.0691, 19.68520
752.5512, 19.67358
753.0333, 19.14470
753.5154, 18.63955
753.9976, 18.67212
754.4797, 19.14770
754.9618, 19.61858
755.4439, 19.85220
755.9260, 20.00824
756.4081, 20.45778
756.8903, 21.03303
757.3724, 20.95196
757.8545, 20.09286
758.3366, 19.02051
758.8187, 17.98426
759.3008, 17.09813
759.7830, 16.65901
760.2651, 16.87017
760.7472, 17.05731
761.2293, 17.41482
761.7114, 17.53480
762.1935, 16.96515
762.6757, 16.19213
763.1578, 15.91175
763.6399, 16.26833
764.1220, 16.71457
764.6041, 16.83622
765.0862, 16.82351
765.5684, 16.94782
766.0505, 17.20138
766.5326, 17.53691
767.0147, 17.94570
767.4968, 18.35674
767.9789, 18.73928
768.4611, 19.07523
768.9432, 18.86217
769.4253, 17.63960
769.9074, 16.65250
770.3895, 16.10528
770.8716, 15.82660
771.3538, 15.75856
771.8359, 15.87337
772.3180, 16.16693
772.8001, 16.88889
773.2822, 17.27276
773.7643, 16.23399
774.2465, 14.81433
774.7286, 14.76185
775.2107, 15.98929
775.6928, 17.12044
776.1749, 17.39888
776.6570, 17.09672
777.1392, 16.62643
777.6213, 15.90437
778.1034, 15.67804
778.5855, 16.32375
779.0676, 16.73374
779.5497, 16.03115
780.0319, 15.06436
780.5140, 14.99237
780.9961, 15.89642
781.4782, 16.77360
781.9603, 17.47957
782.4424, 17.98907
782.9246, 18.26288
783.4067, 18.34438
783.8888, 18.30880
784.3709, 18.16015
784.8530, 17.75872
785.3351, 16.82819
785.8173, 15.82925
786.2994, 16.14581
786.7815, 17.77996
787.2636, 18.94743
787.7457, 19.24840
788.2278, 19.28162
788.7100, 19.41281
789.1921, 19.65072
789.6742, 20.04019
790.1563, 20.74971
790.6384, 21.29705
791.1205, 21.56725
791.6026, 21.75959
792.0847, 21.99831
792.5668, 22.23355
793.0490, 22.30879
793.5311, 22.18513
794.0132, 22.18893
794.4953, 22.69496
794.9774, 23.45346
795.4595, 23.99844
795.9417, 24.36649
796.4238, 24.80331
796.9059, 25.38914
797.3880, 26.09422
797.8701, 26.89325
798.3522, 27.78636
798.8344, 28.71586
799.3165, 29.79815
799.7986, 30.69735
800.2807, 31.21729
800.7628, 31.66192
801.2449, 32.23653
801.7271, 32.87250
802.2092, 33.32314
802.6913, 33.36401
803.1734, 33.63270
803.6555, 34.58743
804.1376, 35.83762
804.6198, 37.10771
805.1019, 38.28168
805.5840, 39.13173
806.0661, 39.56001
806.5482, 39.89711
807.0303, 40.59428
807.5125, 41.61347
807.9946, 42.51181
808.4767, 43.20599
808.9588, 44.34939
809.4409, 46.45473
809.9230, 48.60049
810.4052, 49.59751
810.8873, 49.44430
811.3694, 49.86830
811.8515, 51.27862
812.3336, 52.69538
812.8157, 53.58394
813.2979, 54.68758
813.7800, 56.93345
814.2621, 59.88622
814.7442, 62.29267
815.2263, 63.59330
815.7084, 64.37406
816.1906, 64.90755
816.6727, 65.41373
817.1548, 66.44058
817.6369, 67.95100
818.1190, 69.46088
818.6011, 70.77312
819.0833, 71.79763
819.5654, 72.32661
820.0475, 72.32947
820.5296, 72.76548
821.0117, 73.87379
821.4938, 74.93472
821.9760, 75.79497
822.4581, 76.50456
822.9402, 77.21778
823.4223, 77.84668
823.9044, 77.96702
824.3865, 77.29131
824.8687, 76.40993
825.3508, 75.04601
825.8329, 73.96097
826.3150, 74.16643
826.7971, 75.30826
827.2792, 76.42994
827.7614, 77.12169
828.2435, 77.09583
828.7256, 75.53280
829.2077, 72.95436
829.6898, 71.52190
830.1719, 71.29427
830.6541, 70.86826
831.1362, 69.73905
831.6183, 68.15391
832.1004, 66.27635
832.5825, 64.12696
833.0646, 62.59045
833.5468, 61.80861
834.0289, 61.45880
834.5110, 61.96065
834.9931, 62.42837
835.4752, 62.21955
835.9573, 61.54154
836.4395, 60.99561
836.9216, 60.79946
837.4037, 60.52560
837.8858, 59.96865
838.3679, 59.20438
838.8500, 58.12073
839.3322, 56.92082
839.8143, 56.00570
840.2964, 55.53212
840.7785, 55.55487
841.2606, 56.34488
841.7427, 57.60255
842.2249, 58.00139
842.7070, 57.49270
843.1891, 57.23320
843.6712, 57.49034
844.1533, 58.12518
844.6354, 59.17126
845.1176, 60.46871
845.5997, 61.21292
846.0818, 60.70066
846.5639, 60.74959
847.0460, 61.93314
847.5281, 63.04000
848.0103, 63.55311
848.4924, 63.60771
848.9745, 63.19271
849.4566, 62.30944
849.9387, 62.14561
850.4208, 64.21264
850.9030, 66.45370
851.3851, 66.82759
851.8672, 66.04439
852.3493, 65.36076
852.8314, 65.11208
853.3135, 65.25807
853.7957, 65.77415
854.2778, 66.65535
854.7599, 68.09165
855.2420, 70.06302
855.7241, 71.40270
856.2062, 71.94846
856.6884, 71.98991
857.1705, 71.49362
857.6526, 70.82206
858.1347, 70.60027
858.6168, 70.80347
859.0989, 71.58852
859.5811, 73.74751
860.0632, 75.44821
860.5453, 76.34251
861.0274, 76.55910
861.5095, 75.79354
861.9916, 74.38918
862.4738, 73.69897
862.9559, 74.53471
863.4380, 75.52109
863.9201, 75.97245
864.4022, 75.95063
864.8843, 75.27050
865.3665, 74.18164
865.8486, 73.46611
866.3307, 73.44011
866.8128, 73.46748
867.2949, 72.63390
867.7770, 71.19490
868.2592, 70.28102
868.7413, 69.90002
869.2234, 69.73866
869.7055, 69.79188
870.1876, 69.68893
870.6697, 69.06753
871.1519, 68.00026
871.6340, 66.89364
872.1161, 65.72327
872.5981, 64.55937
873.0803, 63.34557
873.5624, 62.21281
874.0445, 61.13623
874.5266, 60.21418
875.0087, 59.72882
875.4908, 59.76511
875.9730, 59.31863
876.4551, 57.39502
876.9372, 55.59987
877.4193, 55.57696
877.9014, 55.92266
878.3835, 54.30133
878.8657, 50.92581
879.3478, 48.21416
879.8299, 47.72219
880.3120, 48.05680
880.7941, 47.53239
881.2762, 46.22198
881.7584, 43.91619
882.2405, 40.76481
882.7226, 38.86234
883.2047, 39.27974
883.6868, 40.24818
884.1689, 39.21204
884.6511, 36.26640
885.1332, 34.69655
885.6153, 35.19427
886.0974, 35.14369
886.5795, 33.81702
887.0616, 32.07521
887.5438, 30.17579
888.0259, 28.38682
888.5080, 27.59734
888.9901, 28.50881
889.4722, 28.78043
889.9543, 27.54355
890.4365, 26.17219
890.9186, 25.29219
891.4007, 24.77080
891.8828, 24.52079
892.3649, 24.43975
892.8470, 24.08583
893.3292, 22.99900
893.8113, 21.79882
894.2934, 21.13428
894.7755, 20.75018
895.2576, 20.11077
895.7397, 19.26546
896.2219, 18.81949
896.7040, 19.10480
897.1861, 19.57884
897.6682, 19.30323
898.1503, 18.42348
898.6324, 18.20117
899.1146, 18.69282
899.5967, 19.10012
900.0788, 19.25391
900.5609, 18.94724
901.0430, 17.82648
901.5251, 16.09537
902.0073, 15.05674
902.4894, 15.14350
902.9715, 15.02926
903.4536, 14.67369
903.9357, 14.07355
904.4178, 12.65807
904.9000, 11.28741
905.3821, 11.42291
905.8642, 13.27011
906.3463, 14.57171
906.8284, 14.68082
907.3105, 14.25421
907.7927, 13.21002
908.2748, 12.05090
908.7569, 11.16642
909.2390, 10.64839
909.7211, 10.58136
910.2032, 11.06454
910.6854, 11.63948
911.1675, 11.85626
911.6496, 11.90982
912.1317, 12.21065
912.6138, 12.64284
913.0959, 12.72496
913.5781, 12.32591
914.0602, 11.73170
914.5423, 11.13959
915.0244, 10.66608
915.5065, 10.72340
915.9886, 11.31645
916.4708, 12.01000
916.9529, 12.89030
917.4350, 13.01394
917.9171, 11.55829
918.3992, 9.607426
918.8813, 9.129228
919.3635, 10.35498
919.8456, 11.26790
920.3277, 11.83540
920.8098, 12.14402
921.2919, 12.08579
921.7740, 11.88410
922.2562, 11.65083
922.7383, 11.39925
923.2204, 11.15044
923.7025, 10.87187
924.1846, 10.68717
924.6667, 10.61676
925.1489, 10.66074
925.6310, 11.08148
926.1131, 11.47641
926.5952, 11.13240
927.0773, 10.08349
927.5594, 9.288570
928.0416, 9.390490
928.5237, 9.766794
929.0058, 9.919104
929.4879, 9.937262
929.9700, 9.977936
930.4521, 10.02795
930.9343, 9.950777
931.4164, 9.693882
931.8985, 9.405288
932.3806, 9.159086
932.8627, 9.059026
933.3448, 9.695547
933.8270, 10.95322
934.3091, 11.46768
934.7912, 10.91840
935.2733, 9.985826
935.7554, 9.023585
936.2375, 8.331668
936.7197, 8.898454
937.2018, 11.22662
937.6839, 11.76744
938.1660, 9.689597
938.6481, 7.914950
939.1302, 7.382195
939.6124, 7.553640
940.0945, 8.122760
940.5766, 8.995189
941.0587, 9.274998
941.5408, 8.348975
942.0229, 7.793357
942.5051, 8.024769
942.9872, 8.263535
943.4693, 7.943599
943.9514, 7.498139
944.4335, 7.726793
944.9156, 8.674700
945.3978, 9.069057
945.8799, 7.738460
946.3620, 6.650958
946.8441, 7.181882
947.3262, 8.173411
947.8083, 8.375745
948.2905, 7.981635
948.7726, 7.862486
949.2547, 8.341312
949.7368, 8.898128
950.2189, 9.156870
950.7010, 9.201865
951.1832, 9.127140
951.6653, 8.937507
952.1474, 8.530451
952.6295, 7.961484
953.1116, 7.614224
953.5938, 7.734869
954.0759, 8.203657
954.5580, 9.156167
955.0400, 10.33654
955.5222, 10.04397
956.0043, 8.270420
956.4864, 7.177585
956.9685, 7.511512
957.4506, 8.342284
957.9327, 8.866048
958.4149, 9.015281
958.8970, 8.306525
959.3791, 6.396575
959.8612, 5.386000
960.3433, 5.611033
960.8254, 6.263007
961.3076, 7.209340
961.7897, 8.100277
962.2718, 8.410127
962.7539, 8.125796
963.2360, 7.960855
963.7181, 8.105525
964.2003, 8.074761
964.6824, 7.312507
965.1645, 6.908073
965.6466, 8.059264
966.1287, 9.707831
966.6108, 9.863979
967.0930, 8.178214
967.5751, 6.907381
968.0572, 6.547365
968.5393, 6.658290
969.0214, 7.585765
969.5035, 8.486953
969.9857, 8.344670
970.4678, 7.551569
970.9499, 7.366128
971.4320, 8.285478
971.9141, 8.992929
972.3962, 8.224909
972.8784, 7.392391
973.3605, 8.214499
973.8426, 9.584994
974.3247, 9.537954
974.8068, 8.068087
975.2889, 6.591897
975.7711, 5.826447
976.2532, 5.673514
976.7353, 6.484109
977.2174, 7.595922
977.6995, 7.648980
978.1816, 6.883775
978.6638, 6.278396
979.1459, 6.121241
979.6280, 6.330726
980.1101, 6.903345
980.5922, 7.589191
981.0743, 7.889665
981.5565, 7.829447
982.0386, 7.390999
982.5207, 6.599699
983.0028, 6.374835
983.4849, 7.136060
983.9670, 7.930024
984.4492, 7.649595
984.9313, 6.573876
985.4134, 6.052469
985.8955, 6.173026
986.3776, 6.171166
986.8597, 5.906533
987.3419, 5.776946
987.8240, 6.027594
988.3061, 6.406108
988.7882, 6.508957
989.2703, 6.937543
989.7524, 6.595040
990.2346, 7.620285
990.7167, 8.313656
991.1988, 8.535512
991.6809, 8.395987
992.1630, 7.524747
992.6451, 6.553174
993.1273, 6.860980
993.6094, 8.765671
994.0915, 9.606413
994.5736, 8.306320
995.0557, 7.394400
995.5378, 7.674096
996.0200, 8.166150
996.5021, 8.294088
996.9842, 8.131605
997.4663, 7.923450
997.9484, 7.742854
998.4305, 7.205812
998.9127, 5.305637
999.3948, 4.169994
999.8769, 5.760477
1000.359, 7.682640
1000.841, 7.219856
1001.323, 5.215471
1001.805, 4.466932
1002.287, 5.945702
1002.770, 7.369691
1003.252, 7.458568
1003.734, 7.190615
1004.216, 7.235565
1004.698, 7.388110
1005.180, 7.396811
1005.662, 7.206347
1006.144, 6.713158
1006.627, 5.792709
1007.109, 5.158113
1007.591, 5.721056
1008.073, 6.620829
1008.555, 6.811435
1009.037, 6.571363
1009.519, 6.542529
1010.001, 6.786266
1010.483, 6.911801
1010.966, 6.679964
1011.448, 6.358644
1011.930, 6.106587
1012.412, 6.069648
1012.894, 6.840065
1013.376, 8.072226
1013.858, 8.544231
1014.340, 8.040959
1014.823, 7.314915
1015.305, 6.870914
1015.787, 6.611851
1016.269, 6.283850
1016.751, 6.008311
1017.233, 6.497145
1017.715, 7.612061
1018.197, 8.061235
1018.679, 7.490279
1019.162, 6.675478
1019.644, 6.236785
1020.126, 6.019777
1020.608, 5.556180
1021.090, 4.906285
1021.572, 5.048072
1022.054, 6.049336
1022.536, 6.604168
1023.018, 6.213971
1023.501, 6.095814
1023.983, 7.548404
1024.465, 6.817496
1024.947, 6.617596
1025.429, 6.829803
1025.911, 5.490698
1026.393, 6.006428
1026.875, 6.101863
1027.358, 4.753986
1027.840, 3.578646
1028.322, 4.348083
1028.804, 3.796547
1029.286, 3.985511
1029.768, 5.136693
1030.250, 4.884989
1030.732, 7.073351
1031.214, 8.433211
1031.697, 7.514134
1032.179, 5.825677
1032.661, 4.717772
1033.143, 4.178189
1033.625, 4.161383
1034.107, 4.799256
1034.589, 5.690623
1035.071, 7.349076
1035.553, 8.297084
1036.036, 7.641480
1036.518, 6.468889
1037.000, 5.731715
1037.482, 5.422759
1037.964, 5.526557
1038.446, 6.507409
1038.928, 6.975540
1039.410, 6.329370
1039.893, 5.986840
1040.375, 6.931924
1040.857, 7.982345
1041.339, 7.780390
1041.821, 6.605813
1042.303, 5.979693
1042.785, 6.069798
1043.267, 6.428611
1043.750, 7.608991
1044.232, 8.344805
1044.714, 7.799182
1045.196, 6.908167
1045.678, 6.535960
1046.160, 6.631956
1046.642, 6.809644
1047.124, 7.156907
1047.606, 7.304051
1048.089, 7.024174
1048.571, 6.754004
1049.053, 6.729170
1049.535, 6.748797
1050.017, 6.528903
1050.499, 6.163144
1050.981, 6.043732
1051.463, 6.218638
1051.945, 6.679124
1052.428, 8.150247
1052.910, 9.027645
1053.392, 8.151287
1053.874, 6.676907
1054.356, 5.516521
1054.838, 4.808297
1055.320, 4.691347
1055.802, 5.334290
1056.285, 6.072886
1056.767, 7.066084
1057.249, 7.693200
1057.731, 7.334666
1058.213, 6.708919
1058.695, 6.548758
1059.177, 6.762285
1059.659, 6.880849
1060.141, 6.793197
1060.624, 6.622989
1061.106, 6.214449
1061.588, 5.973882
1062.070, 6.264117
1062.552, 6.696714
1063.034, 6.984316
1063.516, 7.057859
1063.998, 6.818277
1064.480, 6.201035
1064.963, 5.597123
1065.445, 5.161679
1065.927, 4.777696
1066.409, 4.238344
1066.891, 3.841702
1067.373, 3.956599
1067.855, 4.439656
1068.337, 4.974980
1068.820, 5.501714
1069.302, 5.771196
1069.784, 5.572326
1070.266, 5.220401
1070.748, 4.659587
1071.230, 4.213383
1071.712, 4.222574
1072.194, 4.562274
1072.677, 4.989720
1073.159, 5.442165
1073.641, 5.725854
1074.123, 5.650762
1074.605, 5.520806
1075.087, 5.511425
1075.569, 5.495466
1076.051, 5.284086
1076.533, 5.012306
1077.016, 4.999067
1077.498, 5.269833
1077.980, 5.377921
1078.462, 4.881445
1078.944, 4.551168
1079.426, 4.890874
1079.908, 5.417162
1080.390, 5.950544
1080.872, 6.292618
1081.354, 5.978880
1081.837, 5.098946
1082.319, 4.728517
1082.801, 5.679461
1083.283, 6.410609
1083.765, 5.884511
1084.247, 5.208562
1084.729, 5.193675
1085.211, 5.534115
1085.694, 5.858185
1086.176, 6.064612
1086.658, 6.002311
1087.140, 5.433569
1087.622, 5.127771
1088.104, 5.802582
1088.586, 6.399626
1089.068, 6.024137
1089.551, 5.355088
1090.033, 5.334271
1090.515, 5.786729
1090.997, 5.708933
1091.479, 4.599454
1091.961, 4.025833
1092.443, 5.231752
1092.925, 6.326311
1093.407, 6.292173
1093.890, 5.699345
1094.372, 4.857646
1094.854, 4.014240
1095.336, 3.577989
1095.818, 3.646252
1096.300, 4.001088
1096.782, 5.163618
1097.264, 5.821040
1097.746, 4.965346
1098.229, 3.875351
1098.711, 3.510124
1099.193, 3.683244
1099.675, 3.981284
1100.157, 4.343409
1100.639, 4.618934
1101.121, 4.385653
1101.603, 4.610157
1102.086, 6.657623
1102.568, 8.059421
1103.050, 6.294393
1103.532, 3.508439
1104.014, 2.942647
1104.496, 4.600588
1104.978, 5.745573
1105.460, 5.689780
1105.943, 5.493453
1106.425, 4.971431
1106.907, 4.763720
1107.389, 5.555352
1107.871, 6.503565
1108.353, 6.759811
1108.835, 6.370836
1109.317, 5.654194
1109.799, 4.180514
1110.281, 3.504440
1110.764, 4.322061
1111.246, 5.175310
1111.728, 5.802501
1112.210, 6.173816
1112.692, 6.158247
1113.174, 5.889536
1113.656, 5.673127
1114.138, 5.459261
1114.621, 5.538930
1115.103, 6.380447
1115.585, 6.731501
1116.067, 5.964960
1116.549, 5.234001
1117.031, 5.257361
1117.513, 5.684194
1117.995, 6.009600
1118.478, 6.234691
1118.960, 6.159017
1119.442, 5.508667
1119.924, 5.239245
1120.406, 5.671388
1120.888, 5.993693
1121.370, 5.828905
1121.852, 5.425426
1122.334, 4.976782
1122.817, 4.562365
1123.299, 4.705430
1123.781, 5.682301
1124.263, 6.010936
1124.745, 5.458418
1125.227, 4.951752
1125.709, 4.730302
1126.191, 4.807512
1126.673, 5.295059
1127.156, 5.906173
1127.638, 5.844403
1128.120, 5.070165
1128.602, 4.918309
1129.084, 5.463785
1129.566, 5.865903
1130.048, 5.944883
1130.530, 5.956531
1131.013, 6.032148
1131.495, 6.231942
1131.977, 6.776034
1132.459, 7.447467
1132.941, 6.902845
1133.423, 5.275544
1133.905, 4.597005
1134.387, 5.048113
1134.870, 5.376242
1135.352, 5.087529
1135.834, 4.870794
1136.316, 5.456230
1136.798, 6.360354
1137.280, 6.486747
1137.762, 6.664032
1138.244, 5.982269
1138.726, 6.158400
1139.208, 5.812584
1139.691, 4.868316
1140.173, 4.324904
1140.655, 4.838661
1141.137, 5.707294
1141.619, 6.328848
1142.101, 6.509788
1142.583, 5.512414
1143.065, 3.935349
1143.548, 3.002197
1144.030, 2.859527
1144.512, 3.363936
1144.994, 4.421306
1145.476, 5.353498
1145.958, 5.479096
1146.440, 5.409490
1146.922, 5.806612
1147.405, 6.337979
1147.887, 6.581172
1148.369, 6.616368
1148.851, 6.761703
1149.333, 7.010881
1149.815, 6.861987
1150.297, 5.807899
1150.779, 5.055274
1151.261, 5.747074
1151.744, 6.522125
1152.226, 6.447049
1152.708, 5.837154
1153.190, 4.878842
1153.672, 3.815853
1154.154, 3.152214
1154.636, 3.004416
1155.118, 3.203929
1155.600, 4.033551
1156.083, 4.746371
1156.565, 5.238289
1157.047, 5.370137
1157.529, 4.606350
1158.011, 3.649980
1158.493, 3.875066
1158.975, 5.306641
1159.457, 5.804404
1159.940, 3.796370
1160.422, 3.244241
1160.904, 5.693247
1161.386, 7.525895
1161.868, 7.155513
1162.350, 6.088234
1162.832, 5.507236
1163.314, 5.383986
1163.796, 5.706757
1164.279, 6.635669
1164.761, 7.091248
1165.243, 6.965019
1165.725, 6.757727
1166.207, 6.609248
1166.689, 6.172594
1167.171, 5.122264
1167.653, 4.057319
1168.135, 3.868548
1168.618, 4.399551
1169.100, 4.725184
1169.582, 4.852127
1170.064, 5.554340
1170.546, 6.873027
1171.028, 7.545757
1171.510, 7.152727
1171.992, 6.649093
1172.474, 6.827415
1172.957, 7.225421
1173.439, 7.090075
1173.921, 6.507081
1174.403, 5.411279
1174.885, 4.130095
1175.367, 3.781034
1175.849, 4.420309
1176.331, 5.470691
1176.814, 6.652081
1177.296, 7.470207
1177.778, 7.291133
1178.260, 6.789392
1178.742, 6.704659
1179.224, 6.813398
1179.706, 7.014318
1180.188, 7.080553
1180.671, 6.357154
1181.153, 4.990153
1181.635, 4.286939
1182.117, 4.960585
1182.599, 5.840474
1183.081, 6.489225
1183.563, 6.921341
1184.045, 7.193589
1184.527, 7.213036
1185.010, 6.786989
1185.492, 6.063403
1185.974, 5.269708
1186.456, 4.406624
1186.938, 4.075824
1187.420, 4.709868
1187.902, 5.372440
1188.384, 6.232462
1188.866, 6.692595
1189.349, 6.136844
1189.831, 5.415075
1190.313, 5.481140
1190.795, 6.104867
1191.277, 6.370382
1191.759, 6.209464
1192.241, 5.981529
1192.723, 5.683014
1193.206, 5.246531
1193.688, 4.494720
1194.170, 4.363518
1194.652, 5.584220
1195.134, 6.998054
1195.616, 6.837175
1196.098, 5.603449
1196.580, 5.576172
1197.063, 6.598815
1197.545, 7.198736
1198.027, 7.230516
1198.509, 6.168710
1198.991, 4.022112
1199.473, 2.834886
1199.955, 4.134147
1200.437, 6.078300
1200.919, 6.178171
1201.401, 5.363929
1201.884, 5.152496
1202.366, 5.326208
1202.848, 5.475387
1203.330, 5.538979
1203.812, 5.546938
1204.294, 5.510252
1204.776, 5.416130
1205.258, 5.101540
1205.741, 5.035204
1206.223, 5.870353
1206.705, 6.691348
1207.187, 6.633111
1207.669, 6.266893
1208.151, 6.434997
1208.633, 6.954450
1209.115, 6.947307
1209.598, 6.128090
1210.080, 5.607310
1210.562, 6.035722
1211.044, 6.052413
1211.526, 4.718789
1212.008, 3.760738
1212.490, 4.156771
1212.972, 5.140698
1213.454, 5.880358
1213.937, 6.413293
1214.419, 6.991492
1214.901, 7.784027
1215.383, 7.563497
1215.865, 6.025200
1216.347, 5.517854
1216.829, 6.734007
1217.311, 7.423805
1217.793, 6.161851
1218.276, 4.650694
1218.758, 5.337152
1219.240, 7.296891
1219.722, 7.933908
1220.204, 7.570478
1220.686, 7.217870
1221.168, 6.990226
1221.650, 7.096213
1222.133, 7.447737
1222.615, 7.156962
1223.097, 5.622209
1223.579, 4.286348
1224.061, 4.840882
1224.543, 5.810845
1225.025, 5.699201
1225.507, 5.224824
1225.990, 5.245836
1226.472, 5.621194
1226.954, 5.892191
1227.436, 5.996688
1227.918, 6.244763
1228.400, 7.125996
1228.882, 7.300115
1229.364, 5.493688
1229.846, 4.183613
1230.328, 4.971490
1230.811, 5.959499
1231.293, 5.493650
1231.775, 4.389335
1232.257, 4.214421
1232.739, 4.960467
1233.221, 5.351768
1233.703, 5.279860
1234.185, 5.316467
1234.668, 5.485443
1235.150, 5.956792
1235.632, 6.845297
1236.114, 7.550437
1236.596, 7.591439
1237.078, 7.241378
1237.560, 7.089720
1238.042, 6.895966
1238.525, 5.304135
1239.007, 3.075525
1239.489, 2.930152
1239.971, 4.585100
1240.453, 5.827118
1240.935, 6.030483
1241.417, 6.212823
1241.899, 7.139946
1242.381, 7.753043
1242.864, 6.705259
1243.346, 5.550785
1243.828, 5.630521
1244.310, 6.285149
1244.792, 7.022679
1245.274, 7.574935
1245.756, 7.391219
1246.238, 6.405388
1246.720, 5.900625
1247.203, 6.779282
1247.685, 6.990772
1248.167, 5.906806
1248.649, 4.857036
1249.131, 4.016881
1249.613, 3.744721
1250.095, 4.538599
1250.577, 5.749527
1251.059, 6.027974
1251.542, 6.505493
1252.024, 6.868292
1252.506, 6.665789
1252.988, 7.024171
1253.470, 6.697648
1253.952, 6.486516
1254.434, 6.645649
1254.916, 7.134058
1255.399, 8.010729
1255.881, 8.428093
1256.363, 6.612224
1256.845, 4.298707
1257.327, 4.241289
1257.809, 5.254497
1258.291, 5.545502
1258.773, 5.295797
1259.255, 5.425436
1259.738, 6.044844
1260.220, 6.484923
1260.702, 6.514389
1261.184, 6.330534
1261.666, 5.534929
1262.148, 5.155858
1262.630, 6.217538
1263.112, 7.177154
1263.594, 6.486933
1264.077, 5.385150
1264.559, 5.955745
1265.041, 5.535742
1265.523, 5.159413
1266.005, 5.880903
1266.487, 4.823023
1266.969, 4.999258
1267.451, 5.458834
1267.934, 5.993066
1268.416, 6.233450
1268.898, 5.962671
1269.380, 5.501564
1269.862, 5.126912
1270.344, 4.980764
1270.826, 5.756397
1271.308, 6.685591
1271.791, 5.853846
1272.273, 4.182590
1272.755, 4.007198
1273.237, 5.233994
1273.719, 5.738448
1274.201, 4.722623
1274.683, 4.333087
1275.165, 6.440168
1275.647, 8.048836
1276.130, 7.918532
1276.612, 7.115311
1277.094, 5.642959
1277.576, 4.351156
1278.058, 4.351743
1278.540, 3.560465
1279.022, 4.992691
1279.504, 3.882885
1279.986, 4.027839
1280.469, 5.719235
1280.951, 6.497366
1281.433, 6.006616
1281.915, 5.795397
1282.397, 6.426423
1282.879, 7.041657
1283.361, 6.981918
1283.843, 6.449437
1284.326, 5.682520
1284.808, 4.678119
##END=



