##NAMES=Tumchaite
##RRUFFID=R070047
##IDEAL CHEMISTRY=Na_2_Zr^4+^Si_4_O_11_&#183;2H_2_O
##LOCALITY=Vuoriyarvi Massif, Murmansk region, Russia
##OWNER=RRUFF
##SOURCE=Michael Scott
##DESCRIPTION=Fragment of a colorless vitreous crystal, co-type material. Associated with minor calcite
##STATUS=The identification of this mineral has been confirmed by single-crystal X-ray diffraction.
##URL=rruff.info/R070047
91.11523, 110.5730
91.59735, 118.4509
92.07947, 113.0476
92.56158, 97.80368
93.04370, 83.50551
93.52582, 76.62457
94.00793, 75.00327
94.49006, 74.62368
94.97218, 75.48771
95.45429, 76.55624
95.93641, 75.62926
96.41853, 72.77070
96.90064, 70.59790
97.38276, 71.67405
97.86488, 75.63878
98.34699, 78.51621
98.82911, 79.52910
99.31123, 79.10323
99.79334, 78.31315
100.2755, 76.94407
100.7576, 75.98087
101.2397, 76.72683
101.7218, 79.75288
102.2039, 81.75942
102.6861, 81.85725
103.1682, 80.06558
103.6503, 78.41279
104.1324, 76.87659
104.6145, 75.48735
105.0966, 74.07042
105.5788, 71.77296
106.0609, 70.96323
106.5430, 72.38771
107.0251, 76.54796
107.5072, 81.26675
107.9893, 87.39169
108.4715, 93.89610
108.9536, 98.91771
109.4357, 99.02361
109.9178, 100.7599
110.3999, 106.5623
110.8820, 120.2259
111.3642, 131.6185
111.8463, 139.7104
112.3284, 145.2372
112.8105, 150.3444
113.2926, 152.7240
113.7747, 156.5683
114.2569, 163.9382
114.7390, 175.9144
115.2211, 190.5846
115.7032, 207.2366
116.1853, 226.0632
116.6674, 247.9441
117.1496, 275.7898
117.6317, 305.9402
118.1138, 335.1172
118.5959, 360.2145
119.0780, 386.2269
119.5602, 414.6080
120.0423, 445.6817
120.5244, 480.4156
121.0065, 521.0901
121.4886, 565.4343
121.9707, 610.6472
122.4529, 656.5795
122.9350, 701.8139
123.4171, 744.8263
123.8992, 785.4686
124.3813, 824.9742
124.8634, 864.1754
125.3456, 902.9885
125.8277, 941.3873
126.3098, 977.5795
126.7919, 1013.528
127.2740, 1051.617
127.7561, 1091.915
128.2383, 1134.863
128.7204, 1180.278
129.2025, 1228.465
129.6846, 1281.032
130.1667, 1340.762
130.6488, 1405.302
131.1310, 1471.647
131.6131, 1540.196
132.0952, 1608.926
132.5773, 1674.356
133.0594, 1736.733
133.5415, 1796.620
134.0237, 1855.095
134.5058, 1912.354
134.9879, 1967.421
135.4700, 2021.182
135.9521, 2072.430
136.4343, 2119.168
136.9164, 2161.538
137.3985, 2199.318
137.8806, 2232.101
138.3627, 2259.636
138.8448, 2285.345
139.3270, 2310.337
139.8091, 2334.538
140.2912, 2356.058
140.7733, 2374.610
141.2554, 2391.336
141.7375, 2406.063
142.2197, 2416.421
142.7018, 2431.599
143.1839, 2454.056
143.6660, 2483.969
144.1481, 2516.564
144.6302, 2551.227
145.1124, 2588.870
145.5945, 2629.950
146.0766, 2675.272
146.5587, 2723.609
147.0408, 2775.469
147.5230, 2832.076
148.0051, 2886.110
148.4872, 2924.305
148.9693, 2942.568
149.4514, 2958.795
149.9335, 2971.445
150.4157, 2984.159
150.8978, 2998.704
151.3799, 3020.601
151.8620, 3033.708
152.3441, 3035.101
152.8262, 3028.523
153.3084, 3020.752
153.7905, 3015.596
154.2726, 3006.650
154.7547, 2991.093
155.2368, 2964.948
155.7189, 2939.045
156.2011, 2914.198
156.6832, 2890.199
157.1653, 2867.322
157.6474, 2843.137
158.1295, 2821.589
158.6116, 2804.812
159.0938, 2795.968
159.5759, 2787.724
160.0580, 2776.776
160.5401, 2764.509
161.0222, 2755.808
161.5044, 2755.928
161.9865, 2757.939
162.4686, 2756.972
162.9507, 2747.324
163.4328, 2739.586
163.9149, 2739.250
164.3971, 2744.962
164.8792, 2750.131
165.3613, 2751.131
165.8434, 2750.456
166.3255, 2750.390
166.8076, 2752.302
167.2898, 2754.474
167.7719, 2756.110
168.2540, 2757.243
168.7361, 2757.981
169.2182, 2757.852
169.7003, 2757.541
170.1825, 2757.867
170.6646, 2758.838
171.1467, 2760.720
171.6288, 2764.259
172.1109, 2769.333
172.5931, 2774.102
173.0752, 2776.579
173.5573, 2777.893
174.0394, 2779.904
174.5215, 2783.175
175.0036, 2787.538
175.4858, 2793.312
175.9679, 2800.576
176.4500, 2807.405
176.9321, 2811.376
177.4142, 2813.694
177.8963, 2817.046
178.3785, 2823.832
178.8606, 2832.035
179.3427, 2838.475
179.8248, 2843.153
180.3069, 2846.543
180.7890, 2847.271
181.2712, 2846.630
181.7533, 2848.806
182.2354, 2857.427
182.7175, 2870.006
183.1996, 2881.141
183.6818, 2890.740
184.1639, 2899.210
184.6460, 2906.929
185.1281, 2913.973
185.6102, 2921.177
186.0923, 2929.367
186.5745, 2938.079
187.0566, 2945.289
187.5387, 2950.755
188.0208, 2955.727
188.5029, 2962.747
188.9850, 2971.565
189.4672, 2979.226
189.9493, 2982.887
190.4314, 2983.676
190.9135, 2988.417
191.3956, 2998.540
191.8777, 3009.878
192.3599, 3016.207
192.8420, 3017.475
193.3241, 3016.866
193.8062, 3015.173
194.2883, 3012.542
194.7704, 3011.339
195.2526, 3012.026
195.7347, 3013.358
196.2168, 3012.674
196.6989, 3009.708
197.1810, 3007.235
197.6632, 3007.384
198.1453, 3010.113
198.6274, 3011.016
199.1095, 3009.643
199.5916, 3006.632
200.0737, 3003.097
200.5559, 2998.958
201.0380, 2994.922
201.5201, 2991.564
202.0022, 2988.976
202.4843, 2986.032
202.9664, 2982.581
203.4486, 2978.964
203.9307, 2976.189
204.4128, 2974.691
204.8949, 2972.586
205.3770, 2968.753
205.8591, 2963.007
206.3413, 2956.616
206.8234, 2949.113
207.3055, 2941.310
207.7876, 2935.610
208.2697, 2932.632
208.7519, 2929.790
209.2340, 2925.191
209.7161, 2918.032
210.1982, 2913.088
210.6803, 2911.167
211.1624, 2911.277
211.6446, 2910.456
212.1267, 2907.984
212.6088, 2906.467
213.0909, 2907.350
213.5730, 2911.027
214.0551, 2915.930
214.5373, 2922.551
215.0194, 2930.184
215.5015, 2936.932
215.9836, 2942.719
216.4657, 2947.920
216.9478, 2952.773
217.4300, 2957.198
217.9121, 2961.496
218.3942, 2965.717
218.8763, 2969.686
219.3584, 2973.019
219.8405, 2975.889
220.3227, 2977.549
220.8048, 2977.806
221.2869, 2977.121
221.7690, 2973.404
222.2511, 2965.711
222.7333, 2955.187
223.2154, 2945.679
223.6975, 2938.461
224.1796, 2930.038
224.6617, 2918.365
225.1438, 2901.889
225.6260, 2886.555
226.1081, 2872.702
226.5902, 2860.165
227.0723, 2848.882
227.5544, 2839.056
228.0365, 2830.056
228.5187, 2821.551
229.0008, 2813.392
229.4829, 2805.991
229.9650, 2798.964
230.4471, 2792.669
230.9292, 2788.114
231.4114, 2785.688
231.8935, 2784.142
232.3756, 2783.074
232.8577, 2782.964
233.3398, 2781.969
233.8220, 2780.049
234.3041, 2777.204
234.7862, 2773.228
235.2683, 2766.627
235.7504, 2761.265
236.2325, 2759.073
236.7147, 2761.944
237.1968, 2763.348
237.6789, 2762.646
238.1610, 2760.881
238.6431, 2760.344
239.1252, 2761.787
239.6074, 2763.465
240.0895, 2764.655
240.5716, 2764.933
241.0537, 2766.033
241.5358, 2768.166
242.0179, 2771.008
242.5001, 2774.042
242.9822, 2777.769
243.4643, 2774.917
243.9464, 2782.741
244.4285, 2787.912
244.9106, 2790.572
245.3928, 2783.197
245.8749, 2788.779
246.3570, 2789.169
246.8391, 2789.346
247.3212, 2796.751
247.8034, 2790.836
248.2855, 2798.127
248.7676, 2800.146
249.2497, 2804.578
249.7318, 2803.786
250.2139, 2804.607
250.6961, 2810.655
251.1782, 2813.808
251.6603, 2812.414
252.1424, 2817.000
252.6245, 2814.882
253.1066, 2817.380
253.5888, 2819.712
254.0709, 2821.311
254.5530, 2821.339
255.0351, 2822.399
255.5172, 2825.633
255.9993, 2831.418
256.4815, 2835.248
256.9636, 2836.210
257.4457, 2836.115
257.9278, 2836.867
258.4099, 2838.275
258.8921, 2841.008
259.3742, 2845.632
259.8563, 2852.147
260.3384, 2857.897
260.8205, 2862.405
261.3026, 2866.715
261.7848, 2872.115
262.2669, 2879.214
262.7490, 2885.557
263.2311, 2890.275
263.7132, 2893.542
264.1953, 2897.774
264.6775, 2903.059
265.1596, 2909.109
265.6417, 2915.767
266.1238, 2923.141
266.6059, 2930.681
267.0880, 2938.381
267.5702, 2946.202
268.0523, 2953.119
268.5344, 2958.611
269.0165, 2964.470
269.4986, 2972.611
269.9807, 2983.987
270.4629, 2993.420
270.9450, 2999.038
271.4271, 3002.540
271.9092, 3011.218
272.3913, 3026.659
272.8734, 3042.731
273.3556, 3054.668
273.8377, 3061.513
274.3198, 3070.821
274.8019, 3084.014
275.2840, 3099.660
275.7661, 3113.788
276.2483, 3125.893
276.7304, 3138.421
277.2125, 3152.948
277.6946, 3169.756
278.1768, 3185.274
278.6589, 3198.784
279.1410, 3211.629
279.6231, 3226.433
280.1052, 3243.467
280.5873, 3261.779
281.0695, 3281.461
281.5516, 3302.574
282.0337, 3321.695
282.5158, 3338.235
282.9979, 3353.858
283.4800, 3371.079
283.9622, 3389.913
284.4443, 3409.511
284.9264, 3430.298
285.4085, 3451.759
285.8906, 3471.280
286.3727, 3488.832
286.8549, 3504.359
287.3370, 3517.779
287.8191, 3529.076
288.3012, 3538.365
288.7833, 3545.456
289.2654, 3550.503
289.7476, 3554.672
290.2297, 3558.224
290.7118, 3559.117
291.1939, 3554.644
291.6760, 3545.383
292.1581, 3534.385
292.6403, 3522.722
293.1224, 3509.945
293.6045, 3494.891
294.0866, 3477.716
294.5687, 3457.829
295.0508, 3432.126
295.5330, 3402.688
296.0151, 3377.587
296.4972, 3359.808
296.9793, 3345.462
297.4614, 3328.449
297.9435, 3308.959
298.4257, 3289.711
298.9078, 3272.881
299.3899, 3257.761
299.8720, 3243.465
300.3541, 3229.971
300.8362, 3216.543
301.3184, 3201.426
301.8005, 3185.141
302.2826, 3170.474
302.7647, 3160.331
303.2469, 3152.328
303.7290, 3142.448
304.2111, 3129.849
304.6932, 3117.083
305.1753, 3107.552
305.6574, 3099.967
306.1396, 3091.669
306.6217, 3080.109
307.1038, 3067.660
307.5859, 3056.830
308.0680, 3047.767
308.5501, 3039.418
309.0323, 3031.257
309.5144, 3023.218
309.9965, 3015.235
310.4786, 3006.416
310.9607, 2998.179
311.4428, 2991.976
311.9250, 2987.788
312.4071, 2983.549
312.8892, 2978.286
313.3713, 2972.383
313.8534, 2966.171
314.3355, 2958.031
314.8177, 2951.276
315.2998, 2948.444
315.7819, 2948.872
316.2640, 2948.964
316.7461, 2946.818
317.2282, 2943.858
317.7104, 2941.021
318.1925, 2937.709
318.6746, 2935.704
319.1567, 2936.871
319.6388, 2939.936
320.1209, 2941.484
320.6031, 2938.258
321.0852, 2934.884
321.5673, 2933.826
322.0494, 2936.272
322.5315, 2939.060
323.0136, 2942.502
323.4958, 2945.773
323.9779, 2947.519
324.4600, 2944.513
324.9421, 2942.743
325.4242, 2944.230
325.9064, 2949.468
326.3885, 2956.310
326.8706, 2968.255
327.3527, 2980.253
327.8348, 2987.136
328.3170, 2981.325
328.7991, 2978.336
329.2812, 2981.774
329.7633, 2991.841
330.2454, 2999.384
330.7275, 3002.863
331.2097, 3004.860
331.6918, 3007.186
332.1739, 3010.718
332.6560, 3012.893
333.1381, 3012.582
333.6202, 3010.492
334.1024, 3010.408
334.5845, 3013.850
335.0666, 3016.978
335.5487, 3017.754
336.0308, 3015.633
336.5129, 3013.006
336.9951, 3010.665
337.4772, 3007.471
337.9593, 2999.920
338.4414, 2985.882
338.9235, 2973.942
339.4056, 2968.565
339.8878, 2970.540
340.3699, 2969.334
340.8520, 2964.324
341.3341, 2957.377
341.8162, 2950.285
342.2983, 2943.006
342.7805, 2936.466
343.2626, 2930.999
343.7447, 2926.451
344.2268, 2922.866
344.7089, 2920.388
345.1910, 2917.350
345.6732, 2911.749
346.1553, 2903.815
346.6374, 2896.366
347.1195, 2890.007
347.6016, 2884.259
348.0837, 2878.122
348.5659, 2871.596
349.0480, 2865.156
349.5301, 2859.364
350.0122, 2853.980
350.4944, 2848.384
350.9765, 2842.382
351.4586, 2836.834
351.9407, 2833.950
352.4228, 2832.774
352.9049, 2830.068
353.3871, 2820.625
353.8692, 2810.235
354.3513, 2807.937
354.8334, 2814.502
355.3155, 2821.374
355.7976, 2821.798
356.2798, 2817.945
356.7619, 2813.308
357.2440, 2806.611
357.7261, 2801.639
358.2082, 2802.647
358.6903, 2808.730
359.1725, 2813.834
359.6546, 2815.151
360.1367, 2813.732
360.6188, 2810.082
361.1009, 2801.970
361.5830, 2795.448
362.0652, 2794.114
362.5473, 2796.412
363.0294, 2798.495
363.5115, 2800.048
363.9936, 2800.355
364.4757, 2798.565
364.9579, 2793.553
365.4400, 2789.975
365.9221, 2790.202
366.4042, 2791.965
366.8863, 2792.378
367.3684, 2789.927
367.8506, 2787.302
368.3327, 2784.911
368.8148, 2782.761
369.2969, 2781.465
369.7790, 2781.167
370.2611, 2781.606
370.7433, 2782.577
371.2254, 2783.668
371.7075, 2785.988
372.1896, 2790.825
372.6717, 2797.052
373.1538, 2799.744
373.6360, 2797.241
374.1181, 2793.823
374.6002, 2791.211
375.0823, 2789.073
375.5645, 2789.129
376.0466, 2792.442
376.5287, 2796.761
377.0108, 2797.826
377.4929, 2794.761
377.9750, 2792.715
378.4572, 2793.899
378.9393, 2797.921
379.4214, 2800.854
379.9035, 2802.594
380.3856, 2803.681
380.8677, 2804.455
381.3499, 2804.940
381.8320, 2805.380
382.3141, 2805.552
382.7962, 2805.976
383.2783, 2808.145
383.7604, 2811.922
384.2426, 2815.597
384.7247, 2817.566
385.2068, 2818.596
385.6889, 2821.257
386.1710, 2826.421
386.6531, 2830.517
387.1353, 2828.315
387.6174, 2821.879
388.0995, 2816.576
388.5816, 2816.142
389.0637, 2817.354
389.5458, 2816.538
390.0280, 2813.715
390.5101, 2811.646
390.9922, 2812.892
391.4743, 2815.623
391.9564, 2817.879
392.4385, 2819.418
392.9207, 2819.914
393.4028, 2818.190
393.8849, 2815.095
394.3670, 2813.198
394.8491, 2814.183
395.3312, 2816.097
395.8134, 2817.905
396.2955, 2819.448
396.7776, 2820.896
397.2597, 2822.105
397.7418, 2823.273
398.2239, 2824.681
398.7061, 2827.851
399.1882, 2829.757
399.6703, 2829.370
400.1524, 2826.613
400.6346, 2823.875
401.1167, 2820.537
401.5988, 2817.800
402.0809, 2816.683
402.5630, 2818.847
403.0451, 2819.207
403.5273, 2816.518
404.0094, 2812.030
404.4915, 2809.312
404.9736, 2808.584
405.4557, 2809.009
405.9378, 2810.887
406.4200, 2814.546
406.9021, 2815.401
407.3842, 2812.922
407.8663, 2808.915
408.3484, 2805.191
408.8305, 2801.757
409.3127, 2799.626
409.7948, 2799.580
410.2769, 2800.829
410.7590, 2800.854
411.2411, 2799.690
411.7232, 2799.096
412.2054, 2800.902
412.6875, 2804.371
413.1696, 2807.385
413.6517, 2809.690
414.1338, 2811.445
414.6159, 2812.385
415.0981, 2812.808
415.5802, 2813.560
416.0623, 2814.246
416.5444, 2815.864
417.0265, 2820.304
417.5086, 2827.552
417.9908, 2833.615
418.4729, 2834.608
418.9550, 2833.554
419.4371, 2833.663
419.9192, 2836.585
420.4013, 2839.944
420.8835, 2843.017
421.3656, 2845.794
421.8477, 2848.289
422.3298, 2850.441
422.8119, 2852.385
423.2940, 2854.311
423.7762, 2856.470
424.2583, 2857.928
424.7404, 2857.702
425.2225, 2857.104
425.7047, 2857.644
426.1868, 2860.528
426.6689, 2862.945
427.1510, 2863.894
427.6331, 2863.652
428.1152, 2865.704
428.5974, 2871.661
429.0795, 2877.540
429.5616, 2880.677
430.0437, 2880.108
430.5258, 2880.976
431.0079, 2884.063
431.4901, 2887.893
431.9722, 2889.726
432.4543, 2889.385
432.9364, 2888.669
433.4185, 2888.445
433.9006, 2888.408
434.3828, 2879.560
434.8649, 2885.351
435.3470, 2888.487
435.8291, 2889.112
436.3112, 2879.704
436.7933, 2883.251
437.2755, 2881.607
437.7576, 2879.750
438.2397, 2885.121
438.7218, 2877.172
439.2039, 2882.428
439.6860, 2882.414
440.1682, 2884.812
440.6503, 2881.985
441.1324, 2880.772
441.6145, 2884.785
442.0966, 2885.905
442.5787, 2882.477
443.0609, 2885.028
443.5430, 2876.896
444.0251, 2878.139
444.5072, 2882.848
444.9893, 2887.355
445.4714, 2891.065
445.9536, 2892.036
446.4357, 2892.963
446.9178, 2895.179
447.3999, 2899.544
447.8820, 2903.301
448.3641, 2907.334
448.8463, 2910.368
449.3284, 2910.675
449.8105, 2905.293
450.2926, 2902.889
450.7747, 2906.095
451.2569, 2913.757
451.7390, 2918.172
452.2211, 2917.967
452.7032, 2917.970
453.1853, 2921.756
453.6674, 2929.663
454.1496, 2934.292
454.6317, 2934.423
455.1138, 2933.510
455.5959, 2936.990
456.0780, 2944.491
456.5602, 2951.806
457.0423, 2957.975
457.5244, 2962.723
458.0065, 2964.814
458.4886, 2964.497
458.9707, 2964.383
459.4529, 2966.428
459.9350, 2969.980
460.4171, 2973.865
460.8992, 2977.829
461.3813, 2982.785
461.8634, 2989.750
462.3456, 2998.188
462.8277, 3007.009
463.3098, 3017.186
463.7919, 3026.502
464.2740, 3033.306
464.7561, 3037.730
465.2383, 3042.406
465.7204, 3048.045
466.2025, 3054.144
466.6846, 3060.363
467.1667, 3066.932
467.6488, 3073.040
468.1310, 3078.147
468.6131, 3082.886
469.0952, 3088.434
469.5773, 3095.163
470.0594, 3102.079
470.5415, 3109.117
471.0237, 3116.246
471.5058, 3123.371
471.9879, 3131.093
472.4700, 3137.553
472.9521, 3140.770
473.4342, 3140.588
473.9164, 3140.957
474.3985, 3142.175
474.8806, 3144.265
475.3627, 3148.120
475.8448, 3153.452
476.3270, 3157.186
476.8091, 3156.879
477.2912, 3154.527
477.7733, 3153.928
478.2554, 3155.020
478.7375, 3156.874
479.2197, 3159.587
479.7018, 3162.365
480.1839, 3164.060
480.6660, 3164.314
481.1481, 3163.832
481.6302, 3162.388
482.1124, 3160.617
482.5945, 3159.594
483.0766, 3160.854
483.5587, 3161.898
484.0408, 3160.810
484.5229, 3157.699
485.0051, 3156.792
485.4872, 3160.345
485.9693, 3165.277
486.4514, 3169.688
486.9335, 3172.055
487.4156, 3176.590
487.8978, 3184.602
488.3799, 3194.097
488.8620, 3201.748
489.3441, 3205.872
489.8262, 3212.707
490.3083, 3225.194
490.7905, 3242.200
491.2726, 3254.116
491.7547, 3260.114
492.2368, 3265.568
492.7189, 3274.264
493.2010, 3285.929
493.6832, 3298.248
494.1653, 3311.329
494.6474, 3324.089
495.1295, 3334.952
495.6116, 3344.411
496.0938, 3354.278
496.5759, 3366.588
497.0580, 3378.507
497.5401, 3387.437
498.0222, 3393.387
498.5044, 3396.005
498.9865, 3392.112
499.4686, 3386.755
499.9507, 3384.782
500.4328, 3388.526
500.9149, 3389.349
501.3971, 3382.651
501.8792, 3372.144
502.3613, 3362.145
502.8434, 3354.094
503.3255, 3345.612
503.8076, 3335.627
504.2898, 3324.669
504.7719, 3315.320
505.2540, 3308.203
505.7361, 3301.724
506.2182, 3295.360
506.7003, 3289.299
507.1825, 3282.044
507.6646, 3273.200
508.1467, 3264.044
508.6288, 3255.194
509.1109, 3246.686
509.5930, 3242.073
510.0752, 3243.605
510.5573, 3247.215
511.0394, 3243.904
511.5215, 3234.861
512.0037, 3227.426
512.4858, 3227.129
512.9679, 3230.269
513.4500, 3230.968
513.9321, 3229.081
514.4142, 3228.914
514.8964, 3235.598
515.3785, 3244.610
515.8606, 3250.920
516.3427, 3252.055
516.8248, 3252.640
517.3069, 3253.215
517.7891, 3254.585
518.2712, 3258.274
518.7533, 3266.225
519.2354, 3274.878
519.7175, 3283.312
520.1996, 3291.551
520.6818, 3299.721
521.1639, 3306.606
521.6460, 3314.982
522.1281, 3326.658
522.6102, 3342.601
523.0923, 3358.622
523.5745, 3375.316
524.0566, 3391.034
524.5387, 3402.460
525.0208, 3409.645
525.5029, 3418.167
525.9850, 3429.669
526.4672, 3443.477
526.9493, 3458.762
527.4314, 3475.572
527.9135, 3492.900
528.3956, 3511.351
528.8777, 3529.855
529.3599, 3546.304
529.8420, 3560.545
530.3241, 3574.909
530.8062, 3591.905
531.2883, 3609.815
531.7704, 3626.212
532.2526, 3638.818
532.7347, 3652.456
533.2168, 3669.947
533.6989, 3689.563
534.1810, 3707.716
534.6631, 3723.676
535.1453, 3738.224
535.6274, 3751.607
536.1095, 3764.056
536.5916, 3773.491
537.0737, 3779.238
537.5558, 3783.171
538.0380, 3786.818
538.5201, 3790.549
539.0022, 3791.674
539.4843, 3790.246
539.9664, 3785.643
540.4485, 3775.695
540.9307, 3761.020
541.4128, 3746.789
541.8949, 3736.525
542.3770, 3725.958
542.8591, 3706.763
543.3412, 3680.295
543.8234, 3652.674
544.3055, 3628.941
544.7876, 3605.027
545.2697, 3576.017
545.7518, 3540.917
546.2339, 3507.973
546.7161, 3482.171
547.1982, 3460.060
547.6803, 3438.024
548.1624, 3416.446
548.6445, 3393.915
549.1266, 3368.594
549.6088, 3342.559
550.0909, 3320.043
550.5730, 3302.723
551.0551, 3286.416
551.5372, 3270.374
552.0193, 3254.602
552.5015, 3239.481
552.9836, 3225.068
553.4657, 3211.142
553.9478, 3196.881
554.4299, 3182.534
554.9120, 3171.552
555.3942, 3164.630
555.8763, 3158.549
556.3584, 3149.157
556.8405, 3137.703
557.3226, 3127.417
557.8047, 3119.231
558.2869, 3112.500
558.7690, 3107.274
559.2511, 3103.039
559.7332, 3098.577
560.2154, 3092.255
560.6975, 3086.553
561.1796, 3083.793
561.6617, 3084.184
562.1439, 3081.907
562.6260, 3073.109
563.1081, 3063.413
563.5902, 3055.934
564.0723, 3051.460
564.5544, 3047.554
565.0366, 3044.047
565.5187, 3041.195
566.0008, 3039.736
566.4829, 3040.050
566.9650, 3039.148
567.4471, 3035.663
567.9293, 3031.177
568.4114, 3030.453
568.8935, 3033.174
569.3756, 3035.391
569.8577, 3034.925
570.3398, 3032.413
570.8220, 3028.310
571.3041, 3022.694
571.7862, 3017.876
572.2683, 3015.681
572.7504, 3014.964
573.2325, 3014.822
573.7147, 3015.699
574.1968, 3015.559
574.6789, 3012.371
575.1610, 3008.223
575.6431, 3005.777
576.1252, 3008.204
576.6074, 3009.136
577.0895, 3007.127
577.5716, 3002.999
578.0537, 2999.750
578.5358, 2997.447
579.0179, 2995.886
579.5001, 2994.954
579.9822, 2994.653
580.4643, 2995.427
580.9464, 2997.392
581.4285, 2999.491
581.9106, 3001.422
582.3928, 3002.797
582.8749, 3001.775
583.3570, 2997.542
583.8391, 2993.666
584.3212, 2994.175
584.8033, 2997.343
585.2855, 3000.195
585.7676, 3000.294
586.2497, 3001.276
586.7318, 3006.938
587.2139, 3015.112
587.6960, 3019.606
588.1782, 3015.351
588.6603, 3010.548
589.1424, 3007.529
589.6245, 3006.241
590.1066, 3007.214
590.5887, 3011.900
591.0709, 3016.628
591.5530, 3019.348
592.0351, 3020.009
592.5172, 3018.132
592.9993, 3012.684
593.4814, 3007.660
593.9636, 3009.486
594.4457, 3016.771
594.9278, 3021.920
595.4099, 3022.323
595.8920, 3021.164
596.3741, 3022.628
596.8563, 3025.870
597.3384, 3028.610
597.8205, 3028.610
598.3026, 3028.746
598.7847, 3031.332
599.2668, 3036.102
599.7490, 3040.125
600.2311, 3040.617
600.7132, 3041.616
601.1953, 3045.637
601.6774, 3054.091
602.1595, 3060.623
602.6417, 3064.576
603.1238, 3067.353
603.6059, 3070.009
604.0880, 3072.426
604.5701, 3075.123
605.0522, 3077.941
605.5344, 3081.417
606.0165, 3086.811
606.4986, 3093.868
606.9807, 3100.646
607.4628, 3106.265
607.9449, 3111.402
608.4271, 3116.375
608.9092, 3121.522
609.3913, 3127.864
609.8735, 3136.500
610.3556, 3146.163
610.8377, 3156.234
611.3198, 3166.630
611.8019, 3177.208
612.2841, 3188.263
612.7662, 3199.280
613.2483, 3210.035
613.7304, 3219.813
614.2125, 3230.341
614.6946, 3241.597
615.1768, 3253.659
615.6589, 3266.786
616.1410, 3281.216
616.6231, 3295.609
617.1052, 3309.636
617.5873, 3323.668
618.0695, 3337.986
618.5516, 3352.602
619.0337, 3367.196
619.5158, 3382.015
619.9979, 3396.570
620.4800, 3409.108
620.9622, 3420.328
621.4443, 3433.325
621.9264, 3452.600
622.4085, 3472.046
622.8906, 3487.906
623.3727, 3499.323
623.8549, 3509.806
624.3370, 3519.923
624.8191, 3529.263
625.3012, 3537.584
625.7833, 3545.575
626.2654, 3550.942
626.7476, 3553.817
627.2297, 3553.760
627.7118, 3549.821
628.1939, 3541.954
628.6760, 3532.414
629.1581, 3521.870
629.6403, 3509.735
630.1224, 3494.252
630.6045, 3476.031
631.0866, 3457.194
631.5687, 3439.620
632.0508, 3421.328
632.5330, 3399.922
633.0151, 3376.125
633.4972, 3353.106
633.9793, 3331.686
634.4614, 3311.843
634.9435, 3293.563
635.4257, 3277.110
635.9078, 3261.797
636.3899, 3248.219
636.8720, 3234.922
637.3541, 3220.819
637.8362, 3204.975
638.3184, 3191.975
638.8005, 3182.727
639.2826, 3174.792
639.7647, 3164.114
640.2468, 3151.401
640.7289, 3142.329
641.2111, 3139.458
641.6932, 3138.271
642.1753, 3133.554
642.6574, 3126.115
643.1395, 3118.020
643.6216, 3107.976
644.1038, 3099.466
644.5859, 3095.426
645.0680, 3094.942
645.5501, 3093.575
646.0322, 3089.825
646.5143, 3085.517
646.9965, 3081.223
647.4786, 3076.901
647.9607, 3072.882
648.4428, 3069.040
648.9249, 3065.703
649.4070, 3063.426
649.8892, 3062.175
650.3713, 3059.313
650.8534, 3054.440
651.3355, 3049.658
651.8176, 3047.605
652.2997, 3047.264
652.7819, 3046.358
653.2640, 3044.160
653.7461, 3041.906
654.2282, 3040.798
654.7103, 3040.181
655.1924, 3039.082
655.6746, 3036.292
656.1567, 3033.997
656.6388, 3033.657
657.1209, 3034.260
657.6030, 3032.891
658.0851, 3028.127
658.5673, 3023.973
659.0494, 3021.714
659.5316, 3021.052
660.0137, 3019.998
660.4958, 3018.469
660.9779, 3017.594
661.4600, 3018.769
661.9421, 3021.004
662.4243, 3021.572
662.9064, 3020.422
663.3885, 3019.016
663.8706, 3018.332
664.3527, 3018.000
664.8348, 3017.589
665.3170, 3016.896
665.7991, 3016.656
666.2812, 3017.673
666.7633, 3018.945
667.2454, 3019.449
667.7275, 3017.891
668.2097, 3017.877
668.6918, 3020.253
669.1739, 3023.523
669.6560, 3025.623
670.1381, 3026.596
670.6202, 3025.837
671.1024, 3022.644
671.5845, 3018.526
672.0666, 3015.702
672.5487, 3014.283
673.0308, 3014.796
673.5129, 3020.133
673.9951, 3025.461
674.4772, 3025.777
674.9593, 3022.151
675.4414, 3019.324
675.9235, 3020.435
676.4056, 3021.565
676.8878, 3020.450
677.3699, 3016.782
677.8520, 3015.214
678.3341, 3017.354
678.8162, 3019.202
679.2983, 3017.704
679.7805, 3012.408
680.2626, 3010.935
680.7447, 3013.742
681.2268, 3017.867
681.7089, 3021.263
682.1910, 3023.655
682.6732, 3024.060
683.1553, 3022.131
683.6374, 3019.288
684.1195, 3015.160
684.6016, 3011.361
685.0837, 3009.898
685.5659, 3012.906
686.0480, 3016.155
686.5301, 3019.323
687.0122, 3021.962
687.4943, 3023.329
687.9764, 3022.733
688.4586, 3022.341
688.9407, 3022.638
689.4228, 3023.291
689.9049, 3023.635
690.3870, 3023.671
690.8691, 3022.433
691.3513, 3017.858
691.8334, 3012.981
692.3155, 3014.337
692.7976, 3020.713
693.2797, 3026.429
693.7618, 3028.379
694.2440, 3028.383
694.7261, 3026.739
695.2082, 3023.683
695.6903, 3022.500
696.1724, 3025.915
696.6545, 3029.742
697.1367, 3032.090
697.6188, 3032.766
698.1009, 3033.535
698.5830, 3034.278
699.0651, 3035.505
699.5472, 3037.911
700.0294, 3041.317
700.5115, 3044.157
700.9936, 3046.231
701.4757, 3048.110
701.9578, 3050.112
702.4399, 3052.302
702.9221, 3055.110
703.4042, 3059.267
703.8863, 3062.061
704.3684, 3060.912
704.8505, 3058.028
705.3326, 3056.026
705.8148, 3055.028
706.2969, 3055.473
706.7790, 3058.313
707.2611, 3062.073
707.7432, 3064.125
708.2253, 3064.405
708.7075, 3063.631
709.1896, 3061.454
709.6718, 3059.156
710.1539, 3060.343
710.6360, 3064.061
711.1181, 3066.250
711.6002, 3064.282
712.0823, 3060.537
712.5645, 3055.779
713.0466, 3050.664
713.5287, 3047.667
714.0108, 3047.499
714.4929, 3049.677
714.9750, 3056.364
715.4572, 3066.758
715.9393, 3069.911
716.4214, 3062.934
716.9035, 3054.678
717.3856, 3049.350
717.8677, 3046.625
718.3499, 3043.534
718.8320, 3039.977
719.3141, 3037.671
719.7962, 3038.772
720.2783, 3041.619
720.7604, 3043.564
721.2426, 3044.339
721.7247, 3045.499
722.2068, 3049.910
722.6889, 3053.791
723.1710, 3053.816
723.6531, 3047.263
724.1353, 3043.146
724.6174, 3043.616
725.0995, 3044.887
725.5816, 3043.115
726.0637, 3037.396
726.5458, 3035.215
727.0280, 3037.648
727.5101, 3041.738
727.9922, 3044.744
728.4743, 3046.396
728.9564, 3045.461
729.4385, 3040.582
729.9207, 3036.021
730.4028, 3035.759
730.8849, 3037.770
731.3670, 3039.257
731.8491, 3037.873
732.3312, 3037.750
732.8134, 3041.281
733.2955, 3046.032
733.7776, 3047.842
734.2597, 3045.686
734.7418, 3043.968
735.2239, 3043.753
735.7061, 3044.398
736.1882, 3044.478
736.6703, 3044.073
737.1524, 3043.633
737.6345, 3043.206
738.1166, 3043.005
738.5988, 3043.369
739.0809, 3044.167
739.5630, 3045.011
740.0451, 3045.224
740.5272, 3045.944
741.0093, 3048.239
741.4915, 3051.660
741.9736, 3053.416
742.4557, 3052.835
742.9378, 3051.651
743.4199, 3049.656
743.9020, 3047.500
744.3842, 3050.048
744.8663, 3057.319
745.3484, 3064.050
745.8305, 3067.628
746.3126, 3068.449
746.7947, 3065.945
747.2769, 3060.606
747.7590, 3056.180
748.2411, 3054.747
748.7232, 3054.862
749.2053, 3055.725
749.6874, 3057.314
750.1696, 3059.810
750.6517, 3064.036
751.1338, 3068.025
751.6159, 3070.519
752.0980, 3071.446
752.5801, 3072.834
753.0623, 3074.805
753.5444, 3075.891
754.0265, 3073.024
754.5086, 3068.845
754.9907, 3069.439
755.4728, 3075.636
755.9550, 3081.067
756.4371, 3080.708
756.9192, 3078.510
757.4013, 3077.727
757.8835, 3079.505
758.3656, 3080.936
758.8477, 3082.221
759.3298, 3082.831
759.8120, 3082.240
760.2941, 3080.370
760.7762, 3078.096
761.2583, 3075.235
761.7404, 3073.088
762.2225, 3073.588
762.7047, 3075.871
763.1868, 3077.971
763.6689, 3079.537
764.1510, 3080.942
764.6331, 3082.339
765.1152, 3083.770
765.5974, 3085.302
766.0795, 3087.778
766.5616, 3088.843
767.0437, 3086.669
767.5258, 3084.419
768.0079, 3086.638
768.4901, 3094.200
768.9722, 3097.864
769.4543, 3095.380
769.9364, 3091.419
770.4185, 3092.800
770.9006, 3097.770
771.3828, 3101.930
771.8649, 3103.818
772.3470, 3105.013
772.8291, 3107.376
773.3112, 3109.466
773.7933, 3109.291
774.2755, 3104.031
774.7576, 3099.741
775.2397, 3096.616
775.7218, 3095.051
776.2039, 3096.448
776.6860, 3101.434
777.1682, 3103.689
777.6503, 3100.981
778.1324, 3097.169
778.6145, 3099.171
779.0966, 3104.985
779.5787, 3109.189
780.0609, 3108.777
780.5430, 3107.795
781.0251, 3108.506
781.5072, 3110.316
781.9893, 3112.142
782.4714, 3114.974
782.9536, 3116.147
783.4357, 3114.348
783.9178, 3111.427
784.3999, 3111.386
784.8820, 3114.444
785.3641, 3117.766
785.8463, 3120.724
786.3284, 3123.364
786.8105, 3126.329
787.2926, 3128.974
787.7747, 3129.623
788.2568, 3123.955
788.7390, 3119.784
789.2211, 3122.492
789.7032, 3129.311
790.1853, 3133.612
790.6674, 3132.227
791.1495, 3132.282
791.6317, 3135.497
792.1138, 3140.477
792.5959, 3143.765
793.0780, 3145.421
793.5601, 3146.744
794.0422, 3148.752
794.5244, 3149.985
795.0065, 3146.757
795.4886, 3141.191
795.9707, 3138.410
796.4528, 3143.147
796.9349, 3148.366
797.4171, 3151.132
797.8992, 3152.292
798.3813, 3154.232
798.8634, 3157.387
799.3455, 3160.434
799.8276, 3163.177
800.3098, 3165.458
800.7919, 3166.749
801.2740, 3167.118
801.7561, 3167.320
802.2382, 3167.305
802.7203, 3167.664
803.2025, 3169.618
803.6846, 3172.427
804.1667, 3174.430
804.6488, 3173.743
805.1309, 3173.616
805.6130, 3176.470
806.0952, 3180.308
806.5773, 3180.390
807.0594, 3175.282
807.5416, 3171.466
808.0237, 3171.207
808.5058, 3172.336
808.9879, 3169.933
809.4700, 3164.665
809.9521, 3159.406
810.4343, 3154.575
810.9164, 3151.021
811.3985, 3149.932
811.8806, 3150.533
812.3627, 3151.197
812.8448, 3152.711
813.3270, 3152.561
813.8091, 3149.113
814.2912, 3144.452
814.7733, 3143.953
815.2554, 3148.208
815.7375, 3150.019
816.2197, 3146.351
816.7018, 3141.282
817.1839, 3142.393
817.6660, 3147.419
818.1481, 3151.049
818.6302, 3150.545
819.1124, 3149.033
819.5945, 3146.964
820.0766, 3145.107
820.5587, 3145.109
821.0408, 3148.504
821.5229, 3150.969
822.0051, 3151.961
822.4872, 3151.806
822.9693, 3150.332
823.4514, 3147.804
823.9335, 3147.373
824.4156, 3150.631
824.8978, 3154.453
825.3799, 3155.628
825.8620, 3155.047
826.3441, 3154.157
826.8262, 3152.605
827.3083, 3151.744
827.7905, 3151.655
828.2726, 3152.468
828.7547, 3154.699
829.2368, 3158.823
829.7189, 3162.195
830.2010, 3164.485
830.6832, 3165.857
831.1653, 3166.383
831.6474, 3166.215
832.1295, 3165.729
832.6116, 3165.022
833.0938, 3164.141
833.5759, 3162.340
834.0580, 3160.791
834.5401, 3160.834
835.0222, 3165.635
835.5043, 3167.368
835.9865, 3164.410
836.4686, 3160.486
836.9507, 3159.963
837.4328, 3162.696
837.9149, 3164.659
838.3970, 3165.302
838.8792, 3165.905
839.3613, 3167.034
839.8434, 3169.244
840.3255, 3173.832
840.8076, 3181.949
841.2897, 3188.513
841.7719, 3191.431
842.2540, 3192.268
842.7361, 3191.917
843.2182, 3189.641
843.7003, 3189.081
844.1824, 3190.412
844.6646, 3192.749
845.1467, 3196.084
845.6288, 3199.701
846.1109, 3201.637
846.5930, 3201.723
847.0751, 3201.025
847.5573, 3198.620
848.0394, 3196.925
848.5215, 3198.215
849.0036, 3203.417
849.4857, 3207.286
849.9678, 3209.230
850.4500, 3210.663
850.9321, 3212.821
851.4142, 3212.585
851.8963, 3214.980
852.3784, 3211.476
852.8605, 3208.086
853.3427, 3206.398
853.8248, 3206.462
854.3069, 3209.384
854.7890, 3214.753
855.2711, 3218.708
855.7532, 3218.103
856.2354, 3217.763
856.7175, 3219.946
857.1996, 3223.996
857.6818, 3224.678
858.1639, 3221.269
858.6460, 3219.691
859.1281, 3224.329
859.6102, 3231.277
860.0923, 3232.625
860.5745, 3229.813
861.0566, 3227.769
861.5387, 3229.641
862.0208, 3231.995
862.5029, 3233.040
862.9850, 3233.444
863.4672, 3235.689
863.9493, 3241.640
864.4314, 3244.545
864.9135, 3241.796
865.3956, 3236.734
865.8777, 3236.296
866.3599, 3239.740
866.8420, 3244.020
867.3241, 3248.745
867.8062, 3252.880
868.2883, 3254.732
868.7704, 3255.734
869.2526, 3258.002
869.7347, 3263.270
870.2168, 3267.983
870.6989, 3272.352
871.1810, 3275.450
871.6631, 3275.063
872.1453, 3271.482
872.6274, 3270.505
873.1095, 3273.254
873.5916, 3277.266
874.0737, 3281.483
874.5558, 3284.797
875.0380, 3285.342
875.5201, 3281.390
876.0022, 3279.362
876.4843, 3282.973
876.9664, 3287.249
877.4485, 3288.852
877.9307, 3287.290
878.4128, 3286.265
878.8949, 3285.517
879.3770, 3287.388
879.8591, 3296.186
880.3412, 3307.849
880.8234, 3316.047
881.3055, 3320.400
881.7876, 3323.117
882.2697, 3323.591
882.7518, 3324.192
883.2339, 3326.447
883.7161, 3330.200
884.1982, 3332.805
884.6803, 3333.997
885.1624, 3334.931
885.6445, 3335.284
886.1266, 3336.267
886.6088, 3341.870
887.0909, 3351.064
887.5730, 3359.430
888.0551, 3363.528
888.5372, 3367.570
889.0193, 3373.838
889.5015, 3381.843
889.9836, 3389.717
890.4657, 3397.268
890.9478, 3405.247
891.4299, 3414.012
891.9120, 3422.983
892.3942, 3430.754
892.8763, 3437.840
893.3584, 3445.962
893.8405, 3455.594
894.3226, 3466.688
894.8047, 3480.015
895.2869, 3494.282
895.7690, 3507.902
896.2511, 3520.486
896.7332, 3532.308
897.2153, 3542.810
897.6974, 3553.090
898.1796, 3563.594
898.6617, 3574.630
899.1438, 3588.122
899.6259, 3604.523
900.1080, 3621.092
900.5901, 3636.715
901.0723, 3650.711
901.5544, 3661.628
902.0365, 3668.438
902.5186, 3678.733
903.0007, 3695.222
903.4828, 3712.256
903.9650, 3727.335
904.4471, 3740.672
904.9292, 3754.561
905.4113, 3769.070
905.8935, 3781.789
906.3756, 3789.666
906.8577, 3796.262
907.3398, 3805.333
907.8220, 3816.212
908.3041, 3825.827
908.7862, 3833.694
909.2683, 3840.048
909.7504, 3845.964
910.2325, 3849.790
910.7147, 3846.290
911.1968, 3835.543
911.6789, 3825.066
912.1610, 3817.472
912.6431, 3810.102
913.1252, 3800.589
913.6074, 3789.117
914.0895, 3775.858
914.5716, 3759.104
915.0537, 3743.659
915.5358, 3731.825
916.0179, 3719.858
916.5001, 3703.184
916.9822, 3681.411
917.4643, 3663.380
917.9464, 3649.903
918.4285, 3637.405
918.9106, 3621.939
919.3928, 3606.095
919.8749, 3593.317
920.3570, 3584.077
920.8391, 3574.590
921.3212, 3562.838
921.8033, 3551.626
922.2855, 3541.713
922.7676, 3533.234
923.2497, 3528.543
923.7318, 3527.772
924.2139, 3526.533
924.6960, 3521.109
925.1782, 3515.087
925.6603, 3514.132
926.1424, 3516.413
926.6245, 3517.101
927.1066, 3509.761
927.5887, 3506.649
928.0709, 3511.847
928.5530, 3521.322
929.0351, 3527.854
929.5172, 3531.344
929.9993, 3534.334
930.4814, 3536.995
930.9636, 3540.423
931.4457, 3546.042
931.9278, 3553.145
932.4099, 3560.671
932.8920, 3567.997
933.3741, 3576.983
933.8563, 3590.801
934.3384, 3603.797
934.8205, 3611.190
935.3026, 3612.674
935.7847, 3617.995
936.2668, 3627.218
936.7490, 3639.782
937.2311, 3657.950
937.7132, 3677.511
938.1953, 3692.743
938.6774, 3704.230
939.1595, 3715.650
939.6417, 3727.772
940.1238, 3740.331
940.6059, 3753.167
941.0880, 3766.258
941.5701, 3779.968
942.0522, 3794.283
942.5344, 3808.257
943.0165, 3821.775
943.4986, 3835.084
943.9807, 3848.051
944.4628, 3861.215
944.9449, 3875.466
945.4271, 3894.351
945.9092, 3908.877
946.3913, 3917.051
946.8734, 3922.836
947.3555, 3929.867
947.8376, 3938.009
948.3198, 3945.631
948.8019, 3952.635
949.2840, 3958.441
949.7661, 3963.604
950.2482, 3966.544
950.7303, 3964.935
951.2125, 3958.724
951.6946, 3953.077
952.1767, 3949.192
952.6588, 3945.043
953.1409, 3940.573
953.6230, 3934.981
954.1052, 3925.566
954.5873, 3912.429
955.0695, 3895.968
955.5516, 3873.262
956.0337, 3851.615
956.5158, 3840.108
956.9979, 3832.489
957.4800, 3818.077
957.9622, 3789.851
958.4443, 3766.091
958.9264, 3748.594
959.4085, 3733.681
959.8906, 3717.423
960.3727, 3700.011
960.8549, 3681.995
961.3370, 3663.237
961.8191, 3646.123
962.3012, 3633.495
962.7833, 3621.749
963.2654, 3607.993
963.7476, 3592.043
964.2297, 3578.964
964.7118, 3569.848
965.1939, 3560.872
965.6760, 3550.688
966.1581, 3539.451
966.6403, 3525.160
967.1224, 3509.815
967.6045, 3498.854
968.0866, 3499.422
968.5687, 3499.519
969.0508, 3493.887
969.5330, 3485.696
970.0151, 3479.193
970.4972, 3474.780
970.9793, 3470.024
971.4614, 3464.471
971.9435, 3459.626
972.4257, 3458.019
972.9078, 3457.711
973.3899, 3455.596
973.8720, 3451.202
974.3541, 3446.854
974.8362, 3443.057
975.3184, 3439.608
975.8005, 3435.979
976.2826, 3432.483
976.7647, 3432.511
977.2468, 3436.013
977.7289, 3438.694
978.2111, 3438.493
978.6932, 3436.684
979.1753, 3433.809
979.6574, 3430.570
980.1395, 3428.254
980.6216, 3427.375
981.1038, 3427.612
981.5859, 3429.996
982.0680, 3432.131
982.5501, 3430.483
983.0322, 3425.747
983.5143, 3422.784
983.9965, 3422.056
984.4786, 3422.065
984.9607, 3421.501
985.4428, 3421.332
985.9249, 3422.906
986.4070, 3426.260
986.8892, 3427.000
987.3713, 3423.863
987.8534, 3421.354
988.3355, 3421.382
988.8176, 3422.841
989.2997, 3423.681
989.7819, 3423.863
990.2640, 3423.288
990.7461, 3421.510
991.2282, 3419.592
991.7103, 3418.122
992.1924, 3416.659
992.6746, 3414.415
993.1567, 3410.817
993.6388, 3410.265
994.1209, 3413.550
994.6030, 3416.293
995.0851, 3413.816
995.5673, 3408.829
996.0494, 3404.149
996.5315, 3400.143
997.0136, 3398.274
997.4957, 3401.406
997.9778, 3403.796
998.4600, 3402.982
998.9421, 3400.608
999.4242, 3402.773
999.9063, 3408.779
1000.388, 3412.050
1000.871, 3409.781
1001.353, 3405.681
1001.835, 3401.323
1002.317, 3397.819
1002.799, 3396.648
1003.281, 3399.053
1003.763, 3401.631
1004.245, 3405.066
1004.728, 3407.175
1005.210, 3405.291
1005.692, 3400.933
1006.174, 3398.710
1006.656, 3398.544
1007.138, 3398.929
1007.620, 3400.091
1008.102, 3400.632
1008.584, 3398.923
1009.067, 3396.334
1009.549, 3395.965
1010.031, 3397.894
1010.513, 3401.660
1010.995, 3407.806
1011.477, 3413.243
1011.959, 3412.975
1012.441, 3410.057
1012.924, 3408.632
1013.406, 3409.580
1013.888, 3411.370
1014.370, 3414.643
1014.852, 3417.323
1015.334, 3418.103
1015.816, 3417.361
1016.298, 3417.354
1016.780, 3418.037
1017.263, 3418.967
1017.745, 3420.477
1018.227, 3421.610
1018.709, 3421.941
1019.191, 3421.403
1019.673, 3419.624
1020.155, 3415.335
1020.637, 3413.868
1021.120, 3416.211
1021.602, 3419.512
1022.084, 3419.719
1022.566, 3418.995
1023.048, 3422.699
1023.530, 3431.274
1024.012, 3436.483
1024.494, 3429.480
1024.976, 3424.546
1025.458, 3428.472
1025.941, 3438.672
1026.423, 3443.776
1026.905, 3444.128
1027.387, 3446.028
1027.869, 3452.500
1028.351, 3459.379
1028.833, 3462.602
1029.316, 3463.915
1029.798, 3465.624
1030.280, 3468.481
1030.762, 3470.634
1031.244, 3471.908
1031.726, 3472.773
1032.208, 3473.160
1032.690, 3473.510
1033.172, 3474.901
1033.655, 3477.354
1034.137, 3480.829
1034.619, 3487.321
1035.101, 3492.569
1035.583, 3494.785
1036.065, 3494.816
1036.547, 3493.389
1037.029, 3490.437
1037.511, 3488.761
1037.994, 3488.744
1038.476, 3490.695
1038.958, 3496.832
1039.440, 3503.890
1039.922, 3508.253
1040.404, 3509.227
1040.886, 3510.147
1041.368, 3511.412
1041.851, 3512.133
1042.333, 3511.032
1042.815, 3509.902
1043.297, 3513.765
1043.779, 3521.585
1044.261, 3530.220
1044.743, 3539.052
1045.225, 3547.512
1045.708, 3555.465
1046.190, 3562.715
1046.672, 3569.412
1047.154, 3575.743
1047.636, 3578.263
1048.118, 3576.706
1048.600, 3575.013
1049.082, 3575.208
1049.564, 3577.493
1050.047, 3584.228
1050.529, 3593.772
1051.011, 3597.716
1051.493, 3590.958
1051.975, 3588.664
1052.457, 3595.114
1052.939, 3603.895
1053.421, 3604.335
1053.903, 3599.486
1054.386, 3596.430
1054.868, 3596.625
1055.350, 3597.315
1055.832, 3596.854
1056.314, 3597.134
1056.796, 3599.744
1057.278, 3604.172
1057.760, 3605.886
1058.243, 3604.988
1058.725, 3603.098
1059.207, 3600.147
1059.689, 3597.692
1060.171, 3596.913
1060.653, 3597.553
1061.135, 3599.377
1061.617, 3602.995
1062.099, 3606.300
1062.582, 3609.583
1063.064, 3611.525
1063.546, 3609.555
1064.028, 3606.102
1064.510, 3606.458
1064.992, 3610.128
1065.474, 3613.702
1065.956, 3616.341
1066.438, 3618.077
1066.921, 3619.135
1067.403, 3619.250
1067.885, 3616.619
1068.367, 3611.947
1068.849, 3612.437
1069.331, 3619.556
1069.813, 3627.323
1070.295, 3632.155
1070.778, 3635.283
1071.260, 3637.288
1071.742, 3638.313
1072.224, 3638.848
1072.706, 3638.649
1073.188, 3639.375
1073.670, 3641.627
1074.152, 3645.068
1074.635, 3650.222
1075.117, 3655.912
1075.599, 3660.308
1076.081, 3662.226
1076.563, 3664.255
1077.045, 3666.708
1077.527, 3669.025
1078.009, 3670.877
1078.491, 3672.231
1078.974, 3672.331
1079.456, 3671.621
1079.938, 3672.348
1080.420, 3677.751
1080.902, 3682.343
1081.384, 3683.184
1081.866, 3682.460
1082.348, 3682.876
1082.831, 3684.522
1083.313, 3685.521
1083.795, 3685.752
1084.277, 3684.865
1084.759, 3682.852
1085.241, 3679.377
1085.723, 3673.578
1086.205, 3665.749
1086.688, 3658.120
1087.170, 3649.528
1087.652, 3645.984
1088.134, 3650.591
1088.616, 3656.596
1089.098, 3652.680
1089.580, 3643.938
1090.062, 3638.858
1090.544, 3639.610
1091.026, 3640.806
1091.509, 3642.349
1091.991, 3642.583
1092.473, 3640.368
1092.955, 3636.426
1093.437, 3633.331
1093.919, 3630.860
1094.401, 3628.095
1094.883, 3623.820
1095.366, 3620.565
1095.848, 3619.524
1096.330, 3620.032
1096.812, 3621.616
1097.294, 3624.402
1097.776, 3626.820
1098.258, 3628.836
1098.740, 3631.003
1099.223, 3633.535
1099.705, 3636.492
1100.187, 3640.827
1100.669, 3645.451
1101.151, 3647.409
1101.633, 3645.569
1102.115, 3644.568
1102.597, 3645.341
1103.079, 3644.847
1103.562, 3637.166
1104.044, 3627.601
1104.526, 3625.005
1105.008, 3629.451
1105.490, 3632.320
1105.972, 3630.628
1106.454, 3628.914
1106.936, 3628.810
1107.418, 3628.525
1107.901, 3622.089
1108.383, 3612.798
1108.865, 3611.563
1109.347, 3622.296
1109.829, 3630.330
1110.311, 3624.797
1110.793, 3619.243
1111.275, 3621.197
1111.758, 3629.045
1112.240, 3633.346
1112.722, 3634.502
1113.204, 3636.290
1113.686, 3641.063
1114.168, 3645.044
1114.650, 3645.120
1115.132, 3643.227
1115.615, 3641.077
1116.097, 3638.293
1116.579, 3639.119
1117.061, 3643.910
1117.543, 3647.641
1118.025, 3644.947
1118.507, 3641.285
1118.989, 3643.243
1119.471, 3648.500
1119.953, 3651.716
1120.436, 3650.455
1120.918, 3651.210
1121.400, 3654.809
1121.882, 3658.702
1122.364, 3661.868
1122.846, 3662.988
1123.328, 3657.355
1123.810, 3646.508
1124.293, 3640.403
1124.775, 3646.772
1125.257, 3651.599
1125.739, 3651.542
1126.221, 3650.562
1126.703, 3656.525
1127.185, 3666.421
1127.667, 3670.305
1128.150, 3666.804
1128.632, 3663.603
1129.114, 3665.305
1129.596, 3667.060
1130.078, 3666.886
1130.560, 3665.273
1131.042, 3662.891
1131.524, 3660.174
1132.006, 3660.272
1132.489, 3664.527
1132.971, 3669.400
1133.453, 3671.521
1133.935, 3674.126
1134.417, 3680.939
1134.899, 3691.513
1135.381, 3694.800
1135.863, 3690.828
1136.346, 3686.655
1136.828, 3684.880
1137.310, 3684.734
1137.792, 3686.581
1138.274, 3689.123
1138.756, 3690.579
1139.238, 3690.617
1139.720, 3690.866
1140.203, 3691.357
1140.685, 3692.084
1141.167, 3692.952
1141.649, 3694.219
1142.131, 3697.228
1142.613, 3700.751
1143.095, 3702.093
1143.577, 3698.199
1144.059, 3697.491
1144.542, 3701.035
1145.024, 3705.324
1145.506, 3706.962
1145.988, 3707.216
1146.470, 3708.378
1146.952, 3710.249
1147.434, 3711.717
1147.916, 3710.856
1148.398, 3712.110
1148.881, 3717.124
1149.363, 3722.384
1149.845, 3722.090
1150.327, 3718.706
1150.809, 3719.173
1151.291, 3723.782
1151.773, 3726.679
1152.255, 3721.764
1152.738, 3719.565
1153.220, 3724.059
1153.702, 3732.001
1154.184, 3738.016
1154.666, 3742.034
1155.148, 3743.062
1155.630, 3740.640
1156.112, 3738.919
1156.594, 3740.244
1157.077, 3742.784
1157.559, 3746.392
1158.041, 3750.007
1158.523, 3748.622
1159.005, 3743.116
1159.487, 3740.712
1159.969, 3743.965
1160.451, 3748.293
1160.933, 3752.531
1161.416, 3754.858
1161.898, 3752.589
1162.380, 3756.451
1162.862, 3748.812
1163.344, 3758.563
1163.826, 3765.401
1164.308, 3764.046
1164.790, 3760.761
1165.273, 3758.999
1165.755, 3758.842
1166.237, 3760.590
1166.719, 3764.371
1167.201, 3767.158
1167.683, 3768.808
1168.165, 3771.546
1168.647, 3777.500
1169.130, 3783.887
1169.612, 3788.022
1170.094, 3790.835
1170.576, 3793.886
1171.058, 3797.969
1171.540, 3799.489
1172.022, 3798.119
1172.504, 3796.792
1172.986, 3798.142
1173.469, 3800.196
1173.951, 3801.038
1174.433, 3800.888
1174.915, 3800.000
1175.397, 3797.312
1175.879, 3797.535
1176.361, 3801.456
1176.843, 3805.588
1177.326, 3805.728
1177.808, 3805.105
1178.290, 3808.767
1178.772, 3815.482
1179.254, 3819.671
1179.736, 3818.882
1180.218, 3820.209
1180.700, 3824.996
1181.182, 3829.956
1181.665, 3831.165
1182.147, 3830.539
1182.629, 3830.982
1183.111, 3832.444
1183.593, 3833.020
1184.075, 3831.568
1184.557, 3831.178
1185.039, 3832.593
1185.521, 3834.748
1186.004, 3835.847
1186.486, 3836.845
1186.968, 3839.470
1187.450, 3843.809
1187.932, 3848.219
1188.414, 3853.496
1188.896, 3856.247
1189.378, 3854.707
1189.861, 3852.119
1190.343, 3854.303
1190.825, 3859.019
1191.307, 3862.111
1191.789, 3862.835
1192.271, 3864.017
1192.753, 3867.414
1193.235, 3869.040
1193.718, 3866.756
1194.200, 3863.505
1194.682, 3865.613
1195.164, 3870.748
1195.646, 3873.978
1196.128, 3873.908
1196.610, 3874.536
1197.092, 3877.289
1197.574, 3879.772
1198.057, 3880.723
1198.539, 3881.193
1199.021, 3883.100
1199.503, 3886.501
1199.985, 3892.362
1200.467, 3902.881
1200.949, 3908.211
1201.431, 3903.507
1201.913, 3899.018
1202.396, 3900.038
1202.878, 3904.358
1203.360, 3906.355
1203.842, 3906.972
1204.324, 3908.638
1204.806, 3912.794
1205.288, 3916.163
1205.770, 3917.962
1206.253, 3919.206
1206.735, 3920.066
1207.217, 3920.996
1207.699, 3923.716
1208.181, 3927.590
1208.663, 3931.062
1209.145, 3933.437
1209.627, 3935.575
1210.109, 3937.532
1210.592, 3939.449
1211.074, 3941.981
1211.556, 3944.344
1212.038, 3942.544
1212.520, 3938.446
1213.002, 3937.392
1213.484, 3944.094
1213.966, 3949.596
1214.448, 3952.568
1214.931, 3954.706
1215.413, 3957.077
1215.895, 3959.652
1216.377, 3962.339
1216.859, 3965.229
1217.341, 3968.630
1217.823, 3973.194
1218.305, 3977.460
1218.788, 3981.285
1219.270, 3984.686
1219.752, 3988.314
1220.234, 3991.351
1220.716, 3990.596
1221.198, 3987.230
1221.680, 3985.413
1222.162, 3987.608
1222.645, 3990.188
1223.127, 3993.192
1223.609, 3995.721
1224.091, 3995.487
1224.573, 3994.793
1225.055, 4000.531
1225.537, 4010.701
1226.019, 4017.012
1226.501, 4012.609
1226.984, 4010.259
1227.466, 4011.133
1227.948, 4013.743
1228.430, 4016.937
1228.912, 4020.625
1229.394, 4025.105
1229.876, 4030.000
1230.358, 4033.792
1230.841, 4034.893
1231.323, 4037.437
1231.805, 4042.350
1232.287, 4046.998
1232.769, 4047.642
1233.251, 4046.853
1233.733, 4049.669
1234.215, 4055.101
1234.698, 4057.197
1235.180, 4053.341
1235.662, 4049.931
1236.144, 4046.889
1236.626, 4047.562
1237.108, 4060.607
1237.590, 4075.882
1238.072, 4079.088
1238.554, 4072.139
1239.036, 4068.482
1239.519, 4069.946
1240.001, 4072.339
1240.483, 4075.268
1240.965, 4078.297
1241.447, 4081.334
1241.929, 4083.934
1242.411, 4084.610
1242.893, 4084.218
1243.376, 4087.214
1243.858, 4095.030
1244.340, 4100.030
1244.822, 4100.981
1245.304, 4100.619
1245.786, 4099.447
1246.268, 4099.932
1246.750, 4105.975
1247.233, 4115.896
1247.715, 4121.951
1248.197, 4123.779
1248.679, 4124.614
1249.161, 4124.743
1249.643, 4125.835
1250.125, 4129.966
1250.607, 4135.010
1251.089, 4140.486
1251.572, 4145.315
1252.054, 4145.300
1252.536, 4140.404
1253.018, 4141.245
1253.500, 4149.589
1253.982, 4157.279
1254.464, 4156.891
1254.946, 4155.283
1255.428, 4156.669
1255.911, 4159.712
1256.393, 4161.632
1256.875, 4162.560
1257.357, 4163.652
1257.839, 4165.084
1258.321, 4167.166
1258.803, 4172.208
1259.285, 4175.366
1259.768, 4173.972
1260.250, 4170.533
1260.732, 4169.470
1261.214, 4170.538
1261.696, 4172.780
1262.178, 4176.094
1262.660, 4179.899
1263.142, 4184.886
1263.625, 4188.890
1264.107, 4190.500
1264.589, 4191.922
1265.071, 4197.884
1265.553, 4206.232
1266.035, 4211.475
1266.517, 4213.092
1266.999, 4214.033
1267.481, 4213.176
1267.964, 4215.251
1268.446, 4222.168
1268.928, 4230.208
1269.410, 4234.381
1269.892, 4235.935
1270.374, 4236.353
1270.856, 4235.943
1271.338, 4236.169
1271.820, 4236.899
1272.303, 4239.602
1272.785, 4245.278
1273.267, 4250.435
1273.749, 4248.348
1274.231, 4245.192
1274.713, 4249.680
1275.195, 4260.672
1275.677, 4265.737
1276.160, 4263.153
1276.642, 4262.638
1277.124, 4265.942
1277.606, 4270.157
1278.088, 4272.698
1278.570, 4274.833
1279.052, 4278.536
1279.534, 4282.603
1280.016, 4282.413
1280.499, 4277.795
1280.981, 4276.923
1281.463, 4280.988
1281.945, 4286.211
1282.427, 4290.531
1282.909, 4294.543
1283.391, 4298.911
1283.873, 4302.971
1284.356, 4305.417
1284.838, 4306.359
1285.320, 4305.662
1285.802, 4303.476
1286.284, 4303.891
1286.766, 4312.222
1287.248, 4319.526
1287.730, 4323.299
1288.213, 4324.464
1288.695, 4322.735
1289.177, 4319.931
1289.659, 4321.286
1290.141, 4326.840
1290.623, 4332.937
1291.105, 4340.760
1291.587, 4344.561
1292.069, 4342.217
1292.552, 4339.408
1293.034, 4344.519
1293.516, 4352.252
1293.998, 4353.744
1294.480, 4356.805
1294.962, 4358.976
1295.444, 4356.805
1295.926, 4358.946
1296.408, 4354.606
1296.891, 4350.846
1297.373, 4354.765
1297.855, 4361.520
1298.337, 4367.779
1298.819, 4373.445
1299.301, 4378.493
1299.783, 4383.144
1300.265, 4383.604
1300.748, 4379.624
1301.230, 4376.960
1301.712, 4381.354
1302.194, 4386.815
1302.676, 4391.779
##END=



