##NAMES=Turquoise
##RRUFFID=R050225
##IDEAL CHEMISTRY=Cu^2+^Al_6_(P^5+^O_4_)_4_(OH)_8_&#183;4H_2_O
##LOCALITY=Badger Prospect, Lander County, Nevada, USA
##OWNER=RRUFF
##SOURCE=Marcus Origlieri
##DESCRIPTION=Light blue massive
##STATUS=The identification of this mineral has been confirmed by X-ray diffraction and chemical analysis
##URL=rruff.info/R050225
##MEASURED CHEMISTRY=Cu_1.00_(Al_5.83_Fe^3+^_0.17_)_Σ=6_(P_1.00_O_4_)_4_(OH)_8_·4H_2_O
141.0473, 66.77238
141.5294, 66.64610
142.0115, 66.61515
142.4936, 66.63265
142.9758, 66.66085
143.4579, 66.62720
143.9400, 66.41541
144.4221, 66.35324
144.9042, 66.51611
145.3863, 66.61494
145.8685, 66.63611
146.3506, 66.58369
146.8327, 66.24289
147.3148, 66.27018
147.7969, 66.14733
148.2790, 66.01653
148.7612, 66.09026
149.2433, 65.78175
149.7254, 65.84847
150.2075, 65.76279
150.6896, 65.74413
151.1717, 65.57440
151.6539, 65.44886
152.1360, 65.47070
152.6181, 65.40803
153.1002, 65.21364
153.5823, 65.18810
154.0644, 64.82224
154.5466, 64.65895
155.0287, 64.42979
155.5108, 64.08669
155.9929, 63.71163
156.4750, 63.46094
156.9571, 63.40566
157.4393, 63.32067
157.9214, 63.09606
158.4035, 62.83641
158.8856, 62.64664
159.3677, 62.57888
159.8498, 62.60900
160.3320, 62.65167
160.8141, 62.76662
161.2962, 62.81825
161.7783, 62.69739
162.2604, 62.51753
162.7425, 62.44189
163.2247, 62.57695
163.7068, 62.90491
164.1889, 63.19664
164.6710, 63.44652
165.1531, 63.66906
165.6352, 63.84578
166.1174, 63.99524
166.5995, 64.15060
167.0816, 64.33401
167.5637, 64.54729
168.0458, 64.80659
168.5279, 65.13155
169.0101, 65.47609
169.4922, 65.82254
169.9743, 66.16802
170.4564, 66.51976
170.9385, 66.92732
171.4206, 67.35776
171.9028, 67.57744
172.3849, 67.43780
172.8670, 67.15932
173.3491, 66.94195
173.8312, 66.80171
174.3133, 66.69627
174.7955, 66.57764
175.2776, 66.46500
175.7597, 66.41650
176.2418, 66.55817
176.7239, 66.75736
177.2060, 66.72956
177.6882, 66.38100
178.1703, 65.97338
178.6524, 65.64515
179.1345, 65.38400
179.6166, 65.17517
180.0987, 64.97778
180.5809, 64.81239
181.0630, 64.81425
181.5451, 65.08604
182.0272, 65.41705
182.5093, 65.75929
182.9914, 66.08737
183.4736, 66.34985
183.9557, 66.46468
184.4378, 66.42149
184.9199, 66.54586
185.4020, 67.02916
185.8841, 67.52557
186.3663, 67.93718
186.8484, 68.26868
187.3305, 68.57028
187.8126, 68.89437
188.2947, 69.25462
188.7768, 69.55329
189.2590, 69.72191
189.7411, 69.89713
190.2232, 70.15305
190.7053, 70.48216
191.1874, 70.82668
191.6695, 71.12911
192.1517, 71.38785
192.6338, 71.59634
193.1159, 71.67395
193.5980, 71.76819
194.0801, 72.00014
194.5622, 72.37093
195.0444, 72.76382
195.5265, 73.04331
196.0086, 73.16614
196.4907, 73.33387
196.9728, 73.54856
197.4549, 73.80691
197.9371, 74.18448
198.4192, 74.69726
198.9013, 75.09547
199.3834, 74.96628
199.8655, 74.29939
200.3476, 73.91609
200.8298, 74.13489
201.3119, 74.64796
201.7940, 75.06221
202.2761, 75.32171
202.7582, 75.46743
203.2403, 75.47819
203.7225, 75.38609
204.2046, 75.33115
204.6867, 75.38138
205.1688, 75.50244
205.6509, 75.60869
206.1330, 75.67053
206.6152, 75.75856
207.0973, 76.00888
207.5794, 76.35622
208.0615, 76.55782
208.5436, 76.40003
209.0257, 75.95871
209.5079, 75.59664
209.9900, 75.35571
210.4721, 75.17592
210.9542, 74.97958
211.4363, 74.79871
211.9184, 74.72693
212.4006, 74.92742
212.8827, 75.37807
213.3648, 75.57100
213.8469, 75.20191
214.3290, 74.87332
214.8111, 74.90432
215.2933, 75.18955
215.7754, 75.42611
216.2575, 75.32807
216.7396, 74.87204
217.2217, 74.57407
217.7038, 74.55994
218.1859, 74.60430
218.6681, 74.65231
219.1502, 74.70353
219.6323, 74.78374
220.1144, 74.92527
220.5965, 75.13987
221.0786, 75.28691
221.5608, 75.30900
222.0429, 75.32397
222.5250, 75.40829
223.0071, 75.53085
223.4892, 75.59543
223.9713, 75.51344
224.4535, 75.26771
224.9356, 75.02843
225.4177, 74.73811
225.8998, 74.50320
226.3819, 74.43506
226.8640, 74.48213
227.3462, 74.48170
227.8283, 74.29338
228.3104, 73.90068
228.7925, 73.47425
229.2746, 73.01688
229.7567, 72.53065
230.2389, 72.02253
230.7210, 71.48940
231.2031, 70.91721
231.6852, 70.27396
232.1673, 69.56783
232.6494, 68.99599
233.1316, 68.68839
233.6137, 68.39500
234.0958, 67.98746
234.5779, 67.46354
235.0600, 66.85264
235.5421, 66.12655
236.0243, 65.32114
236.5064, 64.69106
236.9885, 64.40636
237.4706, 64.15823
237.9527, 63.70567
238.4348, 63.06456
238.9170, 62.46595
239.3991, 62.07741
239.8812, 61.84535
240.3633, 61.55238
240.8454, 61.17694
241.3275, 60.74843
241.8097, 60.24931
242.2918, 59.68193
242.7739, 59.18568
243.2560, 58.90614
243.7381, 58.71849
244.2202, 58.37779
244.7024, 57.78797
245.1845, 57.14330
245.6666, 56.62394
246.1487, 56.23524
246.6308, 55.83517
247.1129, 55.32704
247.5951, 54.79359
248.0772, 54.33848
248.5593, 53.98863
249.0414, 53.68638
249.5235, 53.39560
250.0056, 53.12070
250.4878, 52.79490
250.9699, 52.30397
251.4520, 51.80774
251.9341, 51.46928
252.4162, 51.32614
252.8983, 51.24414
253.3805, 51.09617
253.8626, 50.87978
254.3447, 50.61511
254.8268, 50.20818
255.3089, 49.82023
255.7910, 49.58904
256.2732, 49.53132
256.7553, 49.50859
257.2374, 49.36499
257.7195, 49.08081
258.2016, 48.81666
258.6837, 48.62218
259.1659, 48.43763
259.6480, 48.19513
260.1301, 47.90557
260.6122, 47.67903
261.0943, 47.68539
261.5764, 47.98180
262.0586, 48.12489
262.5407, 47.93732
263.0228, 47.70232
263.5049, 47.51783
263.9870, 47.39550
264.4691, 47.31561
264.9513, 47.27533
265.4334, 47.28616
265.9155, 47.24441
266.3976, 47.11928
266.8797, 46.96436
267.3618, 46.76075
267.8440, 46.53638
268.3261, 46.35482
268.8082, 46.27561
269.2903, 46.30196
269.7724, 46.34193
270.2545, 46.44257
270.7367, 46.51135
271.2188, 46.50103
271.7009, 46.43699
272.1830, 46.37908
272.6651, 46.37626
273.1472, 46.42226
273.6294, 46.40676
274.1115, 46.23798
274.5936, 46.09739
275.0757, 46.01113
275.5578, 45.98051
276.0399, 46.01136
276.5221, 46.11272
277.0042, 46.26812
277.4863, 46.37767
277.9684, 46.40666
278.4505, 46.42238
278.9326, 46.40029
279.4148, 46.37823
279.8969, 46.42046
280.3790, 46.56190
280.8611, 46.75426
281.3432, 46.84008
281.8253, 46.65199
282.3075, 46.55566
282.7896, 46.61748
283.2717, 46.76070
283.7538, 46.90434
284.2359, 47.01705
284.7180, 47.12034
285.2002, 47.26100
285.6823, 47.52611
286.1644, 47.70355
286.6465, 47.74930
287.1286, 47.73612
287.6107, 47.71247
288.0929, 47.69622
288.5750, 47.69721
289.0571, 47.72120
289.5392, 47.71004
290.0213, 47.88128
290.5034, 48.45355
290.9856, 49.04272
291.4677, 49.34731
291.9498, 49.33884
292.4319, 49.19938
292.9140, 49.12064
293.3961, 49.10287
293.8783, 49.17005
294.3604, 49.40856
294.8425, 49.64812
295.3246, 49.77587
295.8067, 49.80036
296.2888, 49.80663
296.7710, 49.86494
297.2531, 49.97699
297.7352, 50.10849
298.2173, 50.24065
298.6994, 50.40490
299.1815, 50.64419
299.6637, 50.93020
300.1458, 51.19011
300.6279, 51.37426
301.1100, 51.49190
301.5921, 51.63151
302.0742, 51.76458
302.5564, 51.94506
303.0385, 52.25144
303.5206, 52.60828
304.0027, 52.86571
304.4848, 52.93821
304.9669, 52.90575
305.4491, 53.01611
305.9312, 53.45216
306.4133, 53.77607
306.8954, 53.79453
307.3775, 53.71446
307.8596, 53.83546
308.3418, 54.26175
308.8239, 54.80404
309.3060, 55.11213
309.7881, 54.98222
310.2702, 55.05031
310.7523, 55.53919
311.2345, 56.12743
311.7166, 56.49111
312.1987, 56.57230
312.6808, 56.56365
313.1629, 56.68026
313.6451, 56.94899
314.1272, 57.26352
314.6093, 57.75177
315.0914, 58.18272
315.5735, 58.34651
316.0556, 58.26728
316.5378, 58.17173
317.0199, 58.24735
317.5020, 58.50051
317.9841, 58.74175
318.4662, 58.98407
318.9483, 59.20384
319.4305, 59.39640
319.9126, 59.55912
320.3947, 59.68554
320.8768, 59.76904
321.3589, 59.81644
321.8410, 59.86066
322.3232, 59.90505
322.8053, 59.94413
323.2874, 59.99511
323.7695, 60.03628
324.2516, 60.03865
324.7337, 59.99171
325.2159, 59.89015
325.6980, 59.71391
326.1801, 59.37765
326.6622, 59.11711
327.1443, 59.03735
327.6264, 58.99615
328.1086, 58.84174
328.5907, 58.53913
329.0728, 58.16405
329.5549, 57.81084
330.0370, 57.48759
330.5191, 57.15902
331.0013, 56.78134
331.4834, 56.43275
331.9655, 56.22306
332.4476, 56.12396
332.9297, 55.96157
333.4118, 55.57125
333.8940, 54.93820
334.3761, 54.36877
334.8582, 53.88162
335.3403, 53.42391
335.8224, 52.96819
336.3045, 52.52475
336.7867, 52.11796
337.2688, 51.76854
337.7509, 51.46117
338.2330, 51.12580
338.7151, 50.74741
339.1972, 50.36042
339.6793, 49.94596
340.1614, 49.53242
340.6436, 49.17739
341.1257, 48.89820
341.6078, 48.62627
342.0899, 48.21989
342.5720, 47.50827
343.0541, 46.96041
343.5363, 46.68018
344.0184, 46.48512
344.5005, 46.22899
344.9826, 45.89148
345.4647, 45.54748
345.9468, 45.28163
346.4290, 45.10843
346.9111, 44.94300
347.3932, 44.81419
347.8753, 44.66530
348.3574, 44.46133
348.8395, 44.21330
349.3217, 43.94767
349.8038, 43.67840
350.2859, 43.41108
350.7680, 43.22230
351.2501, 43.25269
351.7322, 43.20174
352.2144, 42.92221
352.6965, 42.55870
353.1786, 42.33143
353.6607, 42.33948
354.1428, 42.46078
354.6249, 42.39799
355.1071, 41.96904
355.5892, 41.64720
356.0713, 41.47107
356.5534, 41.38439
357.0355, 41.35844
357.5176, 41.38044
357.9998, 41.43682
358.4819, 41.52407
358.9640, 41.67064
359.4461, 41.72804
359.9282, 41.58626
360.4103, 41.46355
360.8925, 41.48846
361.3746, 41.61562
361.8567, 41.70649
362.3388, 41.64885
362.8209, 41.46377
363.3030, 41.34712
363.7852, 41.33357
364.2673, 41.35191
364.7494, 41.41724
365.2315, 41.49230
365.7136, 41.53468
366.1957, 41.52615
366.6779, 41.47579
367.1600, 41.38309
367.6421, 41.18970
368.1242, 41.10492
368.6063, 41.25119
369.0884, 41.44273
369.5706, 41.55651
370.0527, 41.57563
370.5348, 41.55939
371.0169, 41.55013
371.4990, 41.54399
371.9811, 41.60360
372.4633, 41.75637
372.9454, 41.95487
373.4275, 42.26801
373.9096, 42.61234
374.3917, 42.79453
374.8738, 42.63610
375.3560, 42.26044
375.8381, 42.06540
376.3202, 42.13249
376.8023, 42.19015
377.2844, 42.09901
377.7665, 41.95514
378.2487, 41.86523
378.7308, 41.86610
379.2129, 41.89299
379.6950, 41.84917
380.1771, 41.72879
380.6592, 41.68578
381.1414, 41.85126
381.6235, 42.02007
382.1056, 41.99379
382.5877, 41.77784
383.0698, 41.56748
383.5519, 41.49428
384.0341, 41.51822
384.5162, 41.51382
384.9983, 41.46130
385.4804, 41.40346
385.9625, 41.33757
386.4446, 41.28917
386.9268, 41.33251
387.4089, 41.58690
387.8910, 41.86303
388.3731, 41.92316
388.8552, 41.77538
389.3373, 41.63612
389.8195, 41.56183
390.3016, 41.59595
390.7837, 41.81916
391.2658, 42.31330
391.7479, 42.75243
392.2300, 42.92270
392.7122, 42.92837
393.1943, 42.98879
393.6764, 43.15671
394.1585, 43.38971
394.6406, 43.65170
395.1227, 43.94236
395.6049, 44.24519
396.0870, 44.50224
396.5691, 44.80825
397.0512, 45.30680
397.5333, 45.97204
398.0154, 46.56263
398.4976, 46.89454
398.9797, 47.02049
399.4618, 47.28674
399.9439, 47.82044
400.4260, 48.32215
400.9081, 48.65326
401.3903, 48.90757
401.8724, 49.23273
402.3545, 49.68172
402.8366, 50.20708
403.3187, 50.73021
403.8008, 51.26661
404.2830, 51.76048
404.7651, 52.19950
405.2472, 52.60766
405.7293, 52.95551
406.2114, 53.27095
406.6935, 53.66121
407.1757, 54.22910
407.6578, 54.96572
408.1399, 55.63559
408.6220, 56.23849
409.1041, 56.77182
409.5862, 57.19906
410.0684, 57.56741
410.5505, 57.94953
411.0326, 58.37342
411.5147, 58.80165
411.9968, 59.17033
412.4789, 59.49883
412.9611, 59.71199
413.4432, 59.74286
413.9253, 59.72514
414.4074, 59.75997
414.8895, 59.83500
415.3716, 59.85089
415.8538, 59.70869
416.3359, 59.41750
416.8180, 59.11941
417.3001, 58.73786
417.7822, 58.46815
418.2643, 58.54401
418.7465, 58.70728
419.2286, 58.57511
419.7107, 57.95912
420.1928, 57.13995
420.6749, 56.54258
421.1570, 56.19953
421.6392, 55.83976
422.1213, 55.36912
422.6034, 54.88581
423.0855, 54.50400
423.5676, 54.21167
424.0497, 53.85030
424.5319, 53.23805
425.0140, 52.48355
425.4961, 51.91524
425.9782, 51.60839
426.4603, 51.30195
426.9424, 50.76116
427.4246, 50.09893
427.9067, 49.54437
428.3888, 49.18267
428.8709, 48.88455
429.3530, 48.54107
429.8351, 48.17095
430.3173, 47.86383
430.7994, 47.65953
431.2815, 47.52270
431.7636, 47.40613
432.2457, 47.31285
432.7278, 47.21583
433.2100, 47.11394
433.6921, 47.00310
434.1742, 46.86934
434.6563, 46.71504
435.1384, 46.57315
435.6205, 46.46767
436.1027, 46.39955
436.5848, 46.37026
437.0669, 46.48783
437.5490, 46.51636
438.0311, 46.28223
438.5132, 45.93846
438.9954, 45.74694
439.4775, 45.80388
439.9596, 45.95116
440.4417, 45.90358
440.9238, 45.51669
441.4059, 45.26880
441.8881, 45.19333
442.3702, 45.20397
442.8523, 45.31063
443.3344, 45.46688
443.8165, 45.57059
444.2986, 45.54219
444.7808, 45.39911
445.2629, 45.24379
445.7450, 45.02312
446.2271, 44.87471
446.7092, 44.87395
447.1913, 44.92175
447.6735, 44.90303
448.1556, 44.79208
448.6377, 44.69753
449.1198, 44.80488
449.6019, 45.13612
450.0840, 45.26274
450.5662, 44.97650
451.0483, 44.69126
451.5304, 44.63860
452.0125, 44.76157
452.4946, 44.91582
452.9767, 45.04549
453.4589, 45.16520
453.9410, 45.31021
454.4231, 45.48465
454.9052, 45.61826
455.3873, 45.65478
455.8694, 45.65779
456.3516, 45.74253
456.8337, 45.93548
457.3158, 46.04118
457.7979, 45.85807
458.2800, 45.55876
458.7621, 45.47567
459.2443, 45.66877
459.7264, 45.87948
460.2085, 45.87080
460.6906, 45.67176
461.1727, 45.62592
461.6548, 45.89663
462.1370, 46.14696
462.6191, 46.22311
463.1012, 46.16927
463.5833, 46.05191
464.0654, 45.89103
464.5475, 45.74420
465.0297, 45.71928
465.5118, 45.91619
465.9939, 45.97932
466.4760, 45.81167
466.9581, 45.60495
467.4402, 45.45536
467.9224, 45.36737
468.4045, 45.31284
468.8866, 45.27137
469.3687, 45.24937
469.8508, 45.28457
470.3329, 45.48668
470.8151, 45.56446
471.2972, 45.36176
471.7793, 45.11186
472.2614, 45.05657
472.7435, 45.21293
473.2256, 45.34223
473.7078, 45.14487
474.1899, 44.63129
474.6720, 44.28319
475.1541, 44.14329
475.6362, 44.11330
476.1183, 44.19702
476.6005, 44.33324
477.0826, 44.43702
477.5647, 44.49646
478.0468, 44.47947
478.5289, 44.30997
479.0110, 44.00720
479.4932, 43.74738
479.9753, 43.58362
480.4574, 43.47019
480.9395, 43.36967
481.4216, 43.28012
481.9037, 43.17395
482.3859, 43.04295
482.8680, 42.89396
483.3501, 42.71245
483.8322, 42.50946
484.3143, 42.20613
484.7964, 42.24391
485.2786, 42.22008
485.7607, 42.13772
486.2428, 41.83678
486.7249, 41.80639
487.2070, 41.66042
487.6891, 41.50481
488.1713, 41.49785
488.6534, 41.20240
489.1355, 41.18282
489.6176, 41.04595
490.0997, 40.95531
490.5818, 40.74842
491.0640, 40.57070
491.5461, 40.49909
492.0282, 40.39415
492.5103, 40.29209
492.9924, 40.15592
493.4745, 39.99036
493.9567, 39.78386
494.4388, 39.49089
494.9209, 39.09670
495.4030, 38.79813
495.8851, 38.63905
496.3672, 38.54101
496.8494, 38.49998
497.3315, 38.48163
497.8136, 38.42515
498.2957, 38.31893
498.7778, 38.14496
499.2599, 37.81820
499.7421, 37.35220
500.2242, 37.02967
500.7063, 36.97372
501.1884, 37.03154
501.6705, 37.05000
502.1526, 37.03243
502.6348, 36.91504
503.1169, 36.56248
503.5990, 36.18566
504.0811, 35.99023
504.5632, 35.96557
505.0453, 36.00644
505.5274, 36.07984
506.0096, 36.13841
506.4917, 36.03482
506.9738, 35.62415
507.4559, 35.29023
507.9380, 35.09937
508.4201, 34.96126
508.9023, 34.78339
509.3844, 34.57329
509.8665, 34.42273
510.3486, 34.42188
510.8307, 34.54383
511.3128, 34.54726
511.7950, 34.32859
512.2771, 34.14155
512.7592, 34.01857
513.2413, 33.94983
513.7234, 33.95991
514.2056, 34.04047
514.6877, 34.09148
515.1698, 33.96716
515.6519, 33.69902
516.1340, 33.58270
516.6161, 33.69946
517.0983, 33.81534
517.5804, 33.76656
518.0625, 33.64158
518.5446, 33.56778
519.0267, 33.58603
519.5089, 33.61967
519.9910, 33.59996
520.4731, 33.55201
520.9552, 33.54410
521.4373, 33.59224
521.9194, 33.67870
522.4016, 33.80192
522.8837, 33.96242
523.3658, 34.06562
523.8479, 34.05461
524.3300, 34.04713
524.8121, 34.11361
525.2943, 34.21659
525.7764, 34.26321
526.2585, 34.22268
526.7406, 34.20103
527.2227, 34.38796
527.7048, 34.89816
528.1870, 35.20288
528.6691, 35.07366
529.1512, 34.98414
529.6333, 35.15940
530.1154, 35.49651
530.5975, 35.80420
531.0797, 35.99683
531.5618, 36.09410
532.0439, 36.07617
532.5260, 35.90676
533.0081, 35.93101
533.4902, 36.39782
533.9724, 36.85258
534.4545, 36.93308
534.9366, 36.72224
535.4187, 36.53886
535.9008, 36.51324
536.3829, 36.56591
536.8651, 36.60871
537.3472, 36.64831
537.8293, 36.73707
538.3114, 36.91105
538.7935, 37.10635
539.2756, 37.20756
539.7578, 37.18693
540.2399, 37.22438
540.7220, 37.43243
541.2041, 37.62049
541.6862, 37.64844
542.1683, 37.54474
542.6505, 37.39109
543.1326, 37.22502
543.6147, 37.08558
544.0968, 37.09209
544.5789, 37.42866
545.0610, 37.52909
545.5432, 37.22482
546.0253, 36.84813
546.5074, 36.54468
546.9895, 36.32745
547.4716, 36.17472
547.9537, 36.08433
548.4359, 36.03679
548.9180, 35.99489
549.4001, 35.95915
549.8822, 35.92385
550.3643, 35.87966
550.8464, 35.84380
551.3286, 35.84789
551.8107, 35.88606
552.2928, 35.88579
552.7749, 35.80987
553.2570, 35.68854
553.7391, 35.50088
554.2213, 35.27618
554.7034, 35.18578
555.1855, 35.32963
555.6676, 35.59980
556.1497, 35.78553
556.6318, 35.86250
557.1140, 35.89981
557.5961, 35.84919
558.0782, 35.80216
558.5603, 35.83958
559.0424, 35.93197
559.5245, 35.97689
560.0067, 35.90891
560.4888, 35.80560
560.9709, 35.87975
561.4530, 36.21510
561.9351, 36.49060
562.4172, 36.63045
562.8994, 36.73365
563.3815, 36.84138
563.8636, 36.95402
564.3457, 37.05896
564.8278, 37.15016
565.3099, 37.23035
565.7921, 37.29896
566.2742, 37.35666
566.7563, 37.42200
567.2384, 37.51030
567.7205, 37.59319
568.2026, 37.51051
568.6848, 37.65300
569.1669, 37.74241
569.6490, 37.78148
570.1311, 37.62700
570.6132, 37.71663
571.0953, 37.70488
571.5775, 37.68654
572.0596, 37.80326
572.5417, 37.66388
573.0238, 37.77335
573.5059, 37.77993
573.9880, 37.82990
574.4702, 37.77787
574.9523, 37.75403
575.4344, 37.82714
575.9165, 37.84262
576.3986, 37.76899
576.8807, 37.80665
577.3629, 37.63840
577.8450, 37.64608
578.3271, 37.72821
578.8092, 37.64689
579.2913, 37.67368
579.7734, 37.65579
580.2556, 37.44386
580.7377, 37.56519
581.2198, 37.41288
581.7019, 36.82873
582.1840, 36.37510
582.6661, 36.55662
583.1483, 37.08707
583.6304, 37.38900
584.1125, 37.31971
584.5946, 37.11467
585.0767, 37.00776
585.5588, 37.00231
586.0409, 37.00980
586.5230, 37.06136
587.0051, 37.08747
587.4872, 37.08924
587.9694, 37.04931
588.4515, 36.92595
588.9336, 36.72233
589.4157, 36.52174
589.8978, 36.42538
590.3799, 36.41688
590.8621, 36.34817
591.3442, 36.21661
591.8263, 36.02871
592.3084, 35.73114
592.7905, 35.40704
593.2726, 35.16279
593.7548, 35.01991
594.2369, 34.85881
594.7190, 34.60185
595.2011, 34.30043
595.6832, 34.00088
596.1653, 33.71738
596.6475, 33.52077
597.1296, 33.47408
597.6117, 33.51434
598.0938, 33.46089
598.5759, 33.23423
599.0580, 33.03673
599.5402, 32.87313
600.0223, 32.73553
600.5044, 32.63153
600.9865, 32.54925
601.4686, 32.46044
601.9507, 32.34745
602.4329, 32.22434
602.9150, 32.10378
603.3971, 31.97007
603.8792, 31.95136
604.3613, 32.19966
604.8434, 32.41106
605.3256, 32.31031
605.8077, 31.99021
606.2898, 31.75306
606.7719, 31.70443
607.2540, 31.74249
607.7361, 31.82595
608.2183, 31.93035
608.7004, 31.97486
609.1825, 31.93543
609.6646, 31.90525
610.1467, 31.99170
610.6288, 32.20138
611.1110, 32.37263
611.5931, 32.51365
612.0752, 32.61024
612.5573, 32.61308
613.0394, 32.59456
613.5215, 32.65049
614.0037, 32.78777
614.4858, 32.90549
614.9679, 32.86707
615.4500, 32.72389
615.9321, 32.78983
616.4142, 33.12611
616.8964, 33.46929
617.3785, 33.76307
617.8606, 33.98182
618.3427, 34.06374
618.8248, 33.99494
619.3069, 33.99871
619.7891, 34.27874
620.2712, 34.58195
620.7533, 34.59369
621.2354, 34.38024
621.7175, 34.26887
622.1996, 34.42040
622.6818, 34.68748
623.1639, 34.78050
623.6460, 34.57869
624.1281, 34.55645
624.6102, 34.91764
625.0923, 35.22430
625.5745, 35.26733
626.0566, 35.14997
626.5387, 35.03949
627.0208, 34.99531
627.5029, 34.99607
627.9850, 35.05451
628.4672, 35.15087
628.9493, 35.12681
629.4314, 34.93060
629.9135, 34.75113
630.3956, 34.74950
630.8777, 34.83777
631.3599, 34.76033
631.8420, 34.39971
632.3241, 34.13459
632.8062, 34.16906
633.2883, 34.29811
633.7704, 34.35033
634.2526, 34.29688
634.7347, 34.11888
635.2168, 33.78643
635.6989, 33.38959
636.1810, 33.21232
636.6631, 33.39246
637.1453, 33.44231
637.6274, 33.22357
638.1095, 32.95418
638.5916, 32.72878
639.0737, 32.53450
639.5558, 32.31634
640.0380, 32.03133
640.5201, 31.76631
641.0022, 31.65745
641.4843, 31.64589
641.9664, 31.52360
642.4485, 31.24768
642.9307, 30.88267
643.4128, 30.45240
643.8949, 29.97469
644.3770, 29.61644
644.8591, 29.44621
645.3412, 29.28573
645.8234, 29.14230
646.3055, 28.97293
646.7876, 28.70196
647.2697, 28.35888
647.7518, 28.07474
648.2339, 27.95909
648.7161, 27.93688
649.1982, 27.79260
649.6803, 27.49941
650.1624, 27.26048
650.6445, 27.13127
651.1266, 27.05425
651.6088, 27.03121
652.0909, 27.02932
652.5730, 26.90561
653.0551, 26.47175
653.5372, 26.08214
654.0193, 26.03049
654.5015, 26.14022
654.9836, 26.08147
655.4657, 25.79532
655.9478, 25.48568
656.4299, 25.34914
656.9120, 25.36454
657.3942, 25.32180
657.8763, 25.20242
658.3584, 25.05369
658.8405, 24.82978
659.3226, 24.62444
659.8047, 24.54541
660.2869, 24.56251
660.7690, 24.51858
661.2511, 24.27786
661.7332, 23.98769
662.2153, 23.86440
662.6974, 23.87886
663.1796, 23.86519
663.6617, 23.77923
664.1438, 23.64807
664.6259, 23.48244
665.1080, 23.28182
665.5901, 23.16496
666.0723, 23.24380
666.5544, 23.25514
667.0365, 23.08072
667.5186, 22.84430
668.0007, 22.65359
668.4828, 22.53153
668.9650, 22.47105
669.4471, 22.49633
669.9292, 22.54939
670.4113, 22.42604
670.8934, 22.09339
671.3755, 21.88154
671.8577, 21.95146
672.3398, 22.07401
672.8219, 21.99367
673.3040, 21.74780
673.7861, 21.53855
674.2682, 21.38367
674.7504, 21.28574
675.2325, 21.31088
675.7146, 21.36715
676.1967, 21.30341
676.6788, 21.10370
677.1609, 20.88341
677.6431, 20.74105
678.1252, 20.67191
678.6073, 20.66833
679.0894, 20.80162
679.5715, 20.82302
680.0536, 20.56076
680.5358, 20.27043
681.0179, 20.12661
681.5000, 20.10929
681.9821, 20.09892
682.4642, 20.06560
682.9464, 20.00955
683.4285, 19.88475
683.9106, 19.74436
684.3927, 19.75694
684.8748, 19.95017
685.3569, 20.07627
685.8391, 19.88683
686.3212, 19.43592
686.8033, 19.19296
687.2854, 19.32088
687.7675, 19.40086
688.2496, 19.36521
688.7318, 19.29481
689.2139, 19.24153
689.6960, 19.20286
690.1781, 19.14708
690.6602, 19.04002
691.1423, 18.94578
691.6245, 18.98451
692.1066, 19.10790
692.5887, 19.11225
693.0708, 18.94923
693.5529, 18.75496
694.0350, 18.62252
694.5172, 18.55515
694.9993, 18.56966
695.4814, 18.81960
695.9635, 18.93612
696.4456, 18.76159
696.9277, 18.56243
697.4099, 18.57040
697.8920, 18.71872
698.3741, 18.76663
698.8562, 18.57281
699.3383, 18.30609
699.8204, 18.22086
700.3026, 18.29102
700.7847, 18.30743
701.2668, 18.22252
701.7489, 18.17376
702.2310, 18.28597
702.7131, 18.50086
703.1953, 18.60421
703.6774, 18.56251
704.1595, 18.49105
704.6416, 18.36022
705.1237, 18.24339
705.6058, 18.21481
706.0880, 18.24221
706.5701, 18.23622
707.0522, 18.15371
707.5343, 18.05876
708.0164, 18.05824
708.4985, 18.14380
708.9807, 18.18376
709.4628, 18.15666
709.9449, 18.12922
710.4270, 18.13864
710.9091, 18.17088
711.3912, 18.19902
711.8734, 18.22702
712.3555, 18.23708
712.8376, 18.19019
713.3197, 18.15760
713.8018, 18.23669
714.2839, 18.35660
714.7661, 18.34780
715.2482, 18.15593
715.7303, 17.94627
716.2124, 17.95646
716.6945, 18.16497
717.1766, 18.22292
717.6588, 18.07009
718.1409, 17.96681
718.6230, 18.05771
719.1051, 18.21562
719.5872, 18.27575
720.0693, 18.23766
720.5515, 18.16421
721.0336, 17.98494
721.5157, 17.85962
721.9978, 17.93636
722.4799, 18.01518
722.9620, 18.13102
723.4442, 18.19633
723.9263, 18.21383
724.4084, 18.04033
724.8905, 18.11347
725.3726, 18.08777
725.8547, 18.05801
726.3369, 18.16587
726.8190, 18.02015
727.3011, 18.12582
727.7832, 18.13114
728.2653, 18.18239
728.7474, 18.13419
729.2296, 18.11670
729.7117, 18.19870
730.1938, 18.22561
730.6759, 18.16596
731.1580, 18.22013
731.6401, 18.07093
732.1223, 18.10019
732.6044, 18.20645
733.0865, 18.15180
733.5686, 18.20778
734.0507, 18.22163
734.5328, 18.04398
735.0150, 18.19937
735.4971, 18.21073
735.9792, 18.07420
736.4613, 18.21818
736.9434, 18.10204
737.4255, 18.07875
737.9077, 18.12533
738.3898, 18.09907
738.8719, 18.18764
739.3540, 18.16559
739.8361, 18.13365
740.3182, 18.14485
740.8004, 18.03381
741.2825, 18.14955
741.7646, 18.11037
742.2467, 18.14820
742.7288, 18.20349
743.2109, 18.12513
743.6931, 18.18825
744.1752, 18.03198
744.6573, 18.05928
745.1394, 18.06682
745.6215, 18.19169
746.1036, 18.03649
746.5858, 18.05869
747.0679, 18.15643
747.5500, 18.14848
748.0321, 18.18472
748.5142, 18.17745
748.9963, 18.19646
749.4785, 18.18665
749.9606, 18.13222
750.4427, 18.05408
750.9248, 18.03127
751.4069, 18.07140
751.8890, 18.08537
752.3712, 18.00712
752.8533, 17.98178
753.3354, 18.20908
753.8175, 18.62254
754.2996, 18.83281
754.7817, 18.72030
755.2639, 18.56354
755.7460, 18.35689
756.2281, 18.18988
756.7102, 18.16540
757.1923, 18.25080
757.6744, 18.33555
758.1566, 18.36486
758.6387, 18.36814
759.1208, 18.37395
759.6029, 18.38675
760.0850, 18.45316
760.5671, 18.58834
761.0493, 18.71387
761.5314, 18.81251
762.0135, 18.85236
762.4956, 18.74069
762.9777, 18.38409
763.4598, 18.21667
763.9420, 18.43572
764.4241, 18.63458
764.9062, 18.59508
765.3883, 18.46105
765.8704, 18.42398
766.3525, 18.51772
766.8347, 18.64566
767.3168, 18.74333
767.7989, 18.81908
768.2810, 18.89090
768.7631, 18.95729
769.2452, 19.00618
769.7274, 19.03530
770.2095, 19.04363
770.6916, 19.03083
771.1737, 18.99636
771.6558, 18.93494
772.1379, 18.74345
772.6201, 18.68132
773.1022, 18.84320
773.5843, 19.05837
774.0664, 19.24780
774.5485, 19.40563
775.0306, 19.54404
775.5128, 19.67257
775.9949, 19.75627
776.4770, 19.72286
776.9591, 19.64447
777.4412, 19.66036
777.9233, 19.76596
778.4055, 19.85893
778.8876, 19.89099
779.3697, 19.90073
779.8518, 19.95506
780.3339, 20.06436
780.8160, 20.11553
781.2982, 20.06121
781.7803, 20.02558
782.2624, 20.03764
782.7445, 20.08774
783.2266, 20.19135
783.7087, 20.33724
784.1909, 20.44330
784.6730, 20.44250
785.1551, 20.43575
785.6372, 20.47906
786.1193, 20.56227
786.6014, 20.70526
787.0836, 20.88482
787.5657, 20.97058
788.0478, 20.84936
788.5299, 20.67556
789.0120, 20.88196
789.4941, 21.52374
789.9763, 21.85168
790.4584, 21.68287
790.9405, 21.46911
791.4226, 21.43990
791.9047, 21.54675
792.3868, 21.71158
792.8690, 21.97756
793.3511, 22.12266
793.8332, 22.00982
794.3153, 21.88075
794.7974, 21.83246
795.2795, 21.86494
795.7617, 21.98031
796.2438, 22.16978
796.7259, 22.39028
797.2080, 22.62049
797.6901, 22.84536
798.1722, 23.04382
798.6544, 23.21265
799.1365, 23.30709
799.6186, 23.30568
800.1007, 23.31304
800.5828, 23.43127
801.0649, 23.62534
801.5471, 23.71807
802.0292, 23.58319
802.5113, 23.56258
802.9934, 23.75247
803.4755, 23.95602
803.9576, 24.08963
804.4398, 24.16791
804.9219, 24.20591
805.4040, 24.20191
805.8861, 24.23262
806.3682, 24.38724
806.8503, 24.57031
807.3325, 24.67361
807.8146, 24.70778
808.2967, 24.70112
808.7788, 24.66721
809.2609, 24.66322
809.7430, 24.76888
810.2252, 24.94792
810.7073, 24.95615
811.1894, 24.74189
811.6715, 24.56356
812.1536, 24.47092
812.6357, 24.42521
813.1179, 24.43513
813.6000, 24.46721
814.0821, 24.40714
814.5642, 24.15380
815.0463, 24.00424
815.5284, 24.18496
816.0106, 24.34809
816.4927, 24.16610
816.9748, 23.79714
817.4569, 23.59105
817.9390, 23.65654
818.4211, 23.77126
818.9033, 23.74326
819.3854, 23.59847
819.8675, 23.33003
820.3496, 22.96417
820.8317, 22.80016
821.3138, 22.94885
821.7960, 23.16525
822.2781, 23.20865
822.7602, 23.09662
823.2423, 22.98256
823.7244, 22.86767
824.2065, 22.74938
824.6887, 22.63743
825.1708, 22.51186
825.6529, 22.31952
826.1350, 22.11774
826.6171, 22.02825
827.0992, 22.09824
827.5814, 22.16612
828.0635, 22.17876
828.5456, 22.13276
829.0277, 21.97803
829.5098, 21.77082
829.9919, 21.62965
830.4741, 21.59003
830.9562, 21.61675
831.4383, 21.70659
831.9204, 21.81048
832.4025, 21.72225
832.8846, 21.42706
833.3668, 21.20176
833.8489, 21.10809
834.3310, 21.07902
834.8131, 21.07509
835.2952, 21.09047
835.7773, 21.10271
836.2595, 21.12368
836.7416, 21.11989
837.2237, 21.09871
837.7058, 21.04486
838.1879, 20.91959
838.6700, 20.77224
839.1522, 20.65504
839.6343, 20.58227
840.1164, 20.58283
840.5985, 20.77930
841.0806, 20.96854
841.5627, 20.89446
842.0449, 20.65478
842.5270, 20.45811
843.0091, 20.35365
843.4912, 20.31993
843.9733, 20.35201
844.4554, 20.40741
844.9376, 20.35638
845.4197, 20.18299
845.9018, 20.07649
846.3839, 20.06288
846.8660, 20.09466
847.3481, 20.18900
847.8303, 20.28252
848.3124, 20.24455
848.7945, 20.04523
849.2766, 19.87884
849.7587, 19.71635
850.2408, 19.63330
850.7230, 19.71512
851.2051, 19.84658
851.6872, 19.92457
852.1693, 19.93911
852.6514, 19.92427
853.1335, 19.89830
853.6157, 19.84503
854.0978, 19.71886
854.5799, 19.56703
855.0620, 19.47165
855.5441, 19.43912
856.0262, 19.45600
856.5084, 19.51719
856.9905, 19.58531
857.4726, 19.61084
857.9547, 19.59320
858.4368, 19.48956
858.9189, 19.25652
859.4011, 19.11663
859.8832, 19.18169
860.3653, 19.29197
860.8474, 19.27499
861.3295, 19.15235
861.8116, 19.11963
862.2938, 19.33874
862.7759, 19.41095
863.2580, 19.12554
863.7401, 18.84306
864.2222, 18.80785
864.7043, 18.92953
865.1865, 19.04060
865.6686, 19.09629
866.1507, 19.08540
866.6328, 18.95337
867.1149, 18.78687
867.5970, 18.67041
868.0792, 18.60658
868.5613, 18.61489
869.0434, 18.68946
869.5255, 18.75748
870.0076, 18.75763
870.4897, 18.72009
870.9719, 18.74367
871.4540, 18.83512
871.9361, 18.80897
872.4182, 18.61134
872.9003, 18.42956
873.3824, 18.36380
873.8646, 18.36672
874.3467, 18.36171
874.8288, 18.34915
875.3109, 18.32666
875.7930, 18.27682
876.2751, 18.24083
876.7573, 18.23472
877.2394, 18.24067
877.7215, 18.26730
878.2036, 18.29334
878.6857, 18.25482
879.1678, 18.11418
879.6500, 17.94896
880.1321, 17.74987
880.6142, 17.59232
881.0963, 17.59753
881.5784, 17.71358
882.0605, 17.80613
882.5427, 17.82534
883.0248, 17.77915
883.5069, 17.63583
883.9890, 17.46026
884.4711, 17.48210
884.9532, 17.68710
885.4354, 17.82760
885.9175, 17.85563
886.3996, 17.78993
886.8817, 17.61957
887.3638, 17.40081
887.8459, 17.30529
888.3281, 17.39822
888.8102, 17.41069
889.2923, 17.28131
889.7744, 17.15738
890.2565, 17.05759
890.7386, 17.00937
891.2208, 17.08520
891.7029, 17.26847
892.1850, 17.35361
892.6671, 17.20480
893.1492, 17.07315
893.6313, 17.07870
894.1135, 17.11665
894.5956, 17.10537
895.0777, 17.04205
895.5598, 16.92777
896.0419, 16.76145
896.5240, 16.63725
897.0062, 16.67441
897.4883, 16.78767
897.9704, 16.86666
898.4525, 16.89784
898.9346, 16.81939
899.4167, 16.62545
899.8989, 16.45610
900.3810, 16.43266
900.8631, 16.49934
901.3452, 16.49870
901.8273, 16.42455
902.3094, 16.35208
902.7916, 16.27935
903.2737, 16.23538
903.7558, 16.23798
904.2379, 16.27212
904.7200, 16.32231
905.2021, 16.39350
905.6843, 16.43220
906.1664, 16.39018
906.6485, 16.38297
907.1306, 16.51058
907.6127, 16.60177
908.0948, 16.49354
908.5770, 16.26266
909.0591, 16.09364
909.5412, 16.02302
910.0233, 16.03602
910.5054, 16.22121
910.9875, 16.39597
911.4697, 16.38094
911.9518, 16.27111
912.4339, 16.24499
912.9160, 16.32154
913.3981, 16.36460
913.8802, 16.25853
914.3624, 16.12480
914.8445, 16.18131
915.3265, 16.34233
915.8087, 16.33738
916.2908, 16.16071
916.7729, 16.02050
917.2550, 16.01283
917.7371, 16.08296
918.2192, 16.16752
918.7014, 16.26242
919.1835, 16.31408
919.6656, 16.31400
920.1477, 16.32248
920.6298, 16.37393
921.1119, 16.37997
921.5941, 16.23349
922.0762, 16.01187
922.5583, 15.96210
923.0404, 16.20157
923.5225, 16.31618
924.0046, 16.18014
924.4868, 16.08191
924.9689, 16.17122
925.4510, 16.29363
925.9331, 16.28778
926.4152, 16.16236
926.8973, 16.03433
927.3795, 15.88552
927.8616, 15.82285
928.3437, 15.97723
928.8258, 16.16443
929.3079, 16.19998
929.7900, 16.14757
930.2722, 16.19151
930.7543, 16.36964
931.2364, 16.46971
931.7185, 16.25140
932.2006, 15.93382
932.6827, 15.77771
933.1649, 15.76750
933.6470, 15.92659
934.1291, 16.21803
934.6112, 16.42170
935.0933, 16.41006
935.5754, 16.27961
936.0576, 16.15719
936.5397, 16.04772
937.0218, 16.00836
937.5039, 16.04245
937.9860, 16.09684
938.4681, 16.16091
938.9503, 16.22423
939.4324, 16.28352
939.9145, 16.32939
940.3966, 16.31657
940.8787, 16.20533
941.3608, 16.14263
941.8430, 16.12822
942.3251, 16.16739
942.8072, 16.32241
943.2893, 16.48970
943.7714, 16.53022
944.2535, 16.45196
944.7357, 16.40958
945.2178, 16.44190
945.6999, 16.47266
946.1820, 16.49987
946.6641, 16.50780
947.1462, 16.45876
947.6284, 16.39351
948.1105, 16.38545
948.5926, 16.44994
949.0747, 16.52787
949.5568, 16.62309
950.0389, 16.68628
950.5211, 16.62986
951.0032, 16.55047
951.4853, 16.58080
951.9674, 16.71724
952.4495, 16.91611
952.9316, 17.16468
953.4138, 17.30825
953.8959, 17.05783
954.3780, 16.64986
954.8601, 16.55501
955.3422, 16.71524
955.8243, 16.89219
956.3065, 17.02061
956.7886, 17.08440
957.2707, 17.06196
957.7528, 17.00833
958.2349, 17.05951
958.7170, 17.20704
959.1992, 17.26219
959.6813, 17.20037
960.1634, 17.24914
960.6455, 17.51727
961.1276, 17.82471
961.6097, 17.97202
962.0919, 17.98493
962.5740, 18.03984
963.0561, 18.18747
963.5382, 18.21170
964.0203, 17.99595
964.5024, 17.83577
964.9846, 17.91073
965.4667, 18.09153
965.9488, 18.18146
966.4309, 18.16966
966.9130, 18.23890
967.3951, 18.46318
967.8773, 18.66325
968.3594, 18.81000
968.8415, 18.92896
969.3236, 19.02683
969.8057, 19.11190
970.2878, 19.18145
970.7700, 19.22919
971.2521, 19.35238
971.7342, 19.64996
972.2163, 19.95024
972.6984, 20.22753
973.1805, 20.41498
973.6627, 20.35907
974.1448, 20.16284
974.6269, 20.12902
975.1090, 20.37917
975.5911, 20.66267
976.0732, 20.81286
976.5554, 20.89261
977.0375, 20.93526
977.5196, 20.97067
978.0017, 21.03467
978.4838, 21.14219
978.9659, 21.34371
979.4481, 21.68784
979.9302, 21.99602
980.4123, 21.98704
980.8944, 21.78732
981.3765, 21.66707
981.8586, 21.64251
982.3408, 21.75828
982.8229, 22.01617
983.3050, 22.28337
983.7871, 22.45467
984.2692, 22.55004
984.7513, 22.55305
985.2335, 22.48475
985.7156, 22.50647
986.1977, 22.95560
986.6798, 23.28678
987.1619, 23.50272
987.6440, 23.46022
988.1262, 23.59697
988.6083, 23.56742
989.0904, 23.46640
989.5725, 23.43556
990.0546, 23.08372
990.5367, 22.91588
991.0189, 22.97846
991.5010, 23.10854
991.9831, 23.28461
992.4652, 23.29554
992.9473, 23.15254
993.4294, 23.16815
993.9116, 23.43603
994.3937, 23.69483
994.8758, 23.99074
995.3579, 24.19620
995.8400, 24.17911
996.3221, 24.07736
996.8043, 24.08946
997.2864, 24.22326
997.7685, 24.31109
998.2506, 24.25853
998.7327, 24.27317
999.2148, 24.43487
999.6970, 24.63788
1000.179, 24.84765
1000.661, 25.03819
1001.143, 25.14790
1001.625, 25.16644
1002.108, 25.26802
1002.590, 25.58872
1003.072, 25.90323
1003.554, 26.07605
1004.036, 26.22247
1004.518, 26.46692
1005.000, 26.76743
1005.482, 27.00088
1005.964, 27.13352
1006.447, 27.30403
1006.929, 27.63541
1007.411, 27.99015
1007.893, 28.22680
1008.375, 28.44507
1008.857, 28.84829
1009.339, 29.35473
1009.821, 29.63818
1010.304, 29.57853
1010.786, 29.57506
1011.268, 30.08325
1011.750, 30.74779
1012.232, 31.11537
1012.714, 31.29548
1013.196, 31.44422
1013.678, 31.63238
1014.160, 32.02148
1014.643, 32.69175
1015.125, 33.41652
1015.607, 33.91674
1016.089, 34.29559
1016.571, 34.81182
1017.053, 35.40999
1017.535, 35.86266
1018.017, 36.15495
1018.500, 36.48970
1018.982, 36.98384
1019.464, 37.55986
1019.946, 38.09118
1020.428, 38.61479
1020.910, 39.33946
1021.392, 40.23344
1021.874, 40.92570
1022.356, 41.34533
1022.839, 41.69590
1023.321, 42.08953
1023.803, 42.59227
1024.285, 43.37194
1024.767, 44.39685
1025.249, 45.20376
1025.731, 45.77853
1026.213, 46.34642
1026.696, 46.95735
1027.178, 47.54992
1027.660, 48.07897
1028.142, 48.58181
1028.624, 49.12386
1029.106, 49.70362
1029.588, 50.42993
1030.070, 51.38429
1030.552, 52.12098
1031.035, 52.51123
1031.517, 52.73987
1031.999, 52.88889
1032.481, 53.02143
1032.963, 53.27767
1033.445, 53.67179
1033.927, 54.09418
1034.409, 54.61149
1034.891, 54.98793
1035.374, 55.17736
1035.856, 55.19733
1036.338, 54.99490
1036.820, 54.67924
1037.302, 54.51507
1037.784, 54.55865
1038.266, 54.43467
1038.748, 54.06170
1039.231, 53.67242
1039.713, 53.37870
1040.195, 52.99816
1040.677, 52.32888
1041.159, 51.52127
1041.641, 50.93104
1042.123, 50.66784
1042.605, 50.10240
1043.088, 48.86049
1043.570, 47.85165
1044.052, 47.42788
1044.534, 47.06861
1045.016, 46.45945
1045.498, 45.68142
1045.980, 44.87206
1046.462, 44.01294
1046.944, 43.25814
1047.427, 42.66717
1047.909, 42.11314
1048.391, 41.58456
1048.873, 41.07033
1049.355, 40.61201
1049.837, 40.14804
1050.319, 39.52847
1050.801, 38.71863
1051.283, 38.03662
1051.766, 37.66676
1052.248, 37.24152
1052.730, 36.53013
1053.212, 35.86861
1053.694, 35.54516
1054.176, 35.39579
1054.658, 35.12157
1055.140, 34.68447
1055.623, 34.24681
1056.105, 33.82169
1056.587, 33.43154
1057.069, 33.17627
1057.551, 32.86391
1058.033, 32.25346
1058.515, 31.54754
1058.997, 31.12503
1059.479, 31.01713
1059.962, 30.79352
1060.444, 30.20140
1060.926, 29.65025
1061.408, 29.36202
1061.890, 29.08068
1062.372, 28.58173
1062.854, 27.99811
1063.336, 27.54522
1063.818, 27.24078
1064.301, 26.95047
1064.783, 26.68296
1065.265, 26.33421
1065.747, 25.81586
1066.229, 25.24909
1066.711, 24.62079
1067.193, 24.05471
1067.675, 23.75581
1068.158, 23.70014
1068.640, 23.62239
1069.122, 23.45831
1069.604, 23.20229
1070.086, 22.78274
1070.568, 22.34348
1071.050, 21.94778
1071.532, 21.61836
1072.015, 21.41827
1072.497, 21.31156
1072.979, 21.14162
1073.461, 20.82894
1073.943, 20.53627
1074.425, 20.34698
1074.907, 20.19110
1075.389, 20.05218
1075.871, 19.90250
1076.354, 19.67947
1076.836, 19.41945
1077.318, 19.25311
1077.800, 19.23741
1078.282, 19.22330
1078.764, 19.14202
1079.246, 19.04228
1079.728, 18.94866
1080.210, 18.85562
1080.693, 18.74227
1081.175, 18.62463
1081.657, 18.54965
1082.139, 18.53179
1082.621, 18.51562
1083.103, 18.46793
1083.585, 18.42512
1084.067, 18.41606
1084.549, 18.41320
1085.032, 18.30255
1085.514, 18.42929
1085.996, 18.50385
1086.478, 18.52895
1086.960, 18.36138
1087.442, 18.43880
1087.924, 18.41572
1088.406, 18.38693
1088.889, 18.49410
1089.371, 18.34603
1089.853, 18.44769
1090.335, 18.44735
1090.817, 18.49128
1091.299, 18.43410
1091.781, 18.40598
1092.263, 18.47570
1092.745, 18.48867
1093.228, 18.41338
1093.710, 18.45029
1094.192, 18.28218
1094.674, 18.29086
1095.156, 18.37489
1095.638, 18.29635
1096.120, 18.32680
1096.602, 18.31344
1097.084, 18.10695
1097.567, 18.23175
1098.049, 18.21095
1098.531, 18.04059
1099.013, 18.14909
1099.495, 17.99580
1099.977, 17.93371
1100.459, 17.93984
1100.941, 17.87147
1101.424, 17.91619
1101.906, 17.84871
1102.388, 17.76970
1102.870, 17.73215
1103.352, 17.54575
1103.834, 17.41161
1104.316, 17.29498
1104.798, 17.19678
1105.281, 17.08993
1105.763, 16.94258
1106.245, 16.82269
1106.727, 16.78898
1107.209, 16.74676
1107.691, 16.63476
1108.173, 16.47558
1108.655, 16.29868
1109.137, 16.10766
1109.620, 15.92320
1110.102, 15.74882
1110.584, 15.58124
1111.066, 15.40100
1111.548, 15.25102
1112.030, 15.15966
1112.512, 15.10124
1112.994, 15.06294
1113.476, 15.03540
1113.959, 14.96331
1114.441, 14.78383
1114.923, 14.68855
1115.405, 14.82284
1115.887, 14.84811
1116.369, 14.52479
1116.851, 14.21518
1117.333, 14.28109
1117.816, 14.55204
1118.298, 14.56506
1118.780, 14.25343
1119.262, 14.00243
1119.744, 13.75249
1120.226, 13.69616
1120.708, 14.05999
1121.190, 14.30223
1121.672, 13.99514
1122.155, 13.49857
1122.637, 13.40241
1123.119, 13.69777
1123.601, 13.88616
1124.083, 13.95364
1124.565, 13.95014
1125.047, 13.86229
1125.529, 13.74034
1126.011, 13.57458
1126.494, 13.45465
1126.976, 13.49884
1127.458, 13.65407
1127.940, 13.67771
1128.422, 13.53563
1128.904, 13.49956
1129.386, 13.60327
1129.868, 13.64484
1130.351, 13.55424
1130.833, 13.45321
1131.315, 13.43416
1131.797, 13.45854
1132.279, 13.45141
1132.761, 13.41384
1133.243, 13.34964
1133.725, 13.25827
1134.208, 13.23407
1134.690, 13.29401
1135.172, 13.37410
1135.654, 13.44333
1136.136, 13.49964
1136.618, 13.53651
1137.100, 13.56378
1137.582, 13.61142
1138.064, 13.67724
1138.547, 13.76920
1139.029, 13.87535
1139.511, 13.89808
1139.993, 13.81034
1140.475, 13.68655
1140.957, 13.57341
1141.439, 13.51464
1141.921, 13.61375
1142.403, 13.80654
1142.886, 13.96839
1143.368, 14.08290
1143.850, 14.08686
1144.332, 13.99927
1144.814, 13.94102
1145.296, 13.97026
1145.778, 13.72914
1146.260, 14.08605
1146.743, 14.35400
1147.225, 14.53313
1147.707, 14.56313
1148.189, 14.63027
1148.671, 14.58748
1149.153, 14.47512
1149.635, 14.35348
1150.117, 14.77583
1150.599, 14.66930
1151.082, 14.54061
1151.564, 14.47690
1152.046, 14.48793
1152.528, 14.55953
1153.010, 14.73042
1153.492, 14.83814
1153.974, 14.88576
1154.456, 14.71322
1154.938, 14.80964
1155.421, 14.78893
1155.903, 14.75697
1156.385, 14.87213
1156.867, 14.69720
1157.349, 14.79655
1157.831, 14.77705
1158.313, 14.80221
1158.795, 14.70953
1159.278, 14.64440
1159.760, 14.68385
1160.242, 14.65506
1160.724, 14.52283
1161.206, 14.51112
1161.688, 14.26546
1162.170, 14.21254
1162.652, 14.04030
1163.135, 13.91510
1163.617, 13.85560
1164.099, 13.83428
1164.581, 13.88020
1165.063, 13.85889
1165.545, 13.72828
1166.027, 13.62535
1166.509, 13.57429
1166.991, 13.57362
1167.474, 13.64810
1167.956, 13.72693
1168.438, 13.68392
1168.920, 13.53498
1169.402, 13.46404
1169.884, 13.48334
1170.366, 13.45828
1170.848, 13.37300
1171.330, 13.27690
1171.813, 13.18444
1172.295, 13.12595
1172.777, 13.13688
1173.259, 13.16843
1173.741, 13.10603
1174.223, 12.97047
1174.705, 12.85831
1175.187, 12.77019
1175.670, 12.68384
1176.152, 12.60348
1176.634, 12.61083
1177.116, 12.74282
1177.598, 12.83293
1178.080, 12.66230
1178.562, 12.41819
1179.044, 12.41420
1179.526, 12.52559
1180.009, 12.55096
1180.491, 12.48837
1180.973, 12.37674
1181.455, 12.23199
1181.937, 12.06532
1182.419, 11.86576
1182.901, 11.72287
1183.383, 11.71543
1183.865, 11.77664
1184.348, 11.93970
1184.830, 12.07301
1185.312, 12.00682
1185.794, 11.79559
1186.276, 11.57540
1186.758, 11.37477
1187.240, 11.22449
1187.722, 11.16389
1188.205, 11.11000
1188.687, 10.98660
1189.169, 10.92903
1189.651, 11.07510
1190.133, 11.27182
1190.615, 11.37496
1191.097, 11.38091
1191.579, 11.29671
1192.062, 11.08408
1192.544, 10.92033
1193.026, 10.78594
1193.508, 10.75264
1193.990, 10.88666
1194.472, 11.00296
1194.954, 10.98861
1195.436, 10.93005
1195.918, 10.95392
1196.401, 11.03246
1196.883, 10.99837
1197.365, 10.84547
1197.847, 10.74778
1198.329, 10.71591
1198.811, 10.68540
1199.293, 10.63835
1199.775, 10.55413
1200.257, 10.41031
1200.740, 10.29528
1201.222, 10.37483
1201.704, 10.55951
1202.186, 10.61953
1202.668, 10.59290
1203.150, 10.59377
1203.632, 10.61277
1204.114, 10.54762
1204.597, 10.38230
1205.079, 10.24650
1205.561, 10.22981
1206.043, 10.25144
1206.525, 10.26747
1207.007, 10.25949
1207.489, 10.16942
1207.971, 10.07210
1208.453, 10.09029
1208.936, 10.18550
1209.418, 10.22657
1209.900, 10.18198
1210.382, 10.13773
1210.864, 10.16814
1211.346, 10.13456
1211.828, 9.880983
1212.310, 9.691343
1212.792, 9.762650
1213.275, 9.941624
1213.757, 10.10119
1214.239, 10.21938
1214.721, 10.21254
1215.203, 10.04162
1215.685, 9.928357
1216.167, 9.887285
1216.649, 9.866144
1217.132, 9.864902
1217.614, 9.849067
1218.096, 9.789105
1218.578, 9.754676
1219.060, 9.841983
1219.542, 9.995042
1220.024, 10.02004
1220.506, 9.933530
1220.989, 9.877588
1221.471, 9.858671
1221.953, 9.903190
1222.435, 10.00178
1222.917, 10.03826
1223.399, 9.952189
1223.881, 9.820425
1224.363, 9.694712
1224.845, 9.605083
1225.328, 9.589972
1225.810, 9.638955
1226.292, 9.803562
1226.774, 9.990340
1227.256, 9.999353
1227.738, 9.837232
1228.220, 9.691630
1228.702, 9.623372
1229.184, 9.619845
1229.667, 9.744662
1230.149, 9.840241
1230.631, 9.821133
1231.113, 9.759503
1231.595, 9.666334
1232.077, 9.591954
1232.559, 9.636942
1233.041, 9.786772
1233.524, 9.840266
1234.006, 9.732143
1234.488, 9.697381
1234.970, 9.761115
1235.452, 9.836851
1235.934, 9.912542
1236.416, 9.973524
1236.898, 10.01165
1237.380, 10.03028
1237.863, 10.03850
1238.345, 10.02598
1238.827, 9.923429
1239.309, 9.752843
1239.791, 9.681455
1240.273, 9.707163
1240.755, 9.748902
1241.237, 9.785288
1241.719, 9.829167
1242.202, 9.888182
1242.684, 9.940955
1243.166, 10.00517
1243.648, 10.01106
1244.130, 9.802858
1244.612, 9.550901
1245.094, 9.448881
1245.576, 9.479022
1246.059, 9.629830
1246.541, 9.850366
1247.023, 9.946349
1247.505, 9.827119
1247.987, 9.717806
1248.469, 9.668852
1248.951, 9.656980
1249.433, 9.698150
1249.916, 9.748607
1250.398, 9.784191
1250.880, 9.811350
1251.362, 9.830601
1251.844, 9.849318
1252.326, 9.931520
1252.808, 10.12775
1253.290, 10.06816
1253.772, 9.697289
1254.255, 9.513327
1254.737, 9.628237
1255.219, 9.764921
1255.701, 9.778960
1256.183, 9.777836
1256.665, 9.901919
1257.147, 10.04221
1257.629, 9.932887
1258.111, 9.705519
1258.594, 9.651321
1259.076, 9.722046
1259.558, 9.774756
1260.040, 9.789551
1260.522, 9.820115
1261.004, 9.884808
1261.486, 9.887747
1261.968, 9.675398
1262.451, 9.525281
1262.933, 9.667940
1263.415, 9.811271
1263.897, 9.706934
1264.379, 9.545294
1264.861, 9.578278
1265.343, 9.736658
1265.825, 9.751835
1266.307, 9.595689
1266.790, 9.525964
1267.272, 9.580034
1267.754, 9.602265
1268.236, 9.562060
1268.718, 9.556860
1269.200, 9.630213
1269.682, 9.693591
1270.164, 9.665044
1270.646, 9.616775
1271.129, 9.706468
1271.611, 9.872589
1272.093, 9.895629
1272.575, 9.829835
##END=



