##NAMES=Tuzlaite
##RRUFFID=R120036
##IDEAL CHEMISTRY=NaCaB_5_O_8_(OH)_2_&#183;3H_2_O
##LOCALITY=Tuzla mine, Tuzla, Tuzla Canton, Federation of Bosnia and Herzegovina, Bosnia and Herzegovina
##OWNER=RRUFF
##SOURCE=Bob Jenkins
##DESCRIPTION=Seam of colorless massive fibers
##STATUS=The identification of this mineral has been confirmed by single-crystal X-ray diffraction.
##URL=rruff.info/R120036
9.112140e+001, 0.000000e+000
9.160352e+001, 5.649648e+002
9.208563e+001, 5.602079e+002
9.256775e+001, 5.596085e+002
9.304987e+001, 5.651735e+002
9.353198e+001, 5.723769e+002
9.401410e+001, 5.738303e+002
9.449622e+001, 5.693143e+002
9.497833e+001, 5.606484e+002
9.546045e+001, 5.491270e+002
9.594257e+001, 5.346682e+002
9.642468e+001, 5.219412e+002
9.690680e+001, 5.112101e+002
9.738892e+001, 5.020333e+002
9.787103e+001, 4.948438e+002
9.835315e+001, 4.886580e+002
9.883527e+001, 4.820565e+002
9.931738e+001, 4.748554e+002
9.979950e+001, 4.666953e+002
1.002816e+002, 4.598348e+002
1.007637e+002, 4.541105e+002
1.012458e+002, 4.493599e+002
1.017280e+002, 4.454448e+002
1.022101e+002, 4.422357e+002
1.026922e+002, 4.398844e+002
1.031743e+002, 4.388976e+002
1.036564e+002, 4.391254e+002
1.041385e+002, 4.397657e+002
1.046207e+002, 4.408724e+002
1.051028e+002, 4.422231e+002
1.055849e+002, 4.431172e+002
1.060670e+002, 4.433469e+002
1.065491e+002, 4.427343e+002
1.070313e+002, 4.411706e+002
1.075134e+002, 4.385389e+002
1.079955e+002, 4.354922e+002
1.084776e+002, 4.326311e+002
1.089597e+002, 4.299514e+002
1.094418e+002, 4.273947e+002
1.099240e+002, 4.253494e+002
1.104061e+002, 4.232007e+002
1.108882e+002, 4.204834e+002
1.113703e+002, 4.170112e+002
1.118524e+002, 4.129175e+002
1.123345e+002, 4.085076e+002
1.128167e+002, 4.032234e+002
1.132988e+002, 3.983785e+002
1.137809e+002, 3.939213e+002
1.142630e+002, 3.900337e+002
1.147451e+002, 3.869252e+002
1.152272e+002, 3.847744e+002
1.157094e+002, 3.835275e+002
1.161915e+002, 3.825957e+002
1.166736e+002, 3.823043e+002
1.171557e+002, 3.819412e+002
1.176378e+002, 3.809139e+002
1.181199e+002, 3.794790e+002
1.186021e+002, 3.785374e+002
1.190842e+002, 3.789078e+002
1.195663e+002, 3.807413e+002
1.200484e+002, 3.825387e+002
1.205305e+002, 3.840417e+002
1.210126e+002, 3.856595e+002
1.214948e+002, 3.880140e+002
1.219769e+002, 3.912851e+002
1.224590e+002, 3.943514e+002
1.229411e+002, 3.961270e+002
1.234232e+002, 3.968159e+002
1.239053e+002, 3.964362e+002
1.243875e+002, 3.943644e+002
1.248696e+002, 3.911707e+002
1.253517e+002, 3.884760e+002
1.258338e+002, 3.866842e+002
1.263159e+002, 3.851320e+002
1.267980e+002, 3.834372e+002
1.272802e+002, 3.815782e+002
1.277623e+002, 3.794946e+002
1.282444e+002, 3.770234e+002
1.287265e+002, 3.741251e+002
1.292086e+002, 3.713769e+002
1.296907e+002, 3.688521e+002
1.301729e+002, 3.664720e+002
1.306550e+002, 3.642218e+002
1.311371e+002, 3.620986e+002
1.316192e+002, 3.601099e+002
1.321013e+002, 3.582716e+002
1.325834e+002, 3.565716e+002
1.330656e+002, 3.550479e+002
1.335477e+002, 3.533295e+002
1.340298e+002, 3.519541e+002
1.345119e+002, 3.515801e+002
1.349940e+002, 3.523701e+002
1.354761e+002, 3.536808e+002
1.359583e+002, 3.540339e+002
1.364404e+002, 3.519669e+002
1.369225e+002, 3.507291e+002
1.374046e+002, 3.510773e+002
1.378867e+002, 3.522371e+002
1.383688e+002, 3.531932e+002
1.388510e+002, 3.535237e+002
1.393331e+002, 3.532556e+002
1.398152e+002, 3.524515e+002
1.402973e+002, 3.509611e+002
1.407794e+002, 3.493011e+002
1.412615e+002, 3.476873e+002
1.417437e+002, 3.460920e+002
1.422258e+002, 3.443672e+002
1.427079e+002, 3.424882e+002
1.431900e+002, 3.403789e+002
1.436721e+002, 3.379441e+002
1.441542e+002, 3.349987e+002
1.446364e+002, 3.319395e+002
1.451185e+002, 3.290290e+002
1.456006e+002, 3.262175e+002
1.460827e+002, 3.238668e+002
1.465648e+002, 3.221348e+002
1.470469e+002, 3.209688e+002
1.475291e+002, 3.204485e+002
1.480112e+002, 3.206880e+002
1.484933e+002, 3.215008e+002
1.489754e+002, 3.225488e+002
1.494575e+002, 3.241373e+002
1.499396e+002, 3.254232e+002
1.504218e+002, 3.260610e+002
1.509039e+002, 3.263168e+002
1.513860e+002, 3.265648e+002
1.518681e+002, 3.270726e+002
1.523502e+002, 3.277632e+002
1.528323e+002, 3.279469e+002
1.533145e+002, 3.271500e+002
1.537966e+002, 3.262457e+002
1.542787e+002, 3.253749e+002
1.547608e+002, 3.245229e+002
1.552429e+002, 3.236179e+002
1.557250e+002, 3.225980e+002
1.562072e+002, 3.214603e+002
1.566893e+002, 3.202516e+002
1.571714e+002, 3.187523e+002
1.576535e+002, 3.173842e+002
1.581356e+002, 3.163412e+002
1.586177e+002, 3.156063e+002
1.590999e+002, 3.149932e+002
1.595820e+002, 3.142709e+002
1.600641e+002, 3.133768e+002
1.605462e+002, 3.132207e+002
1.610283e+002, 3.143091e+002
1.615104e+002, 3.157458e+002
1.619926e+002, 3.168117e+002
1.624747e+002, 3.174133e+002
1.629568e+002, 3.180282e+002
1.634389e+002, 3.192292e+002
1.639210e+002, 3.209860e+002
1.644031e+002, 3.226242e+002
1.648853e+002, 3.238362e+002
1.653674e+002, 3.249236e+002
1.658495e+002, 3.263710e+002
1.663316e+002, 3.283691e+002
1.668137e+002, 3.304129e+002
1.672958e+002, 3.319490e+002
1.677780e+002, 3.331034e+002
1.682601e+002, 3.343183e+002
1.687422e+002, 3.359206e+002
1.692243e+002, 3.377859e+002
1.697064e+002, 3.393973e+002
1.701885e+002, 3.407254e+002
1.706707e+002, 3.417076e+002
1.711528e+002, 3.422174e+002
1.716349e+002, 3.423520e+002
1.721170e+002, 3.425050e+002
1.725991e+002, 3.431570e+002
1.730812e+002, 3.443575e+002
1.735634e+002, 3.449880e+002
1.740455e+002, 3.446166e+002
1.745276e+002, 3.439037e+002
1.750097e+002, 3.430212e+002
1.754918e+002, 3.420167e+002
1.759739e+002, 3.409242e+002
1.764561e+002, 3.397641e+002
1.769382e+002, 3.384796e+002
1.774203e+002, 3.372911e+002
1.779024e+002, 3.364831e+002
1.783845e+002, 3.355443e+002
1.788666e+002, 3.340429e+002
1.793488e+002, 3.320193e+002
1.798309e+002, 3.299339e+002
1.803130e+002, 3.284722e+002
1.807951e+002, 3.280661e+002
1.812772e+002, 3.273330e+002
1.817593e+002, 3.259026e+002
1.822415e+002, 3.244289e+002
1.827236e+002, 3.235404e+002
1.832057e+002, 3.233384e+002
1.836878e+002, 3.232725e+002
1.841699e+002, 3.224772e+002
1.846520e+002, 3.203526e+002
1.851342e+002, 3.186669e+002
1.856163e+002, 3.179363e+002
1.860984e+002, 3.174587e+002
1.865805e+002, 3.165211e+002
1.870626e+002, 3.149146e+002
1.875447e+002, 3.128109e+002
1.880269e+002, 3.103281e+002
1.885090e+002, 3.072846e+002
1.889911e+002, 3.046159e+002
1.894732e+002, 3.027965e+002
1.899553e+002, 3.014482e+002
1.904374e+002, 2.999462e+002
1.909196e+002, 2.980832e+002
1.914017e+002, 2.960307e+002
1.918838e+002, 2.939945e+002
1.923659e+002, 2.919805e+002
1.928480e+002, 2.899737e+002
1.933301e+002, 2.877650e+002
1.938123e+002, 2.855080e+002
1.942944e+002, 2.837860e+002
1.947765e+002, 2.828962e+002
1.952586e+002, 2.824576e+002
1.957407e+002, 2.820698e+002
1.962228e+002, 2.817359e+002
1.967050e+002, 2.813224e+002
1.971871e+002, 2.807094e+002
1.976692e+002, 2.799049e+002
1.981513e+002, 2.790742e+002
1.986334e+002, 2.782018e+002
1.991155e+002, 2.773575e+002
1.995977e+002, 2.765629e+002
2.000798e+002, 2.758253e+002
2.005619e+002, 2.751894e+002
2.010440e+002, 2.746752e+002
2.015261e+002, 2.742709e+002
2.020082e+002, 2.740665e+002
2.024904e+002, 2.744965e+002
2.029725e+002, 2.748291e+002
2.034546e+002, 2.745511e+002
2.039367e+002, 2.736664e+002
2.044188e+002, 2.726922e+002
2.049009e+002, 2.723418e+002
2.053831e+002, 2.729214e+002
2.058652e+002, 2.731829e+002
2.063473e+002, 2.727659e+002
2.068294e+002, 2.722837e+002
2.073115e+002, 2.722467e+002
2.077936e+002, 2.726549e+002
2.082758e+002, 2.729901e+002
2.087579e+002, 2.724757e+002
2.092400e+002, 2.706087e+002
2.097221e+002, 2.689524e+002
2.102042e+002, 2.672491e+002
2.106863e+002, 2.658868e+002
2.111685e+002, 2.653837e+002
2.116506e+002, 2.657250e+002
2.121327e+002, 2.661916e+002
2.126148e+002, 2.656798e+002
2.130969e+002, 2.633362e+002
2.135790e+002, 2.618209e+002
2.140612e+002, 2.615983e+002
2.145433e+002, 2.618470e+002
2.150254e+002, 2.619612e+002
2.155075e+002, 2.617884e+002
2.159896e+002, 2.614993e+002
2.164717e+002, 2.613389e+002
2.169539e+002, 2.613981e+002
2.174360e+002, 2.613663e+002
2.179181e+002, 2.610677e+002
2.184002e+002, 2.607601e+002
2.188823e+002, 2.607745e+002
2.193644e+002, 2.611936e+002
2.198466e+002, 2.616721e+002
2.203287e+002, 2.616614e+002
2.208108e+002, 2.610186e+002
2.212929e+002, 2.607215e+002
2.217750e+002, 2.610390e+002
2.222571e+002, 2.617192e+002
2.227393e+002, 2.625217e+002
2.232214e+002, 2.634235e+002
2.237035e+002, 2.642799e+002
2.241856e+002, 2.647906e+002
2.246677e+002, 2.649810e+002
2.251498e+002, 2.653955e+002
2.256320e+002, 2.665877e+002
2.261141e+002, 2.679906e+002
2.265962e+002, 2.685024e+002
2.270783e+002, 2.676895e+002
2.275604e+002, 2.667408e+002
2.280425e+002, 2.671336e+002
2.285247e+002, 2.685269e+002
2.290068e+002, 2.695146e+002
2.294889e+002, 2.693972e+002
2.299710e+002, 2.685078e+002
2.304531e+002, 2.675757e+002
2.309352e+002, 2.667057e+002
2.314174e+002, 2.657134e+002
2.318995e+002, 2.643021e+002
2.323816e+002, 2.626400e+002
2.328637e+002, 2.612085e+002
2.333458e+002, 2.603860e+002
2.338279e+002, 2.599866e+002
2.343101e+002, 2.593704e+002
2.347922e+002, 2.583967e+002
2.352743e+002, 2.574263e+002
2.357564e+002, 2.563784e+002
2.362385e+002, 2.554709e+002
2.367206e+002, 2.552044e+002
2.372028e+002, 2.562669e+002
2.376849e+002, 2.582259e+002
2.381670e+002, 2.591568e+002
2.386491e+002, 2.583363e+002
2.391312e+002, 2.575204e+002
2.396133e+002, 2.574744e+002
2.400955e+002, 2.579199e+002
2.405776e+002, 2.583443e+002
2.410597e+002, 2.583453e+002
2.415418e+002, 2.581116e+002
2.420239e+002, 2.586320e+002
2.425060e+002, 2.607588e+002
2.429882e+002, 2.624777e+002
2.434703e+002, 2.632242e+002
2.439524e+002, 2.632338e+002
2.444345e+002, 2.628226e+002
2.449166e+002, 2.621233e+002
2.453987e+002, 2.611990e+002
2.458809e+002, 2.603633e+002
2.463630e+002, 2.596895e+002
2.468451e+002, 2.590164e+002
2.473272e+002, 2.584353e+002
2.478093e+002, 2.578025e+002
2.482914e+002, 2.569333e+002
2.487736e+002, 2.557205e+002
2.492557e+002, 2.542219e+002
2.497378e+002, 2.526756e+002
2.502199e+002, 2.508494e+002
2.507020e+002, 2.492753e+002
2.511841e+002, 2.481616e+002
2.516663e+002, 2.472914e+002
2.521484e+002, 2.464247e+002
2.526305e+002, 2.454406e+002
2.531126e+002, 2.443895e+002
2.535947e+002, 2.434024e+002
2.540768e+002, 2.424845e+002
2.545590e+002, 2.416519e+002
2.550411e+002, 2.410581e+002
2.555232e+002, 2.404904e+002
2.560053e+002, 2.396444e+002
2.564874e+002, 2.383976e+002
2.569695e+002, 2.369700e+002
2.574517e+002, 2.358942e+002
2.579338e+002, 2.354017e+002
2.584159e+002, 2.350272e+002
2.588980e+002, 2.348245e+002
2.593801e+002, 2.347110e+002
2.598622e+002, 2.345628e+002
2.603444e+002, 2.343407e+002
2.608265e+002, 2.341666e+002
2.613086e+002, 2.342822e+002
2.617907e+002, 2.350352e+002
2.622728e+002, 2.355297e+002
2.627549e+002, 2.356333e+002
2.632371e+002, 2.355330e+002
2.637192e+002, 2.352772e+002
2.642013e+002, 2.348987e+002
2.646834e+002, 2.346962e+002
2.651655e+002, 2.351647e+002
2.656476e+002, 2.367213e+002
2.661298e+002, 2.379665e+002
2.666119e+002, 2.387554e+002
2.670940e+002, 2.392944e+002
2.675761e+002, 2.397179e+002
2.680582e+002, 2.400645e+002
2.685403e+002, 2.404078e+002
2.690225e+002, 2.408665e+002
2.695046e+002, 2.415069e+002
2.699867e+002, 2.418985e+002
2.704688e+002, 2.420054e+002
2.709509e+002, 2.418764e+002
2.714330e+002, 2.413633e+002
2.719152e+002, 2.404933e+002
2.723973e+002, 2.398260e+002
2.728794e+002, 2.400231e+002
2.733615e+002, 2.411611e+002
2.738436e+002, 2.417721e+002
2.743257e+002, 2.414803e+002
2.748079e+002, 2.409048e+002
2.752900e+002, 2.406101e+002
2.757721e+002, 2.405935e+002
2.762542e+002, 2.403328e+002
2.767363e+002, 2.393070e+002
2.772184e+002, 2.376246e+002
2.777006e+002, 2.363679e+002
2.781827e+002, 2.355531e+002
2.786648e+002, 2.351627e+002
2.791469e+002, 2.354514e+002
2.796290e+002, 2.363140e+002
2.801111e+002, 2.369442e+002
2.805933e+002, 2.367256e+002
2.810754e+002, 2.359453e+002
2.815575e+002, 2.356774e+002
2.820396e+002, 2.364431e+002
2.825217e+002, 2.370872e+002
2.830038e+002, 2.367218e+002
2.834860e+002, 2.355326e+002
2.839681e+002, 2.344869e+002
2.844502e+002, 2.340264e+002
2.849323e+002, 2.339854e+002
2.854144e+002, 2.339685e+002
2.858965e+002, 2.339976e+002
2.863787e+002, 2.339987e+002
2.868608e+002, 2.339863e+002
2.873429e+002, 2.339259e+002
2.878250e+002, 2.336712e+002
2.883071e+002, 2.331166e+002
2.887892e+002, 2.324187e+002
2.892714e+002, 2.318143e+002
2.897535e+002, 2.313166e+002
2.902356e+002, 2.308006e+002
2.907177e+002, 2.301389e+002
2.911998e+002, 2.294113e+002
2.916819e+002, 2.287949e+002
2.921641e+002, 2.282805e+002
2.926462e+002, 2.279915e+002
2.931283e+002, 2.282832e+002
2.936104e+002, 2.290676e+002
2.940925e+002, 2.294651e+002
2.945746e+002, 2.288351e+002
2.950568e+002, 2.276306e+002
2.955389e+002, 2.268753e+002
2.960210e+002, 2.268963e+002
2.965031e+002, 2.267385e+002
2.969852e+002, 2.250240e+002
2.974673e+002, 2.223673e+002
2.979495e+002, 2.205193e+002
2.984316e+002, 2.208205e+002
2.989137e+002, 2.219609e+002
2.993958e+002, 2.218378e+002
2.998779e+002, 2.201575e+002
3.003600e+002, 2.184181e+002
3.008422e+002, 2.177019e+002
3.013243e+002, 2.175950e+002
3.018064e+002, 2.174383e+002
3.022885e+002, 2.170109e+002
3.027706e+002, 2.165484e+002
3.032527e+002, 2.164090e+002
3.037349e+002, 2.166274e+002
3.042170e+002, 2.166429e+002
3.046991e+002, 2.158603e+002
3.051812e+002, 2.148885e+002
3.056633e+002, 2.146423e+002
3.061454e+002, 2.154974e+002
3.066276e+002, 2.164304e+002
3.071097e+002, 2.164010e+002
3.075918e+002, 2.154749e+002
3.080739e+002, 2.147991e+002
3.085560e+002, 2.148361e+002
3.090381e+002, 2.152310e+002
3.095203e+002, 2.155687e+002
3.100024e+002, 2.158365e+002
3.104845e+002, 2.160856e+002
3.109666e+002, 2.163540e+002
3.114487e+002, 2.166338e+002
3.119308e+002, 2.168714e+002
3.124130e+002, 2.170045e+002
3.128951e+002, 2.171680e+002
3.133772e+002, 2.175051e+002
3.138593e+002, 2.179907e+002
3.143414e+002, 2.184612e+002
3.148235e+002, 2.188549e+002
3.153057e+002, 2.191730e+002
3.157878e+002, 2.193943e+002
3.162699e+002, 2.194588e+002
3.167520e+002, 2.195648e+002
3.172341e+002, 2.197798e+002
3.177162e+002, 2.201342e+002
3.181984e+002, 2.207548e+002
3.186805e+002, 2.219753e+002
3.191626e+002, 2.233553e+002
3.196447e+002, 2.241175e+002
3.201268e+002, 2.241435e+002
3.206089e+002, 2.241517e+002
3.210911e+002, 2.246199e+002
3.215732e+002, 2.253057e+002
3.220553e+002, 2.258678e+002
3.225374e+002, 2.261783e+002
3.230195e+002, 2.264516e+002
3.235016e+002, 2.270796e+002
3.239838e+002, 2.280735e+002
3.244659e+002, 2.285388e+002
3.249480e+002, 2.277672e+002
3.254301e+002, 2.265301e+002
3.259122e+002, 2.258250e+002
3.263943e+002, 2.257856e+002
3.268765e+002, 2.258117e+002
3.273586e+002, 2.253664e+002
3.278407e+002, 2.245633e+002
3.283228e+002, 2.240832e+002
3.288049e+002, 2.242452e+002
3.292870e+002, 2.245520e+002
3.297692e+002, 2.244749e+002
3.302513e+002, 2.240470e+002
3.307334e+002, 2.236004e+002
3.312155e+002, 2.230611e+002
3.316976e+002, 2.226388e+002
3.321797e+002, 2.229212e+002
3.326619e+002, 2.241438e+002
3.331440e+002, 2.255821e+002
3.336261e+002, 2.266757e+002
3.341082e+002, 2.275291e+002
3.345903e+002, 2.283736e+002
3.350724e+002, 2.292717e+002
3.355546e+002, 2.301924e+002
3.360367e+002, 2.311620e+002
3.365188e+002, 2.322002e+002
3.370009e+002, 2.330341e+002
3.374830e+002, 2.334458e+002
3.379651e+002, 2.335512e+002
3.384473e+002, 2.336003e+002
3.389294e+002, 2.337271e+002
3.394115e+002, 2.336323e+002
3.398936e+002, 2.331015e+002
3.403757e+002, 2.321428e+002
3.408578e+002, 2.307884e+002
3.413400e+002, 2.288678e+002
3.418221e+002, 2.267189e+002
3.423042e+002, 2.248611e+002
3.427863e+002, 2.233200e+002
3.432684e+002, 2.218504e+002
3.437505e+002, 2.203216e+002
3.442327e+002, 2.187745e+002
3.447148e+002, 2.172634e+002
3.451969e+002, 2.157444e+002
3.456790e+002, 2.144125e+002
3.461611e+002, 2.137543e+002
3.466432e+002, 2.136430e+002
3.471254e+002, 2.131137e+002
3.476075e+002, 2.116206e+002
3.480896e+002, 2.097200e+002
3.485717e+002, 2.080016e+002
3.490538e+002, 2.064996e+002
3.495359e+002, 2.053605e+002
3.500181e+002, 2.047245e+002
3.505002e+002, 2.045781e+002
3.509823e+002, 2.046891e+002
3.514644e+002, 2.055190e+002
3.519465e+002, 2.061980e+002
3.524286e+002, 2.060474e+002
3.529108e+002, 2.051945e+002
3.533929e+002, 2.041881e+002
3.538750e+002, 2.031671e+002
3.543571e+002, 2.022923e+002
3.548392e+002, 2.019588e+002
3.553214e+002, 2.022753e+002
3.558035e+002, 2.027725e+002
3.562856e+002, 2.034748e+002
3.567677e+002, 2.042112e+002
3.572498e+002, 2.046187e+002
3.577319e+002, 2.045593e+002
3.582141e+002, 2.043485e+002
3.586962e+002, 2.044397e+002
3.591783e+002, 2.048943e+002
3.596604e+002, 2.052575e+002
3.601425e+002, 2.056467e+002
3.606246e+002, 2.058213e+002
3.611068e+002, 2.054499e+002
3.615889e+002, 2.045366e+002
3.620710e+002, 2.034902e+002
3.625531e+002, 2.025741e+002
3.630352e+002, 2.018148e+002
3.635173e+002, 2.015065e+002
3.639995e+002, 2.021119e+002
3.644816e+002, 2.026646e+002
3.649637e+002, 2.026643e+002
3.654458e+002, 2.022398e+002
3.659279e+002, 2.017226e+002
3.664100e+002, 2.012579e+002
3.668922e+002, 2.008790e+002
3.673743e+002, 2.007200e+002
3.678564e+002, 2.010765e+002
3.683385e+002, 2.012188e+002
3.688206e+002, 2.011233e+002
3.693027e+002, 2.007351e+002
3.697849e+002, 1.998231e+002
3.702670e+002, 1.983618e+002
3.707491e+002, 1.968593e+002
3.712312e+002, 1.960929e+002
3.717133e+002, 1.965602e+002
3.721954e+002, 1.962161e+002
3.726776e+002, 1.942980e+002
3.731597e+002, 1.922756e+002
3.736418e+002, 1.910739e+002
3.741239e+002, 1.906461e+002
3.746060e+002, 1.903820e+002
3.750881e+002, 1.897776e+002
3.755703e+002, 1.888545e+002
3.760524e+002, 1.882728e+002
3.765345e+002, 1.886472e+002
3.770166e+002, 1.886541e+002
3.774987e+002, 1.877650e+002
3.779808e+002, 1.863806e+002
3.784630e+002, 1.850257e+002
3.789451e+002, 1.839403e+002
3.794272e+002, 1.831346e+002
3.799093e+002, 1.826685e+002
3.803914e+002, 1.829054e+002
3.808735e+002, 1.828716e+002
3.813557e+002, 1.823022e+002
3.818378e+002, 1.816416e+002
3.823199e+002, 1.812213e+002
3.828020e+002, 1.810799e+002
3.832841e+002, 1.810427e+002
3.837662e+002, 1.809487e+002
3.842484e+002, 1.808189e+002
3.847305e+002, 1.804760e+002
3.852126e+002, 1.795637e+002
3.856947e+002, 1.787736e+002
3.861768e+002, 1.783206e+002
3.866589e+002, 1.781598e+002
3.871411e+002, 1.781809e+002
3.876232e+002, 1.783407e+002
3.881053e+002, 1.785967e+002
3.885874e+002, 1.788250e+002
3.890695e+002, 1.791518e+002
3.895516e+002, 1.791898e+002
3.900338e+002, 1.785806e+002
3.905159e+002, 1.778338e+002
3.909980e+002, 1.774766e+002
3.914801e+002, 1.776495e+002
3.919622e+002, 1.779465e+002
3.924443e+002, 1.777663e+002
3.929265e+002, 1.770210e+002
3.934086e+002, 1.766654e+002
3.938907e+002, 1.771220e+002
3.943728e+002, 1.777290e+002
3.948549e+002, 1.781987e+002
3.953370e+002, 1.785031e+002
3.958192e+002, 1.786190e+002
3.963013e+002, 1.784337e+002
3.967834e+002, 1.780507e+002
3.972655e+002, 1.777993e+002
3.977476e+002, 1.776784e+002
3.982297e+002, 1.776943e+002
3.987119e+002, 1.780318e+002
3.991940e+002, 1.784520e+002
3.996761e+002, 1.786442e+002
4.001582e+002, 1.785222e+002
4.006403e+002, 1.781701e+002
4.011224e+002, 1.775939e+002
4.016046e+002, 1.768046e+002
4.020867e+002, 1.760248e+002
4.025688e+002, 1.751072e+002
4.030509e+002, 1.744935e+002
4.035330e+002, 1.747964e+002
4.040151e+002, 1.760316e+002
4.044973e+002, 1.771931e+002
4.049794e+002, 1.778881e+002
4.054615e+002, 1.782121e+002
4.059436e+002, 1.782559e+002
4.064257e+002, 1.779991e+002
4.069078e+002, 1.777128e+002
4.073900e+002, 1.776141e+002
4.078721e+002, 1.776797e+002
4.083542e+002, 1.777537e+002
4.088363e+002, 1.778737e+002
4.093184e+002, 1.779577e+002
4.098005e+002, 1.778473e+002
4.102827e+002, 1.776331e+002
4.107648e+002, 1.776832e+002
4.112469e+002, 1.782322e+002
4.117290e+002, 1.789903e+002
4.122111e+002, 1.792309e+002
4.126932e+002, 1.786506e+002
4.131754e+002, 1.783870e+002
4.136575e+002, 1.790237e+002
4.141396e+002, 1.798616e+002
4.146217e+002, 1.801102e+002
4.151038e+002, 1.796599e+002
4.155859e+002, 1.790013e+002
4.160681e+002, 1.786040e+002
4.165502e+002, 1.784916e+002
4.170323e+002, 1.784146e+002
4.175144e+002, 1.781230e+002
4.179965e+002, 1.781130e+002
4.184786e+002, 1.789208e+002
4.189608e+002, 1.801206e+002
4.194429e+002, 1.808585e+002
4.199250e+002, 1.806767e+002
4.204071e+002, 1.799142e+002
4.208892e+002, 1.794886e+002
4.213713e+002, 1.793378e+002
4.218535e+002, 1.796882e+002
4.223356e+002, 1.809899e+002
4.228177e+002, 1.824477e+002
4.232998e+002, 1.834937e+002
4.237819e+002, 1.840370e+002
4.242640e+002, 1.842556e+002
4.247462e+002, 1.842397e+002
4.252283e+002, 1.839429e+002
4.257104e+002, 1.841098e+002
4.261925e+002, 1.852509e+002
4.266746e+002, 1.863243e+002
4.271567e+002, 1.868135e+002
4.276389e+002, 1.870907e+002
4.281210e+002, 1.878210e+002
4.286031e+002, 1.893915e+002
4.290852e+002, 1.912923e+002
4.295673e+002, 1.925047e+002
4.300494e+002, 1.929437e+002
4.305316e+002, 1.930193e+002
4.310137e+002, 1.924106e+002
4.314958e+002, 1.917374e+002
4.319779e+002, 1.913990e+002
4.324600e+002, 1.914165e+002
4.329421e+002, 1.915513e+002
4.334243e+002, 1.917386e+002
4.339064e+002, 1.919181e+002
4.343885e+002, 1.917487e+002
4.348706e+002, 1.910078e+002
4.353527e+002, 1.904011e+002
4.358348e+002, 1.906245e+002
4.363170e+002, 1.912478e+002
4.367991e+002, 1.915136e+002
4.372812e+002, 1.909544e+002
4.377633e+002, 1.903788e+002
4.382454e+002, 1.906438e+002
4.387275e+002, 1.916356e+002
4.392097e+002, 1.925609e+002
4.396918e+002, 1.931329e+002
4.401739e+002, 1.935379e+002
4.406560e+002, 1.940342e+002
4.411381e+002, 1.946204e+002
4.416202e+002, 1.952536e+002
4.421024e+002, 1.960827e+002
4.425845e+002, 1.968638e+002
4.430666e+002, 1.971746e+002
4.435487e+002, 1.970225e+002
4.440308e+002, 1.970092e+002
4.445129e+002, 1.976402e+002
4.449951e+002, 1.988293e+002
4.454772e+002, 1.997474e+002
4.459593e+002, 2.000206e+002
4.464414e+002, 2.004914e+002
4.469235e+002, 2.017608e+002
4.474056e+002, 2.032886e+002
4.478878e+002, 2.042276e+002
4.483699e+002, 2.042946e+002
4.488520e+002, 2.038825e+002
4.493341e+002, 2.035514e+002
4.498162e+002, 2.032282e+002
4.502983e+002, 2.032328e+002
4.507805e+002, 2.037188e+002
4.512626e+002, 2.043363e+002
4.517447e+002, 2.050071e+002
4.522268e+002, 2.056597e+002
4.527089e+002, 2.062094e+002
4.531910e+002, 2.066110e+002
4.536732e+002, 2.068378e+002
4.541553e+002, 2.067164e+002
4.546374e+002, 2.057906e+002
4.551195e+002, 2.053116e+002
4.556016e+002, 2.056464e+002
4.560837e+002, 2.063328e+002
4.565659e+002, 2.069639e+002
4.570480e+002, 2.074779e+002
4.575301e+002, 2.081172e+002
4.580122e+002, 2.092576e+002
4.584943e+002, 2.108878e+002
4.589764e+002, 2.121455e+002
4.594586e+002, 2.126699e+002
4.599407e+002, 2.133250e+002
4.604228e+002, 2.143059e+002
4.609049e+002, 2.157388e+002
4.613870e+002, 2.179209e+002
4.618691e+002, 2.211393e+002
4.623513e+002, 2.248393e+002
4.628334e+002, 2.283122e+002
4.633155e+002, 2.315754e+002
4.637976e+002, 2.350832e+002
4.642797e+002, 2.389922e+002
4.647618e+002, 2.431986e+002
4.652440e+002, 2.477258e+002
4.657261e+002, 2.526035e+002
4.662082e+002, 2.570560e+002
4.666903e+002, 2.609962e+002
4.671724e+002, 2.643015e+002
4.676545e+002, 2.670218e+002
4.681367e+002, 2.691028e+002
4.686188e+002, 2.699447e+002
4.691009e+002, 2.691318e+002
4.695830e+002, 2.667290e+002
4.700651e+002, 2.630653e+002
4.705472e+002, 2.579017e+002
4.710294e+002, 2.520249e+002
4.715115e+002, 2.452654e+002
4.719936e+002, 2.380657e+002
4.724757e+002, 2.306642e+002
4.729578e+002, 2.232248e+002
4.734399e+002, 2.163786e+002
4.739221e+002, 2.109688e+002
4.744042e+002, 2.072754e+002
4.748863e+002, 2.034339e+002
4.753684e+002, 1.989607e+002
4.758505e+002, 1.948309e+002
4.763326e+002, 1.914192e+002
4.768148e+002, 1.886059e+002
4.772969e+002, 1.861840e+002
4.777790e+002, 1.840727e+002
4.782611e+002, 1.822324e+002
4.787432e+002, 1.806333e+002
4.792253e+002, 1.793463e+002
4.797075e+002, 1.781213e+002
4.801896e+002, 1.767320e+002
4.806717e+002, 1.755716e+002
4.811538e+002, 1.749966e+002
4.816359e+002, 1.749039e+002
4.821180e+002, 1.748171e+002
4.826002e+002, 1.743979e+002
4.830823e+002, 1.737593e+002
4.835644e+002, 1.731946e+002
4.840465e+002, 1.727028e+002
4.845286e+002, 1.723050e+002
4.850107e+002, 1.720876e+002
4.854929e+002, 1.719331e+002
4.859750e+002, 1.716991e+002
4.864571e+002, 1.713627e+002
4.869392e+002, 1.710003e+002
4.874213e+002, 1.704632e+002
4.879034e+002, 1.699604e+002
4.883856e+002, 1.701322e+002
4.888677e+002, 1.711750e+002
4.893498e+002, 1.721219e+002
4.898319e+002, 1.720320e+002
4.903140e+002, 1.709862e+002
4.907961e+002, 1.703885e+002
4.912783e+002, 1.704875e+002
4.917604e+002, 1.707610e+002
4.922425e+002, 1.711264e+002
4.927246e+002, 1.714714e+002
4.932067e+002, 1.715248e+002
4.936888e+002, 1.711911e+002
4.941710e+002, 1.707895e+002
4.946531e+002, 1.708504e+002
4.951352e+002, 1.716412e+002
4.956173e+002, 1.720455e+002
4.960994e+002, 1.717183e+002
4.965815e+002, 1.713981e+002
4.970637e+002, 1.714263e+002
4.975458e+002, 1.717446e+002
4.980279e+002, 1.722007e+002
4.985100e+002, 1.727298e+002
4.989921e+002, 1.732359e+002
4.994742e+002, 1.734229e+002
4.999564e+002, 1.730465e+002
5.004385e+002, 1.729728e+002
5.009206e+002, 1.735181e+002
5.014027e+002, 1.742455e+002
5.018848e+002, 1.748897e+002
5.023669e+002, 1.754580e+002
5.028491e+002, 1.761257e+002
5.033312e+002, 1.772241e+002
5.038133e+002, 1.784628e+002
5.042954e+002, 1.789465e+002
5.047775e+002, 1.785219e+002
5.052596e+002, 1.780570e+002
5.057418e+002, 1.779055e+002
5.062239e+002, 1.779736e+002
5.067060e+002, 1.781001e+002
5.071881e+002, 1.782558e+002
5.076702e+002, 1.785667e+002
5.081523e+002, 1.792694e+002
5.086345e+002, 1.801126e+002
5.091166e+002, 1.806139e+002
5.095987e+002, 1.807025e+002
5.100808e+002, 1.807784e+002
5.105629e+002, 1.811725e+002
5.110450e+002, 1.818572e+002
5.115272e+002, 1.824925e+002
5.120093e+002, 1.829584e+002
5.124914e+002, 1.835255e+002
5.129735e+002, 1.845117e+002
5.134556e+002, 1.855488e+002
5.139377e+002, 1.859756e+002
5.144199e+002, 1.856825e+002
5.149020e+002, 1.854417e+002
5.153841e+002, 1.863334e+002
5.158662e+002, 1.886318e+002
5.163483e+002, 1.901652e+002
5.168304e+002, 1.901840e+002
5.173126e+002, 1.902076e+002
5.177947e+002, 1.905536e+002
5.182768e+002, 1.911982e+002
5.187589e+002, 1.921535e+002
5.192410e+002, 1.934449e+002
5.197231e+002, 1.947320e+002
5.202053e+002, 1.952545e+002
5.206874e+002, 1.948906e+002
5.211695e+002, 1.956586e+002
5.216516e+002, 1.987337e+002
5.221337e+002, 2.018319e+002
5.226158e+002, 2.033442e+002
5.230980e+002, 2.036531e+002
5.235801e+002, 2.038300e+002
5.240622e+002, 2.040898e+002
5.245443e+002, 2.045343e+002
5.250264e+002, 2.053810e+002
5.255085e+002, 2.065617e+002
5.259907e+002, 2.076230e+002
5.264728e+002, 2.083994e+002
5.269549e+002, 2.090227e+002
5.274370e+002, 2.096313e+002
5.279191e+002, 2.101879e+002
5.284012e+002, 2.110043e+002
5.288834e+002, 2.122212e+002
5.293655e+002, 2.136151e+002
5.298476e+002, 2.150198e+002
5.303297e+002, 2.164698e+002
5.308118e+002, 2.181286e+002
5.312939e+002, 2.201059e+002
5.317761e+002, 2.222125e+002
5.322582e+002, 2.239012e+002
5.327403e+002, 2.244303e+002
5.332224e+002, 2.259380e+002
5.337045e+002, 2.291330e+002
5.341866e+002, 2.325771e+002
5.346688e+002, 2.354614e+002
5.351509e+002, 2.378333e+002
5.356330e+002, 2.400941e+002
5.361151e+002, 2.424235e+002
5.365972e+002, 2.449276e+002
5.370793e+002, 2.480827e+002
5.375615e+002, 2.521275e+002
5.380436e+002, 2.557572e+002
5.385257e+002, 2.580334e+002
5.390078e+002, 2.601538e+002
5.394899e+002, 2.632956e+002
5.399720e+002, 2.674423e+002
5.404542e+002, 2.714424e+002
5.409363e+002, 2.749762e+002
5.414184e+002, 2.779058e+002
5.419005e+002, 2.798486e+002
5.423826e+002, 2.808399e+002
5.428647e+002, 2.817032e+002
5.433469e+002, 2.829811e+002
5.438290e+002, 2.842951e+002
5.443111e+002, 2.846263e+002
5.447932e+002, 2.838502e+002
5.452753e+002, 2.825799e+002
5.457574e+002, 2.808925e+002
5.462396e+002, 2.787354e+002
5.467217e+002, 2.759506e+002
5.472038e+002, 2.726163e+002
5.476859e+002, 2.690448e+002
5.481680e+002, 2.654101e+002
5.486501e+002, 2.617612e+002
5.491323e+002, 2.583506e+002
5.496144e+002, 2.555859e+002
5.500965e+002, 2.523583e+002
5.505786e+002, 2.481848e+002
5.510607e+002, 2.438351e+002
5.515428e+002, 2.398880e+002
5.520250e+002, 2.363548e+002
5.525071e+002, 2.328846e+002
5.529892e+002, 2.291807e+002
5.534713e+002, 2.253554e+002
5.539534e+002, 2.217107e+002
5.544355e+002, 2.182934e+002
5.549177e+002, 2.148071e+002
5.553998e+002, 2.108535e+002
5.558819e+002, 2.069790e+002
5.563640e+002, 2.039202e+002
5.568461e+002, 2.017730e+002
5.573282e+002, 1.997526e+002
5.578104e+002, 1.973541e+002
5.582925e+002, 1.950238e+002
5.587746e+002, 1.935456e+002
5.592567e+002, 1.928098e+002
5.597388e+002, 1.917177e+002
5.602209e+002, 1.894891e+002
5.607031e+002, 1.866022e+002
5.611852e+002, 1.845777e+002
5.616673e+002, 1.840852e+002
5.621494e+002, 1.835279e+002
5.626315e+002, 1.827612e+002
5.631136e+002, 1.820215e+002
5.635958e+002, 1.815053e+002
5.640779e+002, 1.811838e+002
5.645600e+002, 1.809066e+002
5.650421e+002, 1.805713e+002
5.655242e+002, 1.801920e+002
5.660063e+002, 1.797272e+002
5.664885e+002, 1.789565e+002
5.669706e+002, 1.787488e+002
5.674527e+002, 1.797767e+002
5.679348e+002, 1.811073e+002
5.684169e+002, 1.821439e+002
5.688990e+002, 1.828742e+002
5.693812e+002, 1.835773e+002
5.698633e+002, 1.844458e+002
5.703454e+002, 1.853382e+002
5.708275e+002, 1.859934e+002
5.713096e+002, 1.864301e+002
5.717917e+002, 1.869413e+002
5.722739e+002, 1.876388e+002
5.727560e+002, 1.885072e+002
5.732381e+002, 1.895691e+002
5.737202e+002, 1.909167e+002
5.742023e+002, 1.921047e+002
5.746844e+002, 1.929676e+002
5.751666e+002, 1.937735e+002
5.756487e+002, 1.946049e+002
5.761308e+002, 1.955369e+002
5.766129e+002, 1.967506e+002
5.770950e+002, 1.983601e+002
5.775771e+002, 2.001447e+002
5.780593e+002, 2.014940e+002
5.785414e+002, 2.018830e+002
5.790235e+002, 2.032766e+002
5.795056e+002, 2.065286e+002
5.799877e+002, 2.101170e+002
5.804698e+002, 2.133265e+002
5.809520e+002, 2.163413e+002
5.814341e+002, 2.197567e+002
5.819162e+002, 2.239592e+002
5.823983e+002, 2.284210e+002
5.828804e+002, 2.323916e+002
5.833625e+002, 2.359305e+002
5.838447e+002, 2.396474e+002
5.843268e+002, 2.439573e+002
5.848089e+002, 2.478581e+002
5.852910e+002, 2.503575e+002
5.857731e+002, 2.514864e+002
5.862552e+002, 2.514337e+002
5.867374e+002, 2.501000e+002
5.872195e+002, 2.477101e+002
5.877016e+002, 2.442727e+002
5.881837e+002, 2.398903e+002
5.886658e+002, 2.345000e+002
5.891479e+002, 2.281401e+002
5.896301e+002, 2.214857e+002
5.901122e+002, 2.152899e+002
5.905943e+002, 2.095649e+002
5.910764e+002, 2.042289e+002
5.915585e+002, 1.996680e+002
5.920406e+002, 1.950344e+002
5.925228e+002, 1.898284e+002
5.930049e+002, 1.845786e+002
5.934870e+002, 1.798719e+002
5.939691e+002, 1.758451e+002
5.944512e+002, 1.724485e+002
5.949333e+002, 1.697173e+002
5.954155e+002, 1.675710e+002
5.958976e+002, 1.657403e+002
5.963797e+002, 1.642702e+002
5.968618e+002, 1.628450e+002
5.973439e+002, 1.611682e+002
5.978260e+002, 1.594756e+002
5.983082e+002, 1.583517e+002
5.987903e+002, 1.580675e+002
5.992724e+002, 1.576680e+002
5.997545e+002, 1.568092e+002
6.002366e+002, 1.557075e+002
6.007188e+002, 1.544371e+002
6.012009e+002, 1.531045e+002
6.016830e+002, 1.521180e+002
6.021651e+002, 1.518000e+002
6.026472e+002, 1.519082e+002
6.031293e+002, 1.515008e+002
6.036115e+002, 1.500275e+002
6.040936e+002, 1.490592e+002
6.045757e+002, 1.490836e+002
6.050578e+002, 1.492523e+002
6.055399e+002, 1.490094e+002
6.060220e+002, 1.484428e+002
6.065042e+002, 1.480001e+002
6.069863e+002, 1.480232e+002
6.074684e+002, 1.481638e+002
6.079505e+002, 1.477900e+002
6.084326e+002, 1.469155e+002
6.089147e+002, 1.461110e+002
6.093969e+002, 1.454945e+002
6.098790e+002, 1.450527e+002
6.103611e+002, 1.448687e+002
6.108432e+002, 1.449113e+002
6.113253e+002, 1.447799e+002
6.118074e+002, 1.440867e+002
6.122896e+002, 1.435714e+002
6.127717e+002, 1.437388e+002
6.132538e+002, 1.443146e+002
6.137359e+002, 1.449166e+002
6.142180e+002, 1.454042e+002
6.147001e+002, 1.456406e+002
6.151823e+002, 1.454255e+002
6.156644e+002, 1.447327e+002
6.161465e+002, 1.441225e+002
6.166286e+002, 1.435549e+002
6.171107e+002, 1.431395e+002
6.175928e+002, 1.429555e+002
6.180750e+002, 1.428965e+002
6.185571e+002, 1.428552e+002
6.190392e+002, 1.428118e+002
6.195213e+002, 1.428194e+002
6.200034e+002, 1.429447e+002
6.204855e+002, 1.431436e+002
6.209677e+002, 1.433592e+002
6.214498e+002, 1.435937e+002
6.219319e+002, 1.436619e+002
6.224140e+002, 1.433811e+002
6.228961e+002, 1.429778e+002
6.233782e+002, 1.430100e+002
6.238604e+002, 1.437334e+002
6.243425e+002, 1.440347e+002
6.248246e+002, 1.434024e+002
6.253067e+002, 1.426523e+002
6.257888e+002, 1.421651e+002
6.262709e+002, 1.420288e+002
6.267531e+002, 1.424346e+002
6.272352e+002, 1.434920e+002
6.277173e+002, 1.446796e+002
6.281994e+002, 1.449230e+002
6.286815e+002, 1.439809e+002
6.291636e+002, 1.434449e+002
6.296458e+002, 1.436722e+002
6.301279e+002, 1.439676e+002
6.306100e+002, 1.440213e+002
6.310921e+002, 1.438910e+002
6.315742e+002, 1.436428e+002
6.320563e+002, 1.432249e+002
6.325385e+002, 1.429000e+002
6.330206e+002, 1.428880e+002
6.335027e+002, 1.430955e+002
6.339848e+002, 1.434108e+002
6.344669e+002, 1.438089e+002
6.349490e+002, 1.440825e+002
6.354312e+002, 1.441074e+002
6.359133e+002, 1.438729e+002
6.363954e+002, 1.433164e+002
6.368775e+002, 1.416354e+002
6.373596e+002, 1.407365e+002
6.378417e+002, 1.412396e+002
6.383239e+002, 1.420893e+002
6.388060e+002, 1.426941e+002
6.392881e+002, 1.429650e+002
6.397702e+002, 1.429237e+002
6.402523e+002, 1.425187e+002
6.407344e+002, 1.419775e+002
6.412166e+002, 1.417832e+002
6.416987e+002, 1.419540e+002
6.421808e+002, 1.419956e+002
6.426629e+002, 1.416575e+002
6.431450e+002, 1.414180e+002
6.436271e+002, 1.419600e+002
6.441093e+002, 1.430151e+002
6.445914e+002, 1.435554e+002
6.450735e+002, 1.429598e+002
6.455556e+002, 1.423723e+002
6.460377e+002, 1.423330e+002
6.465198e+002, 1.426247e+002
6.470020e+002, 1.429748e+002
6.474841e+002, 1.433151e+002
6.479662e+002, 1.436839e+002
6.484483e+002, 1.441445e+002
6.489304e+002, 1.446482e+002
6.494125e+002, 1.448032e+002
6.498947e+002, 1.441604e+002
6.503768e+002, 1.440235e+002
6.508589e+002, 1.450242e+002
6.513410e+002, 1.462546e+002
6.518231e+002, 1.471430e+002
6.523052e+002, 1.476729e+002
6.527874e+002, 1.480714e+002
6.532695e+002, 1.484319e+002
6.537516e+002, 1.487355e+002
6.542337e+002, 1.488367e+002
6.547158e+002, 1.488244e+002
6.551979e+002, 1.491418e+002
6.556801e+002, 1.499390e+002
6.561622e+002, 1.509545e+002
6.566443e+002, 1.519122e+002
6.571264e+002, 1.528009e+002
6.576085e+002, 1.538147e+002
6.580906e+002, 1.549823e+002
6.585728e+002, 1.562175e+002
6.590549e+002, 1.577818e+002
6.595370e+002, 1.592444e+002
6.600191e+002, 1.600724e+002
6.605012e+002, 1.602648e+002
6.609833e+002, 1.603603e+002
6.614655e+002, 1.608118e+002
6.619476e+002, 1.614967e+002
6.624297e+002, 1.620296e+002
6.629118e+002, 1.624000e+002
6.633939e+002, 1.627384e+002
6.638760e+002, 1.632800e+002
6.643582e+002, 1.635672e+002
6.648403e+002, 1.628858e+002
6.653224e+002, 1.613225e+002
6.658045e+002, 1.598647e+002
6.662866e+002, 1.588169e+002
6.667687e+002, 1.577569e+002
6.672509e+002, 1.563456e+002
6.677330e+002, 1.548050e+002
6.682151e+002, 1.535507e+002
6.686972e+002, 1.526665e+002
6.691793e+002, 1.518375e+002
6.696614e+002, 1.506740e+002
6.701436e+002, 1.492266e+002
6.706257e+002, 1.482652e+002
6.711078e+002, 1.480989e+002
6.715899e+002, 1.477733e+002
6.720720e+002, 1.467793e+002
6.725541e+002, 1.456891e+002
6.730363e+002, 1.449340e+002
6.735184e+002, 1.445266e+002
6.740005e+002, 1.442486e+002
6.744826e+002, 1.439910e+002
6.749647e+002, 1.438291e+002
6.754468e+002, 1.439131e+002
6.759290e+002, 1.441570e+002
6.764111e+002, 1.442816e+002
6.768932e+002, 1.441973e+002
6.773753e+002, 1.440786e+002
6.778574e+002, 1.441378e+002
6.783395e+002, 1.443845e+002
6.788217e+002, 1.445664e+002
6.793038e+002, 1.446227e+002
6.797859e+002, 1.446916e+002
6.802680e+002, 1.446969e+002
6.807501e+002, 1.447913e+002
6.812322e+002, 1.451858e+002
6.817144e+002, 1.458490e+002
6.821965e+002, 1.464762e+002
6.826786e+002, 1.469151e+002
6.831607e+002, 1.471599e+002
6.836428e+002, 1.470841e+002
6.841249e+002, 1.467392e+002
6.846071e+002, 1.465653e+002
6.850892e+002, 1.466942e+002
6.855713e+002, 1.470384e+002
6.860534e+002, 1.475126e+002
6.865355e+002, 1.481168e+002
6.870176e+002, 1.488352e+002
6.874998e+002, 1.499659e+002
6.879819e+002, 1.508226e+002
6.884640e+002, 1.510282e+002
6.889461e+002, 1.510050e+002
6.894282e+002, 1.511502e+002
6.899103e+002, 1.515279e+002
6.903925e+002, 1.520212e+002
6.908746e+002, 1.526020e+002
6.913567e+002, 1.531766e+002
6.918388e+002, 1.534795e+002
6.923209e+002, 1.535006e+002
6.928030e+002, 1.535258e+002
6.932852e+002, 1.536129e+002
6.937673e+002, 1.537624e+002
6.942494e+002, 1.539981e+002
6.947315e+002, 1.543148e+002
6.952136e+002, 1.546013e+002
6.956957e+002, 1.548696e+002
6.961779e+002, 1.550906e+002
6.966600e+002, 1.552358e+002
6.971421e+002, 1.553398e+002
6.976242e+002, 1.554195e+002
6.981063e+002, 1.554918e+002
6.985884e+002, 1.556260e+002
6.990706e+002, 1.559243e+002
6.995527e+002, 1.562359e+002
7.000348e+002, 1.559912e+002
7.005169e+002, 1.550333e+002
7.009990e+002, 1.545700e+002
7.014811e+002, 1.550831e+002
7.019633e+002, 1.558010e+002
7.024454e+002, 1.561399e+002
7.029275e+002, 1.561557e+002
7.034096e+002, 1.559950e+002
7.038917e+002, 1.555387e+002
7.043738e+002, 1.550981e+002
7.048560e+002, 1.548712e+002
7.053381e+002, 1.546879e+002
7.058202e+002, 1.542590e+002
7.063023e+002, 1.536246e+002
7.067844e+002, 1.531433e+002
7.072665e+002, 1.530754e+002
7.077487e+002, 1.532771e+002
7.082308e+002, 1.533825e+002
7.087129e+002, 1.533960e+002
7.091950e+002, 1.532934e+002
7.096771e+002, 1.530835e+002
7.101592e+002, 1.527373e+002
7.106414e+002, 1.522455e+002
7.111235e+002, 1.516125e+002
7.116056e+002, 1.507835e+002
7.120877e+002, 1.495415e+002
7.125698e+002, 1.485984e+002
7.130519e+002, 1.485414e+002
7.135341e+002, 1.488328e+002
7.140162e+002, 1.488729e+002
7.144983e+002, 1.486297e+002
7.149804e+002, 1.482660e+002
7.154625e+002, 1.478519e+002
7.159446e+002, 1.475282e+002
7.164268e+002, 1.477288e+002
7.169089e+002, 1.487397e+002
7.173910e+002, 1.489503e+002
7.178731e+002, 1.477148e+002
7.183552e+002, 1.464942e+002
7.188373e+002, 1.458736e+002
7.193195e+002, 1.457209e+002
7.198016e+002, 1.459588e+002
7.202837e+002, 1.466672e+002
7.207658e+002, 1.472223e+002
7.212479e+002, 1.472656e+002
7.217300e+002, 1.470495e+002
7.222122e+002, 1.467222e+002
7.226943e+002, 1.463736e+002
7.231764e+002, 1.462420e+002
7.236585e+002, 1.464337e+002
7.241406e+002, 1.467737e+002
7.246227e+002, 1.470106e+002
7.251049e+002, 1.471456e+002
7.255870e+002, 1.471867e+002
7.260691e+002, 1.471938e+002
7.265512e+002, 1.470043e+002
7.270333e+002, 1.461435e+002
7.275154e+002, 1.453223e+002
7.279976e+002, 1.454331e+002
7.284797e+002, 1.465208e+002
7.289618e+002, 1.474276e+002
7.294439e+002, 1.475291e+002
7.299260e+002, 1.473589e+002
7.304081e+002, 1.472642e+002
7.308903e+002, 1.472962e+002
7.313724e+002, 1.476581e+002
7.318545e+002, 1.483762e+002
7.323366e+002, 1.489531e+002
7.328187e+002, 1.487995e+002
7.333008e+002, 1.480022e+002
7.337830e+002, 1.476371e+002
7.342651e+002, 1.479365e+002
7.347472e+002, 1.481705e+002
7.352293e+002, 1.483874e+002
7.357114e+002, 1.483052e+002
7.361935e+002, 1.473380e+002
7.366757e+002, 1.457945e+002
7.371578e+002, 1.450325e+002
7.376399e+002, 1.459262e+002
7.381220e+002, 1.471182e+002
7.386041e+002, 1.478350e+002
7.390862e+002, 1.482061e+002
7.395684e+002, 1.483519e+002
7.400505e+002, 1.483352e+002
7.405326e+002, 1.483081e+002
7.410147e+002, 1.483672e+002
7.414968e+002, 1.485348e+002
7.419789e+002, 1.489121e+002
7.424611e+002, 1.495819e+002
7.429432e+002, 1.501397e+002
7.434253e+002, 1.503788e+002
7.439074e+002, 1.507136e+002
7.443895e+002, 1.515177e+002
7.448716e+002, 1.525383e+002
7.453538e+002, 1.532158e+002
7.458359e+002, 1.532260e+002
7.463180e+002, 1.536801e+002
7.468001e+002, 1.554802e+002
7.472822e+002, 1.576703e+002
7.477643e+002, 1.592669e+002
7.482465e+002, 1.603465e+002
7.487286e+002, 1.614181e+002
7.492107e+002, 1.627085e+002
7.496928e+002, 1.642235e+002
7.501749e+002, 1.661140e+002
7.506570e+002, 1.684292e+002
7.511392e+002, 1.699969e+002
7.516213e+002, 1.702505e+002
7.521034e+002, 1.710862e+002
7.525855e+002, 1.735801e+002
7.530676e+002, 1.768295e+002
7.535497e+002, 1.797608e+002
7.540319e+002, 1.823518e+002
7.545140e+002, 1.848716e+002
7.549961e+002, 1.871747e+002
7.554782e+002, 1.896411e+002
7.559603e+002, 1.928457e+002
7.564424e+002, 1.962072e+002
7.569246e+002, 1.988948e+002
7.574067e+002, 2.007271e+002
7.578888e+002, 2.019773e+002
7.583709e+002, 2.028678e+002
7.588530e+002, 2.034011e+002
7.593351e+002, 2.036811e+002
7.598173e+002, 2.037760e+002
7.602994e+002, 2.030247e+002
7.607815e+002, 2.011397e+002
7.612636e+002, 1.986499e+002
7.617457e+002, 1.959747e+002
7.622278e+002, 1.930659e+002
7.627100e+002, 1.897107e+002
7.631921e+002, 1.855231e+002
7.636742e+002, 1.815021e+002
7.641563e+002, 1.779321e+002
7.646384e+002, 1.745958e+002
7.651205e+002, 1.712467e+002
7.656027e+002, 1.679618e+002
7.660848e+002, 1.650457e+002
7.665669e+002, 1.626436e+002
7.670490e+002, 1.604082e+002
7.675311e+002, 1.577155e+002
7.680132e+002, 1.547370e+002
7.684954e+002, 1.524764e+002
7.689775e+002, 1.510365e+002
7.694596e+002, 1.499462e+002
7.699417e+002, 1.490559e+002
7.704238e+002, 1.482647e+002
7.709059e+002, 1.473800e+002
7.713881e+002, 1.463390e+002
7.718702e+002, 1.454760e+002
7.723523e+002, 1.448426e+002
7.728344e+002, 1.443130e+002
7.733165e+002, 1.437238e+002
7.737986e+002, 1.432896e+002
7.742808e+002, 1.434434e+002
7.747629e+002, 1.441158e+002
7.752450e+002, 1.444967e+002
7.757271e+002, 1.437105e+002
7.762092e+002, 1.426507e+002
7.766913e+002, 1.428390e+002
7.771735e+002, 1.439573e+002
7.776556e+002, 1.447546e+002
7.781377e+002, 1.449529e+002
7.786198e+002, 1.446025e+002
7.791019e+002, 1.436275e+002
7.795840e+002, 1.422258e+002
7.800662e+002, 1.414501e+002
7.805483e+002, 1.417388e+002
7.810304e+002, 1.418219e+002
7.815125e+002, 1.414560e+002
7.819946e+002, 1.410415e+002
7.824767e+002, 1.407233e+002
7.829589e+002, 1.405068e+002
7.834410e+002, 1.404175e+002
7.839231e+002, 1.404994e+002
7.844052e+002, 1.405092e+002
7.848873e+002, 1.403736e+002
7.853694e+002, 1.400384e+002
7.858516e+002, 1.392590e+002
7.863337e+002, 1.382056e+002
7.868158e+002, 1.374584e+002
7.872979e+002, 1.372474e+002
7.877800e+002, 1.372815e+002
7.882621e+002, 1.371796e+002
7.887443e+002, 1.369504e+002
7.892264e+002, 1.368420e+002
7.897085e+002, 1.368732e+002
7.901906e+002, 1.369993e+002
7.906727e+002, 1.375123e+002
7.911548e+002, 1.378167e+002
7.916370e+002, 1.370671e+002
7.921191e+002, 1.354560e+002
7.926012e+002, 1.343774e+002
7.930833e+002, 1.342340e+002
7.935654e+002, 1.343996e+002
7.940475e+002, 1.349343e+002
7.945297e+002, 1.354601e+002
7.950118e+002, 1.355397e+002
7.954939e+002, 1.352258e+002
7.959760e+002, 1.348611e+002
7.964581e+002, 1.346269e+002
7.969402e+002, 1.344750e+002
7.974224e+002, 1.343705e+002
7.979045e+002, 1.342948e+002
7.983866e+002, 1.341153e+002
7.988687e+002, 1.338124e+002
7.993508e+002, 1.334589e+002
7.998329e+002, 1.330145e+002
8.003151e+002, 1.326650e+002
8.007972e+002, 1.328030e+002
8.012793e+002, 1.336190e+002
8.017614e+002, 1.341740e+002
8.022435e+002, 1.343719e+002
8.027256e+002, 1.344569e+002
8.032078e+002, 1.343716e+002
8.036899e+002, 1.342921e+002
8.041720e+002, 1.344467e+002
8.046541e+002, 1.348180e+002
8.051362e+002, 1.351215e+002
8.056183e+002, 1.351112e+002
8.061005e+002, 1.350763e+002
8.065826e+002, 1.353534e+002
8.070647e+002, 1.358285e+002
8.075468e+002, 1.362610e+002
8.080289e+002, 1.366069e+002
8.085110e+002, 1.368624e+002
8.089932e+002, 1.369918e+002
8.094753e+002, 1.371431e+002
8.099574e+002, 1.377928e+002
8.104395e+002, 1.391326e+002
8.109216e+002, 1.401162e+002
8.114037e+002, 1.406141e+002
8.118859e+002, 1.408727e+002
8.123680e+002, 1.406456e+002
8.128501e+002, 1.404249e+002
8.133322e+002, 1.410738e+002
8.138143e+002, 1.427935e+002
8.142964e+002, 1.441425e+002
8.147786e+002, 1.445269e+002
8.152607e+002, 1.447388e+002
8.157428e+002, 1.449219e+002
8.162249e+002, 1.453708e+002
8.167070e+002, 1.467703e+002
8.171891e+002, 1.490105e+002
8.176713e+002, 1.508403e+002
8.181534e+002, 1.511249e+002
8.186355e+002, 1.506758e+002
8.191176e+002, 1.510034e+002
8.195997e+002, 1.520466e+002
8.200818e+002, 1.534594e+002
8.205640e+002, 1.552478e+002
8.210461e+002, 1.567616e+002
8.215282e+002, 1.574404e+002
8.220103e+002, 1.576251e+002
8.224924e+002, 1.583896e+002
8.229745e+002, 1.603300e+002
8.234567e+002, 1.615281e+002
8.239388e+002, 1.612121e+002
8.244209e+002, 1.610501e+002
8.249030e+002, 1.622254e+002
8.253851e+002, 1.635876e+002
8.258672e+002, 1.633666e+002
8.263494e+002, 1.613578e+002
8.268315e+002, 1.597523e+002
8.273136e+002, 1.600061e+002
8.277957e+002, 1.606688e+002
8.282778e+002, 1.607631e+002
8.287599e+002, 1.603019e+002
8.292421e+002, 1.591383e+002
8.297242e+002, 1.573889e+002
8.302063e+002, 1.558277e+002
8.306884e+002, 1.551029e+002
8.311705e+002, 1.547809e+002
8.316526e+002, 1.537176e+002
8.321348e+002, 1.518914e+002
8.326169e+002, 1.500880e+002
8.330990e+002, 1.482752e+002
8.335811e+002, 1.469279e+002
8.340632e+002, 1.465286e+002
8.345453e+002, 1.466208e+002
8.350275e+002, 1.461870e+002
8.355096e+002, 1.450425e+002
8.359917e+002, 1.438999e+002
8.364738e+002, 1.425037e+002
8.369559e+002, 1.414093e+002
8.374380e+002, 1.410183e+002
8.379202e+002, 1.409100e+002
8.384023e+002, 1.405836e+002
8.388844e+002, 1.400102e+002
8.393665e+002, 1.395564e+002
8.398486e+002, 1.396127e+002
8.403307e+002, 1.396316e+002
8.408129e+002, 1.389372e+002
8.412950e+002, 1.378383e+002
8.417771e+002, 1.368962e+002
8.422592e+002, 1.362128e+002
8.427413e+002, 1.357662e+002
8.432234e+002, 1.355684e+002
8.437056e+002, 1.354710e+002
8.441877e+002, 1.350831e+002
8.446698e+002, 1.343442e+002
8.451519e+002, 1.341627e+002
8.456340e+002, 1.348172e+002
8.461161e+002, 1.352945e+002
8.465983e+002, 1.350319e+002
8.470804e+002, 1.345038e+002
8.475625e+002, 1.343906e+002
8.480446e+002, 1.347175e+002
8.485267e+002, 1.349900e+002
8.490089e+002, 1.351481e+002
8.494910e+002, 1.353002e+002
8.499731e+002, 1.356481e+002
8.504552e+002, 1.358707e+002
8.509373e+002, 1.354549e+002
8.514194e+002, 1.346433e+002
8.519016e+002, 1.342974e+002
8.523837e+002, 1.349070e+002
8.528658e+002, 1.356525e+002
8.533479e+002, 1.357286e+002
8.538300e+002, 1.354603e+002
8.543121e+002, 1.354076e+002
8.547943e+002, 1.355768e+002
8.552764e+002, 1.357509e+002
8.557585e+002, 1.358358e+002
8.562406e+002, 1.359014e+002
8.567227e+002, 1.360119e+002
8.572048e+002, 1.361784e+002
8.576870e+002, 1.366586e+002
8.581691e+002, 1.376356e+002
8.586512e+002, 1.381496e+002
8.591333e+002, 1.377571e+002
8.596154e+002, 1.371585e+002
8.600975e+002, 1.369572e+002
8.605797e+002, 1.370826e+002
8.610618e+002, 1.371124e+002
8.615439e+002, 1.368935e+002
8.620260e+002, 1.368374e+002
8.625081e+002, 1.371717e+002
8.629902e+002, 1.374954e+002
8.634724e+002, 1.375867e+002
8.639545e+002, 1.374991e+002
8.644366e+002, 1.373184e+002
8.649187e+002, 1.370695e+002
8.654008e+002, 1.368388e+002
8.658829e+002, 1.367433e+002
8.663651e+002, 1.366476e+002
8.668472e+002, 1.364041e+002
8.673293e+002, 1.360321e+002
8.678114e+002, 1.354893e+002
8.682935e+002, 1.348155e+002
8.687756e+002, 1.343965e+002
8.692578e+002, 1.346056e+002
8.697399e+002, 1.350096e+002
8.702220e+002, 1.343464e+002
8.707041e+002, 1.325402e+002
8.711862e+002, 1.313736e+002
8.716683e+002, 1.311668e+002
8.721505e+002, 1.309535e+002
8.726326e+002, 1.301450e+002
8.731147e+002, 1.291650e+002
8.735968e+002, 1.288107e+002
8.740789e+002, 1.293120e+002
8.745610e+002, 1.291885e+002
8.750432e+002, 1.277837e+002
8.755253e+002, 1.266514e+002
8.760074e+002, 1.264121e+002
8.764895e+002, 1.263686e+002
8.769716e+002, 1.259312e+002
8.774537e+002, 1.251401e+002
8.779359e+002, 1.242948e+002
8.784180e+002, 1.233279e+002
8.789001e+002, 1.227323e+002
8.793822e+002, 1.232407e+002
8.798643e+002, 1.239660e+002
8.803464e+002, 1.237681e+002
8.808286e+002, 1.228997e+002
8.813107e+002, 1.223275e+002
8.817928e+002, 1.223798e+002
8.822749e+002, 1.224282e+002
8.827570e+002, 1.216827e+002
8.832391e+002, 1.204574e+002
8.837213e+002, 1.197747e+002
8.842034e+002, 1.196060e+002
8.846855e+002, 1.195152e+002
8.851676e+002, 1.194241e+002
8.856497e+002, 1.192345e+002
8.861318e+002, 1.188479e+002
8.866140e+002, 1.183267e+002
8.870961e+002, 1.178999e+002
8.875782e+002, 1.176853e+002
8.880603e+002, 1.172410e+002
8.885424e+002, 1.162487e+002
8.890245e+002, 1.154644e+002
8.895067e+002, 1.153781e+002
8.899888e+002, 1.155424e+002
8.904709e+002, 1.153762e+002
8.909530e+002, 1.148620e+002
8.914351e+002, 1.146383e+002
8.919172e+002, 1.153237e+002
8.923994e+002, 1.157145e+002
8.928815e+002, 1.150564e+002
8.933636e+002, 1.140759e+002
8.938457e+002, 1.134756e+002
8.943278e+002, 1.132162e+002
8.948099e+002, 1.129321e+002
8.952921e+002, 1.124733e+002
8.957742e+002, 1.119141e+002
8.962563e+002, 1.111239e+002
8.967384e+002, 1.103866e+002
8.972205e+002, 1.103304e+002
8.977026e+002, 1.108112e+002
8.981848e+002, 1.112087e+002
8.986669e+002, 1.113261e+002
8.991490e+002, 1.112922e+002
8.996311e+002, 1.112361e+002
9.001132e+002, 1.111266e+002
9.005953e+002, 1.108140e+002
9.010775e+002, 1.102762e+002
9.015596e+002, 1.097676e+002
9.020417e+002, 1.092762e+002
9.025238e+002, 1.089962e+002
9.030059e+002, 1.091545e+002
9.034880e+002, 1.094811e+002
9.039702e+002, 1.093782e+002
9.044523e+002, 1.086523e+002
9.049344e+002, 1.082756e+002
9.054165e+002, 1.086435e+002
9.058986e+002, 1.088459e+002
9.063807e+002, 1.085092e+002
9.068629e+002, 1.080622e+002
9.073450e+002, 1.079319e+002
9.078271e+002, 1.080395e+002
9.083092e+002, 1.079582e+002
9.087913e+002, 1.074157e+002
9.092734e+002, 1.070072e+002
9.097556e+002, 1.071226e+002
9.102377e+002, 1.073767e+002
9.107198e+002, 1.074278e+002
9.112019e+002, 1.073466e+002
9.116840e+002, 1.073706e+002
9.121661e+002, 1.075500e+002
9.126483e+002, 1.076254e+002
9.131304e+002, 1.072685e+002
9.136125e+002, 1.067762e+002
9.140946e+002, 1.066236e+002
9.145767e+002, 1.067489e+002
9.150588e+002, 1.070939e+002
9.155410e+002, 1.075898e+002
9.160231e+002, 1.076493e+002
9.165052e+002, 1.068381e+002
9.169873e+002, 1.057423e+002
9.174694e+002, 1.056046e+002
9.179515e+002, 1.064739e+002
9.184337e+002, 1.069568e+002
9.189158e+002, 1.070485e+002
9.193979e+002, 1.066628e+002
9.198800e+002, 1.054959e+002
9.203621e+002, 1.043926e+002
9.208442e+002, 1.043136e+002
9.213264e+002, 1.051572e+002
9.218085e+002, 1.058556e+002
9.222906e+002, 1.065020e+002
9.227727e+002, 1.068495e+002
9.232548e+002, 1.067359e+002
9.237369e+002, 1.065021e+002
9.242191e+002, 1.060877e+002
9.247012e+002, 1.057527e+002
9.251833e+002, 1.059887e+002
9.256654e+002, 1.068794e+002
9.261475e+002, 1.075489e+002
9.266296e+002, 1.077200e+002
9.271118e+002, 1.076252e+002
9.275939e+002, 1.071491e+002
9.280760e+002, 1.066336e+002
9.285581e+002, 1.064888e+002
9.290402e+002, 1.066573e+002
9.295223e+002, 1.067901e+002
9.300045e+002, 1.067215e+002
9.304866e+002, 1.066659e+002
9.309687e+002, 1.067639e+002
9.314508e+002, 1.070318e+002
9.319329e+002, 1.078084e+002
9.324150e+002, 1.087674e+002
9.328972e+002, 1.087683e+002
9.333793e+002, 1.075792e+002
9.338614e+002, 1.061904e+002
9.343435e+002, 1.054084e+002
9.348256e+002, 1.051532e+002
9.353077e+002, 1.054433e+002
9.357899e+002, 1.062092e+002
9.362720e+002, 1.063216e+002
9.367541e+002, 1.056006e+002
9.372362e+002, 1.049457e+002
9.377183e+002, 1.048242e+002
9.382004e+002, 1.049065e+002
9.386826e+002, 1.046501e+002
9.391647e+002, 1.040377e+002
9.396468e+002, 1.039797e+002
9.401289e+002, 1.048895e+002
9.406110e+002, 1.053385e+002
9.410931e+002, 1.048607e+002
9.415753e+002, 1.041109e+002
9.420574e+002, 1.033861e+002
9.425395e+002, 1.027639e+002
9.430216e+002, 1.024409e+002
9.435037e+002, 1.024746e+002
9.439858e+002, 1.026376e+002
9.444680e+002, 1.030322e+002
9.449501e+002, 1.034078e+002
9.454322e+002, 1.037716e+002
9.459143e+002, 1.040007e+002
9.463964e+002, 1.038759e+002
9.468785e+002, 1.034805e+002
9.473607e+002, 1.032421e+002
9.478428e+002, 1.034126e+002
9.483249e+002, 1.035193e+002
9.488070e+002, 1.031971e+002
9.492891e+002, 1.027887e+002
9.497712e+002, 1.025016e+002
9.502534e+002, 1.024188e+002
9.507355e+002, 1.028342e+002
9.512176e+002, 1.037147e+002
9.516997e+002, 1.042378e+002
9.521818e+002, 1.035509e+002
9.526639e+002, 1.024684e+002
9.531461e+002, 1.021137e+002
9.536282e+002, 1.022272e+002
9.541103e+002, 1.021549e+002
9.545924e+002, 1.018831e+002
9.550745e+002, 1.019338e+002
9.555566e+002, 1.025749e+002
9.560388e+002, 1.032622e+002
9.565209e+002, 1.031699e+002
9.570030e+002, 1.024872e+002
9.574851e+002, 1.021490e+002
9.579672e+002, 1.021538e+002
9.584493e+002, 1.025244e+002
9.589315e+002, 1.033591e+002
9.594136e+002, 1.037516e+002
9.598957e+002, 1.029009e+002
9.603778e+002, 1.014093e+002
9.608599e+002, 1.009148e+002
9.613420e+002, 1.017198e+002
9.618242e+002, 1.019147e+002
9.623063e+002, 1.011297e+002
9.627884e+002, 1.006658e+002
9.632705e+002, 1.011580e+002
9.637526e+002, 1.018547e+002
9.642347e+002, 1.019725e+002
9.647169e+002, 1.016038e+002
9.651990e+002, 1.014314e+002
9.656811e+002, 1.015311e+002
9.661632e+002, 1.017163e+002
9.666453e+002, 1.019296e+002
9.671274e+002, 1.022934e+002
9.676096e+002, 1.032814e+002
9.680917e+002, 1.042039e+002
9.685738e+002, 1.039776e+002
9.690559e+002, 1.026166e+002
9.695380e+002, 1.016862e+002
9.700201e+002, 1.018733e+002
9.705023e+002, 1.021279e+002
9.709844e+002, 1.020998e+002
9.714665e+002, 1.019728e+002
9.719486e+002, 1.018933e+002
9.724307e+002, 1.018347e+002
9.729128e+002, 1.017132e+002
9.733950e+002, 1.015076e+002
9.738771e+002, 1.012705e+002
9.743592e+002, 1.009792e+002
9.748413e+002, 1.007213e+002
9.753234e+002, 1.005493e+002
9.758055e+002, 1.004725e+002
9.762877e+002, 1.006187e+002
9.767698e+002, 1.008813e+002
9.772519e+002, 1.008636e+002
9.777340e+002, 1.003726e+002
9.782161e+002, 9.976857e+001
9.786982e+002, 9.919444e+001
9.791804e+002, 9.890361e+001
9.796625e+002, 9.981174e+001
9.801446e+002, 1.014368e+002
9.806267e+002, 1.019593e+002
9.811088e+002, 1.011111e+002
9.815909e+002, 1.003234e+002
9.820731e+002, 1.006071e+002
9.825552e+002, 1.013291e+002
9.830373e+002, 1.012071e+002
9.835194e+002, 1.004175e+002
9.840015e+002, 1.003224e+002
9.844836e+002, 1.009601e+002
9.849658e+002, 1.015774e+002
9.854479e+002, 1.019384e+002
9.859300e+002, 1.022354e+002
9.864121e+002, 1.026816e+002
9.868942e+002, 1.031497e+002
9.873763e+002, 1.030755e+002
9.878585e+002, 1.023075e+002
9.883406e+002, 1.020649e+002
9.888227e+002, 1.026049e+002
9.893048e+002, 1.029906e+002
9.897869e+002, 1.028112e+002
9.902690e+002, 1.023555e+002
9.907512e+002, 1.019363e+002
9.912333e+002, 1.015522e+002
9.917154e+002, 1.012003e+002
9.921975e+002, 1.008863e+002
9.926796e+002, 1.005891e+002
9.931617e+002, 1.002729e+002
9.936439e+002, 1.000237e+002
9.941260e+002, 9.999389e+001
9.946081e+002, 9.998750e+001
9.950902e+002, 9.969173e+001
9.955723e+002, 9.909580e+001
9.960544e+002, 9.856133e+001
9.965366e+002, 9.784804e+001
9.970187e+002, 9.755849e+001
9.975008e+002, 9.821911e+001
9.979829e+002, 9.889275e+001
9.984650e+002, 9.898125e+001
9.989471e+002, 9.870552e+001
9.994293e+002, 9.841434e+001
9.999114e+002, 9.814364e+001
1.000393e+003, 9.808286e+001
1.000876e+003, 9.864961e+001
1.001358e+003, 9.897106e+001
1.001840e+003, 9.835275e+001
1.002322e+003, 9.761103e+001
1.002804e+003, 9.757541e+001
1.003286e+003, 9.799782e+001
1.003768e+003, 9.812586e+001
1.004250e+003, 9.773340e+001
1.004733e+003, 9.744579e+001
1.005215e+003, 9.785366e+001
1.005697e+003, 9.821596e+001
1.006179e+003, 9.779292e+001
1.006661e+003, 9.711046e+001
1.007143e+003, 9.676836e+001
1.007625e+003, 9.684525e+001
1.008107e+003, 9.734710e+001
1.008589e+003, 9.832244e+001
1.009072e+003, 9.908768e+001
1.009554e+003, 9.895508e+001
1.010036e+003, 9.839033e+001
1.010518e+003, 9.759766e+001
1.011000e+003, 9.693070e+001
1.011482e+003, 9.724376e+001
1.011964e+003, 9.844881e+001
1.012446e+003, 9.951830e+001
1.012929e+003, 9.989864e+001
1.013411e+003, 9.993320e+001
1.013893e+003, 9.997243e+001
1.014375e+003, 9.999796e+001
1.014857e+003, 9.987935e+001
1.015339e+003, 9.971455e+001
1.015821e+003, 9.987038e+001
1.016303e+003, 1.004032e+002
1.016785e+003, 1.010682e+002
1.017268e+003, 1.017226e+002
1.017750e+003, 1.022718e+002
1.018232e+003, 1.026013e+002
1.018714e+003, 1.026972e+002
1.019196e+003, 1.022996e+002
1.019678e+003, 1.015130e+002
1.020160e+003, 1.013301e+002
1.020642e+003, 1.020216e+002
1.021125e+003, 1.029773e+002
1.021607e+003, 1.037551e+002
1.022089e+003, 1.043134e+002
1.022571e+003, 1.045035e+002
1.023053e+003, 1.043463e+002
1.023535e+003, 1.042277e+002
1.024017e+003, 1.041637e+002
1.024499e+003, 1.040495e+002
1.024981e+003, 1.038355e+002
1.025464e+003, 1.036912e+002
1.025946e+003, 1.037860e+002
1.026428e+003, 1.040414e+002
1.026910e+003, 1.041889e+002
1.027392e+003, 1.042024e+002
1.027874e+003, 1.043391e+002
1.028356e+003, 1.045825e+002
1.028838e+003, 1.051517e+002
1.029321e+003, 1.062992e+002
1.029803e+003, 1.072785e+002
1.030285e+003, 1.073349e+002
1.030767e+003, 1.066324e+002
1.031249e+003, 1.058481e+002
1.031731e+003, 1.048335e+002
1.032213e+003, 1.043257e+002
1.032695e+003, 1.044965e+002
1.033177e+003, 1.047937e+002
1.033660e+003, 1.050875e+002
1.034142e+003, 1.053051e+002
1.034624e+003, 1.053216e+002
1.035106e+003, 1.051949e+002
1.035588e+003, 1.052964e+002
1.036070e+003, 1.057701e+002
1.036552e+003, 1.061341e+002
1.037034e+003, 1.064231e+002
1.037516e+003, 1.065168e+002
1.037999e+003, 1.062045e+002
1.038481e+003, 1.058525e+002
1.038963e+003, 1.059441e+002
1.039445e+003, 1.063862e+002
1.039927e+003, 1.064468e+002
1.040409e+003, 1.057584e+002
1.040891e+003, 1.053383e+002
1.041373e+003, 1.052915e+002
1.041855e+003, 1.053871e+002
1.042338e+003, 1.056674e+002
1.042820e+003, 1.059602e+002
1.043302e+003, 1.060481e+002
1.043784e+003, 1.059677e+002
1.044266e+003, 1.060132e+002
1.044748e+003, 1.066362e+002
1.045230e+003, 1.066379e+002
1.045712e+003, 1.052360e+002
1.046195e+003, 1.040710e+002
1.046677e+003, 1.039538e+002
1.047159e+003, 1.042795e+002
1.047641e+003, 1.044095e+002
1.048123e+003, 1.043561e+002
1.048605e+003, 1.044200e+002
1.049087e+003, 1.048105e+002
1.049569e+003, 1.049960e+002
1.050052e+003, 1.045474e+002
1.050534e+003, 1.042934e+002
1.051016e+003, 1.048447e+002
1.051498e+003, 1.056234e+002
1.051980e+003, 1.060056e+002
1.052462e+003, 1.059918e+002
1.052944e+003, 1.058923e+002
1.053426e+003, 1.057959e+002
1.053908e+003, 1.055470e+002
1.054391e+003, 1.047302e+002
1.054873e+003, 1.041930e+002
1.055355e+003, 1.045862e+002
1.055837e+003, 1.053331e+002
1.056319e+003, 1.058673e+002
1.056801e+003, 1.061236e+002
1.057283e+003, 1.061174e+002
1.057765e+003, 1.056709e+002
1.058248e+003, 1.053960e+002
1.058730e+003, 1.055423e+002
1.059212e+003, 1.058258e+002
1.059694e+003, 1.062008e+002
1.060176e+003, 1.065492e+002
1.060658e+003, 1.066943e+002
1.061140e+003, 1.066893e+002
1.061622e+003, 1.068425e+002
1.062104e+003, 1.073993e+002
1.062587e+003, 1.076495e+002
1.063069e+003, 1.067938e+002
1.063551e+003, 1.061766e+002
1.064033e+003, 1.069954e+002
1.064515e+003, 1.081901e+002
1.064997e+003, 1.084239e+002
1.065479e+003, 1.078379e+002
1.065961e+003, 1.075242e+002
1.066443e+003, 1.079309e+002
1.066926e+003, 1.081322e+002
1.067408e+003, 1.072745e+002
1.067890e+003, 1.066459e+002
1.068372e+003, 1.075928e+002
1.068854e+003, 1.087686e+002
1.069336e+003, 1.082913e+002
1.069818e+003, 1.066096e+002
1.070300e+003, 1.057597e+002
1.070782e+003, 1.064816e+002
1.071265e+003, 1.072652e+002
1.071747e+003, 1.074807e+002
1.072229e+003, 1.075197e+002
1.072711e+003, 1.077269e+002
1.073193e+003, 1.078019e+002
1.073675e+003, 1.071827e+002
1.074157e+003, 1.061579e+002
1.074639e+003, 1.056704e+002
1.075122e+003, 1.060767e+002
1.075604e+003, 1.062759e+002
1.076086e+003, 1.054618e+002
1.076568e+003, 1.046556e+002
1.077050e+003, 1.046226e+002
1.077532e+003, 1.047660e+002
1.078014e+003, 1.044107e+002
1.078496e+003, 1.036957e+002
1.078979e+003, 1.031333e+002
1.079461e+003, 1.028621e+002
1.079943e+003, 1.025926e+002
1.080425e+003, 1.021214e+002
1.080907e+003, 1.017089e+002
1.081389e+003, 1.015539e+002
1.081871e+003, 1.014801e+002
1.082353e+003, 1.013178e+002
1.082835e+003, 1.010999e+002
1.083318e+003, 1.009626e+002
1.083800e+003, 1.009338e+002
1.084282e+003, 1.007863e+002
1.084764e+003, 1.003719e+002
1.085246e+003, 9.987862e+001
1.085728e+003, 9.930716e+001
1.086210e+003, 9.878245e+001
1.086692e+003, 9.838210e+001
1.087175e+003, 9.811982e+001
1.087657e+003, 9.802133e+001
1.088139e+003, 9.808382e+001
1.088621e+003, 9.821777e+001
1.089103e+003, 9.839040e+001
1.089585e+003, 9.862290e+001
1.090067e+003, 9.922656e+001
1.090549e+003, 9.959263e+001
1.091031e+003, 9.907849e+001
1.091514e+003, 9.810458e+001
1.091996e+003, 9.720558e+001
1.092478e+003, 9.651032e+001
1.092960e+003, 9.620277e+001
1.093442e+003, 9.657236e+001
1.093924e+003, 9.690958e+001
1.094406e+003, 9.683731e+001
1.094888e+003, 9.677171e+001
1.095370e+003, 9.699840e+001
1.095853e+003, 9.738535e+001
1.096335e+003, 9.787169e+001
1.096817e+003, 9.836057e+001
1.097299e+003, 9.847903e+001
1.097781e+003, 9.797974e+001
1.098263e+003, 9.749393e+001
1.098745e+003, 9.724252e+001
1.099227e+003, 9.703085e+001
1.099709e+003, 9.680592e+001
1.100192e+003, 9.653154e+001
1.100674e+003, 9.606365e+001
1.101156e+003, 9.552068e+001
1.101638e+003, 9.531632e+001
1.102120e+003, 9.562885e+001
1.102602e+003, 9.589271e+001
1.103084e+003, 9.601246e+001
1.103566e+003, 9.600285e+001
1.104049e+003, 9.582047e+001
1.104531e+003, 9.555324e+001
1.105013e+003, 9.513298e+001
1.105495e+003, 9.471855e+001
1.105977e+003, 9.471166e+001
1.106459e+003, 9.523730e+001
1.106941e+003, 9.562870e+001
1.107423e+003, 9.584644e+001
1.107906e+003, 9.581897e+001
1.108388e+003, 9.517557e+001
1.108870e+003, 9.464098e+001
1.109352e+003, 9.485464e+001
1.109834e+003, 9.543002e+001
1.110316e+003, 9.577956e+001
1.110798e+003, 9.588345e+001
1.111280e+003, 9.547041e+001
1.111762e+003, 9.369733e+001
1.112245e+003, 9.264934e+001
1.112727e+003, 9.303416e+001
1.113209e+003, 9.367233e+001
1.113691e+003, 9.420658e+001
1.114173e+003, 9.454318e+001
1.114655e+003, 9.450925e+001
1.115137e+003, 9.413329e+001
1.115619e+003, 9.379331e+001
1.116102e+003, 9.338022e+001
1.116584e+003, 9.320314e+001
1.117066e+003, 9.346259e+001
1.117548e+003, 9.366431e+001
1.118030e+003, 9.361056e+001
1.118512e+003, 9.345922e+001
1.118994e+003, 9.336589e+001
1.119476e+003, 9.329943e+001
1.119958e+003, 9.313189e+001
1.120441e+003, 9.283383e+001
1.120923e+003, 9.251390e+001
1.121405e+003, 9.208034e+001
1.121887e+003, 9.185262e+001
1.122369e+003, 9.205196e+001
1.122851e+003, 9.221103e+001
1.123333e+003, 9.191220e+001
1.123815e+003, 9.141348e+001
1.124297e+003, 9.132627e+001
1.124780e+003, 9.170763e+001
1.125262e+003, 9.172050e+001
1.125744e+003, 9.118562e+001
1.126226e+003, 9.099954e+001
1.126708e+003, 9.144981e+001
1.127190e+003, 9.179872e+001
1.127672e+003, 9.160407e+001
1.128154e+003, 9.118356e+001
1.128636e+003, 9.101717e+001
1.129119e+003, 9.105210e+001
1.129601e+003, 9.081758e+001
1.130083e+003, 9.027743e+001
1.130565e+003, 8.980287e+001
1.131047e+003, 8.940510e+001
1.131529e+003, 8.939980e+001
1.132011e+003, 8.998048e+001
1.132493e+003, 9.049157e+001
1.132976e+003, 9.019848e+001
1.133458e+003, 8.947861e+001
1.133940e+003, 8.953330e+001
1.134422e+003, 9.027319e+001
1.134904e+003, 9.050426e+001
1.135386e+003, 9.020094e+001
1.135868e+003, 9.000459e+001
1.136350e+003, 9.008525e+001
1.136833e+003, 9.007564e+001
1.137315e+003, 8.970081e+001
1.137797e+003, 8.918365e+001
1.138279e+003, 8.886463e+001
1.138761e+003, 8.872237e+001
1.139243e+003, 8.878517e+001
1.139725e+003, 8.896525e+001
1.140207e+003, 8.882804e+001
1.140689e+003, 8.836237e+001
1.141172e+003, 8.793861e+001
1.141654e+003, 8.773560e+001
1.142136e+003, 8.786989e+001
1.142618e+003, 8.871293e+001
1.143100e+003, 8.969360e+001
1.143582e+003, 8.979288e+001
1.144064e+003, 8.931337e+001
1.144546e+003, 8.872807e+001
1.145029e+003, 8.818396e+001
1.145511e+003, 8.789018e+001
1.145993e+003, 8.789796e+001
1.146475e+003, 8.811714e+001
1.146957e+003, 8.861218e+001
1.147439e+003, 8.896727e+001
1.147921e+003, 8.857024e+001
1.148403e+003, 8.797013e+001
1.148885e+003, 8.786971e+001
1.149368e+003, 8.804652e+001
1.149850e+003, 8.807744e+001
1.150332e+003, 8.790439e+001
1.150814e+003, 8.764584e+001
1.151296e+003, 8.733315e+001
1.151778e+003, 8.705387e+001
1.152260e+003, 8.686682e+001
1.152742e+003, 8.672693e+001
1.153224e+003, 8.658404e+001
1.153707e+003, 8.648676e+001
1.154189e+003, 8.639592e+001
1.154671e+003, 8.642007e+001
1.155153e+003, 8.693949e+001
1.155635e+003, 8.804189e+001
1.156117e+003, 8.860816e+001
1.156599e+003, 8.787449e+001
1.157081e+003, 8.714172e+001
1.157563e+003, 8.664348e+001
1.158046e+003, 8.645267e+001
1.158528e+003, 8.681040e+001
1.159010e+003, 8.737834e+001
1.159492e+003, 8.780784e+001
1.159974e+003, 8.805280e+001
1.160456e+003, 8.797342e+001
1.160938e+003, 8.724719e+001
1.161420e+003, 8.679893e+001
1.161903e+003, 8.700896e+001
1.162385e+003, 8.699833e+001
1.162867e+003, 8.620102e+001
1.163349e+003, 8.548667e+001
1.163831e+003, 8.562127e+001
1.164313e+003, 8.628239e+001
1.164795e+003, 8.670166e+001
1.165277e+003, 8.686617e+001
1.165760e+003, 8.690600e+001
1.166242e+003, 8.682449e+001
1.166724e+003, 8.655946e+001
1.167206e+003, 8.597292e+001
1.167688e+003, 8.564636e+001
1.168170e+003, 8.594550e+001
1.168652e+003, 8.646988e+001
1.169134e+003, 8.671962e+001
1.169616e+003, 8.673658e+001
1.170099e+003, 8.668690e+001
1.170581e+003, 8.656924e+001
1.171063e+003, 8.653701e+001
1.171545e+003, 8.660061e+001
1.172027e+003, 8.643829e+001
1.172509e+003, 8.594336e+001
1.172991e+003, 8.579011e+001
1.173473e+003, 8.655288e+001
1.173956e+003, 8.759264e+001
1.174438e+003, 8.775314e+001
1.174920e+003, 8.730209e+001
1.175402e+003, 8.704417e+001
1.175884e+003, 8.695878e+001
1.176366e+003, 8.699789e+001
1.176848e+003, 8.710458e+001
1.177330e+003, 8.706295e+001
1.177813e+003, 8.678584e+001
1.178295e+003, 8.644749e+001
1.178777e+003, 8.612596e+001
1.179259e+003, 8.593469e+001
1.179741e+003, 8.616011e+001
1.180223e+003, 8.650207e+001
1.180705e+003, 8.651432e+001
1.181187e+003, 8.629290e+001
1.181669e+003, 8.599355e+001
1.182151e+003, 8.573633e+001
1.182634e+003, 8.589721e+001
1.183116e+003, 8.682035e+001
1.183598e+003, 8.752038e+001
1.184080e+003, 8.710934e+001
1.184562e+003, 8.663921e+001
1.185044e+003, 8.694344e+001
1.185526e+003, 8.743955e+001
1.186008e+003, 8.757402e+001
1.186490e+003, 8.735770e+001
1.186973e+003, 8.688454e+001
1.187455e+003, 8.614551e+001
1.187937e+003, 8.563827e+001
1.188419e+003, 8.540418e+001
1.188901e+003, 8.549076e+001
1.189383e+003, 8.624398e+001
1.189865e+003, 8.692518e+001
1.190347e+003, 8.718398e+001
1.190830e+003, 8.716042e+001
1.191312e+003, 8.690583e+001
1.191794e+003, 8.649352e+001
1.192276e+003, 8.631300e+001
1.192758e+003, 8.653680e+001
1.193240e+003, 8.632615e+001
1.193722e+003, 8.533141e+001
1.194204e+003, 8.505623e+001
1.194687e+003, 8.613803e+001
1.195169e+003, 8.703679e+001
1.195651e+003, 8.672405e+001
1.196133e+003, 8.581980e+001
1.196615e+003, 8.525437e+001
1.197097e+003, 8.501683e+001
1.197579e+003, 8.506981e+001
1.198061e+003, 8.540263e+001
1.198543e+003, 8.582969e+001
1.199026e+003, 8.632253e+001
1.199508e+003, 8.681701e+001
1.199990e+003, 8.727242e+001
1.200472e+003, 8.733419e+001
1.200954e+003, 8.665598e+001
1.201436e+003, 8.574149e+001
1.201918e+003, 8.528739e+001
1.202400e+003, 8.518177e+001
1.202883e+003, 8.523424e+001
1.203365e+003, 8.543879e+001
1.203847e+003, 8.594374e+001
1.204329e+003, 8.660800e+001
1.204811e+003, 8.688836e+001
1.205293e+003, 8.659899e+001
1.205775e+003, 8.629982e+001
1.206257e+003, 8.644170e+001
1.206740e+003, 8.661555e+001
1.207222e+003, 8.654149e+001
1.207704e+003, 8.635008e+001
1.208186e+003, 8.589877e+001
1.208668e+003, 8.556775e+001
1.209150e+003, 8.613431e+001
1.209632e+003, 8.739275e+001
1.210114e+003, 8.804562e+001
1.210596e+003, 8.763953e+001
1.211078e+003, 8.717297e+001
1.211561e+003, 8.661705e+001
1.212043e+003, 8.633420e+001
1.212525e+003, 8.672781e+001
1.213007e+003, 8.710439e+001
1.213489e+003, 8.680054e+001
1.213971e+003, 8.637399e+001
1.214453e+003, 8.681046e+001
1.214935e+003, 8.803346e+001
1.215417e+003, 8.861997e+001
1.215900e+003, 8.840076e+001
1.216382e+003, 8.814535e+001
1.216864e+003, 8.783995e+001
1.217346e+003, 8.780402e+001
1.217828e+003, 8.822469e+001
1.218310e+003, 8.841177e+001
1.218792e+003, 8.775184e+001
1.219274e+003, 8.688819e+001
1.219757e+003, 8.716854e+001
1.220239e+003, 8.825898e+001
1.220721e+003, 8.839617e+001
1.221203e+003, 8.783618e+001
1.221685e+003, 8.800977e+001
1.222167e+003, 8.889424e+001
1.222649e+003, 8.925861e+001
1.223131e+003, 8.871286e+001
1.223614e+003, 8.801871e+001
1.224096e+003, 8.766354e+001
1.224578e+003, 8.768261e+001
1.225060e+003, 8.848315e+001
1.225542e+003, 8.935048e+001
1.226024e+003, 8.920890e+001
1.226506e+003, 8.866739e+001
1.226988e+003, 8.888207e+001
1.227470e+003, 8.961931e+001
1.227953e+003, 8.965614e+001
1.228435e+003, 8.861804e+001
1.228917e+003, 8.801041e+001
1.229399e+003, 8.894891e+001
1.229881e+003, 8.963426e+001
1.230363e+003, 8.912363e+001
1.230845e+003, 8.859901e+001
1.231327e+003, 8.886617e+001
1.231810e+003, 8.941531e+001
1.232292e+003, 8.964404e+001
1.232774e+003, 8.960985e+001
1.233256e+003, 8.955456e+001
1.233738e+003, 8.945613e+001
1.234220e+003, 8.946663e+001
1.234702e+003, 8.972718e+001
1.235184e+003, 8.955413e+001
1.235667e+003, 8.863320e+001
1.236149e+003, 8.807182e+001
1.236631e+003, 8.852422e+001
1.237113e+003, 8.921182e+001
1.237595e+003, 8.918179e+001
1.238077e+003, 8.870237e+001
1.238559e+003, 8.865211e+001
1.239041e+003, 8.888979e+001
1.239523e+003, 8.861410e+001
1.240005e+003, 8.790597e+001
1.240488e+003, 8.725349e+001
1.240970e+003, 8.681292e+001
1.241452e+003, 8.676206e+001
1.241934e+003, 8.719040e+001
1.242416e+003, 8.783896e+001
1.242898e+003, 8.880435e+001
1.243380e+003, 8.949013e+001
1.243862e+003, 8.900129e+001
1.244344e+003, 8.816265e+001
1.244827e+003, 8.792436e+001
1.245309e+003, 8.801913e+001
1.245791e+003, 8.785732e+001
1.246273e+003, 8.742024e+001
1.246755e+003, 8.709583e+001
1.247237e+003, 8.700282e+001
1.247719e+003, 8.695304e+001
1.248201e+003, 8.708694e+001
1.248684e+003, 8.700076e+001
1.249166e+003, 8.626228e+001
1.249648e+003, 8.563480e+001
1.250130e+003, 8.556313e+001
1.250612e+003, 8.583541e+001
1.251094e+003, 8.625221e+001
1.251576e+003, 8.675142e+001
1.252058e+003, 8.692307e+001
1.252541e+003, 8.674653e+001
1.253023e+003, 8.631612e+001
1.253505e+003, 8.558854e+001
1.253987e+003, 8.513928e+001
1.254469e+003, 8.510040e+001
1.254951e+003, 8.542616e+001
1.255433e+003, 8.611318e+001
1.255915e+003, 8.675064e+001
1.256397e+003, 8.686521e+001
1.256880e+003, 8.655603e+001
1.257362e+003, 8.559927e+001
1.257844e+003, 8.459544e+001
1.258326e+003, 8.505345e+001
1.258808e+003, 8.640096e+001
1.259290e+003, 8.709820e+001
1.259772e+003, 8.696675e+001
1.260254e+003, 8.678175e+001
1.260737e+003, 8.684422e+001
1.261219e+003, 8.696951e+001
1.261701e+003, 8.711015e+001
1.262183e+003, 8.722324e+001
1.262665e+003, 8.726322e+001
1.263147e+003, 8.729507e+001
1.263629e+003, 8.736536e+001
1.264111e+003, 8.745703e+001
1.264594e+003, 8.762589e+001
1.265076e+003, 8.780720e+001
1.265558e+003, 8.762545e+001
1.266040e+003, 8.693994e+001
1.266522e+003, 8.638819e+001
1.267004e+003, 8.596482e+001
1.267486e+003, 8.568501e+001
1.267968e+003, 8.554744e+001
1.268450e+003, 8.560567e+001
1.268932e+003, 8.591454e+001
1.269415e+003, 8.624162e+001
1.269897e+003, 8.630785e+001
1.270379e+003, 8.624780e+001
1.270861e+003, 8.635210e+001
1.271343e+003, 8.661179e+001
1.271825e+003, 8.716858e+001
1.272307e+003, 8.782134e+001
1.272789e+003, 8.784801e+001
1.273271e+003, 8.732547e+001
1.273754e+003, 8.708702e+001
1.274236e+003, 8.743542e+001
1.274718e+003, 8.777987e+001
1.275200e+003, 8.780675e+001
1.275682e+003, 8.761526e+001
1.276164e+003, 8.704188e+001
1.276646e+003, 8.651656e+001
1.277128e+003, 8.641660e+001
1.277611e+003, 8.648573e+001
1.278093e+003, 8.636002e+001
1.278575e+003, 8.614220e+001
1.279057e+003, 8.628222e+001
1.279539e+003, 8.686922e+001
1.280021e+003, 8.717802e+001
1.280503e+003, 8.704240e+001
1.280985e+003, 8.704311e+001
1.281468e+003, 8.725716e+001
1.281950e+003, 8.768433e+001
1.282432e+003, 8.837881e+001
1.282914e+003, 8.896606e+001
1.283396e+003, 8.913622e+001
1.283878e+003, 8.901646e+001
1.284360e+003, 8.879579e+001
1.284842e+003, 8.845327e+001
1.285324e+003, 8.794894e+001
##END=



