##NAMES=Tyrolite
##RRUFFID=R050231
##IDEAL CHEMISTRY=Ca_2_Cu^2+^_9_(As^5+^O_4_)_4_(CO_3_)(OH)_8_&#183;11H_2_O
##LOCALITY=Tyrol, Austria
##OWNER=RRUFF
##SOURCE=Marcus Origlieri
##DESCRIPTION=Thin green scaly crystals
##STATUS=The identification of this mineral is confirmed by single-crystal X-ray diffraction and chemical analysis.
##URL=rruff.info/R050231
##MEASURED CHEMISTRY=(Ca_0.80_Fe^2+^_0.20_)_Σ=1_(Cu_4.86_Zn_0.11_[box]_0.03_)_Σ=5_((As_0.96_S_0.03_P_0.01_)_Σ=1_O4)_2_(CO_3_)(OH)_4_·6H_2_O
92.35352, 16.01396
92.83563, 15.96964
93.31775, 15.97986
93.79987, 16.26618
94.28198, 16.40283
94.76410, 16.28143
95.24622, 15.92198
95.72833, 15.45421
96.21045, 14.98856
96.69257, 14.53011
97.17468, 14.05761
97.65680, 13.50723
98.13892, 12.98123
98.62103, 12.57116
99.10315, 12.30383
99.58527, 12.12864
100.0674, 11.93780
100.5495, 11.77102
101.0316, 11.53904
101.5137, 11.16546
101.9958, 10.72474
102.4780, 10.33142
102.9601, 10.07251
103.4422, 9.953539
103.9243, 9.793692
104.4064, 9.499572
104.8885, 9.253274
105.3707, 9.167426
105.8528, 9.232783
106.3349, 9.332648
106.8170, 9.355988
107.2991, 9.293062
107.7812, 9.179235
108.2634, 9.002606
108.7455, 8.780173
109.2276, 8.505855
109.7097, 8.148183
110.1918, 7.826493
110.6739, 7.699968
111.1561, 7.745114
111.6382, 7.807518
112.1203, 7.791342
112.6024, 7.709612
113.0845, 7.672952
113.5666, 7.754290
114.0488, 7.847596
114.5309, 7.858878
115.0130, 7.781333
115.4951, 7.711177
115.9772, 7.807183
116.4593, 8.193105
116.9415, 8.382928
117.4236, 8.171399
117.9057, 7.849256
118.3878, 7.620849
118.8699, 7.564631
119.3520, 7.618896
119.8342, 7.620370
120.3163, 7.513772
120.7984, 7.412222
121.2805, 7.307236
121.7626, 7.215201
122.2447, 7.156070
122.7269, 7.141136
123.2090, 7.168915
123.6911, 7.233992
124.1732, 7.444685
124.6553, 7.578374
125.1374, 7.505892
125.6196, 7.263412
126.1017, 7.008820
126.5838, 6.856050
127.0659, 6.798104
127.5480, 6.720109
128.0301, 6.550478
128.5123, 6.399227
128.9944, 6.411749
129.4765, 6.626652
129.9586, 6.830909
130.4407, 6.775205
130.9228, 6.580991
131.4050, 6.486470
131.8871, 6.721936
132.3692, 7.147689
132.8513, 7.279223
133.3334, 6.901942
133.8155, 6.494858
134.2977, 6.272767
134.7798, 6.220068
135.2619, 6.284115
135.7440, 6.486987
136.2261, 6.862120
136.7082, 7.051676
137.1904, 6.842291
137.6725, 6.613620
138.1546, 6.530719
138.6367, 6.588680
139.1188, 6.670409
139.6009, 6.621298
140.0831, 6.348642
140.5652, 6.171865
141.0473, 6.135685
141.5294, 6.146877
142.0115, 6.134003
142.4936, 6.081256
142.9758, 6.034189
143.4579, 6.078763
143.9400, 6.326076
144.4221, 6.469736
144.9042, 6.450387
145.3863, 6.330799
145.8685, 6.164355
146.3506, 5.955095
146.8327, 5.760010
147.3148, 5.728508
147.7969, 5.902354
148.2790, 6.076468
148.7612, 6.191533
149.2433, 6.247363
149.7254, 6.225525
150.2075, 6.051802
150.6896, 5.853032
151.1717, 5.840863
151.6539, 6.084194
152.1360, 6.351577
152.6181, 6.419210
153.1002, 6.267576
153.5823, 6.136336
154.0644, 6.194134
154.5466, 6.284470
155.0287, 6.260331
155.5108, 6.057771
155.9929, 5.798631
156.4750, 5.720191
156.9571, 5.948900
157.4393, 6.077159
157.9214, 5.891737
158.4035, 5.612735
158.8856, 5.468270
159.3677, 5.576019
159.8498, 5.865510
160.3320, 6.081304
160.8141, 6.252465
161.2962, 6.295093
161.7783, 6.098860
162.2604, 5.788270
162.7425, 5.535661
163.2247, 5.450516
163.7068, 5.518029
164.1889, 5.556805
164.6710, 5.545819
165.1531, 5.530571
165.6352, 5.512029
166.1174, 5.497630
166.5995, 5.509118
167.0816, 5.573150
167.5637, 5.685486
168.0458, 5.702080
168.5279, 5.554331
169.0101, 5.386393
169.4922, 5.246346
169.9743, 5.145301
170.4564, 5.125859
170.9385, 5.271554
171.4206, 5.555963
171.9028, 5.686269
172.3849, 5.547486
172.8670, 5.305514
173.3491, 5.089469
173.8312, 4.900469
174.3133, 4.789915
174.7955, 4.849576
175.2776, 5.025815
175.7597, 5.214309
176.2418, 5.424614
176.7239, 5.619367
177.2060, 5.713849
177.6882, 5.672734
178.1703, 5.594668
178.6524, 5.511292
179.1345, 5.439057
179.6166, 5.419864
180.0987, 5.529114
180.5809, 5.730229
181.0630, 5.790456
181.5451, 5.568538
182.0272, 5.371707
182.5093, 5.362509
182.9914, 5.482934
183.4736, 5.596185
183.9557, 5.592195
184.4378, 5.466949
184.9199, 5.346781
185.4020, 5.220279
185.8841, 5.110090
186.3663, 4.991045
186.8484, 4.888540
187.3305, 4.872763
187.8126, 5.038320
188.2947, 5.450894
188.7768, 5.643128
189.2590, 5.442423
189.7411, 5.205722
190.2232, 5.072735
190.7053, 5.056917
191.1874, 5.111452
191.6695, 5.202010
192.1517, 5.365109
192.6338, 5.389136
193.1159, 5.169522
193.5980, 4.911888
194.0801, 4.718143
194.5622, 4.611152
195.0444, 4.593666
195.5265, 4.689331
196.0086, 4.949393
196.4907, 5.105021
196.9728, 5.096533
197.4549, 5.018155
197.9371, 4.938848
198.4192, 4.870472
198.9013, 4.825834
199.3834, 4.833176
199.8655, 4.893275
200.3476, 4.932763
200.8298, 4.927279
201.3119, 4.898880
201.7940, 4.885243
202.2761, 4.900192
202.7582, 4.898841
203.2403, 4.784450
203.7225, 4.588265
204.2046, 4.477375
204.6867, 4.563125
205.1688, 4.772529
205.6509, 4.944834
206.1330, 5.070307
206.6152, 5.137765
207.0973, 5.140484
207.5794, 5.086443
208.0615, 4.991683
208.5436, 4.802191
209.0257, 4.559011
209.5078, 4.478560
209.9900, 4.697299
210.4721, 4.919528
210.9542, 4.974778
211.4363, 4.894624
211.9184, 4.776231
212.4005, 4.670396
212.8827, 4.578072
213.3648, 4.526535
213.8469, 4.550943
214.3290, 4.584039
214.8111, 4.588830
215.2932, 4.577610
215.7754, 4.586995
216.2575, 4.660141
216.7396, 4.802595
217.2217, 4.889399
217.7038, 4.912406
218.1859, 4.880753
218.6681, 4.747114
219.1502, 4.551138
219.6323, 4.385437
220.1144, 4.336831
220.5965, 4.418117
221.0786, 4.476614
221.5608, 4.485549
222.0429, 4.498846
222.5250, 4.549529
223.0071, 4.625084
223.4892, 4.690230
223.9713, 4.718967
224.4535, 4.714770
224.9356, 4.632849
225.4177, 4.315007
225.8998, 4.079358
226.3819, 4.138346
226.8640, 4.425546
227.3462, 4.694628
227.8283, 4.724550
228.3104, 4.487607
228.7925, 4.372037
229.2746, 4.438715
229.7567, 4.546659
230.2389, 4.656245
230.7210, 4.752508
231.2031, 4.801681
231.6852, 4.766972
232.1673, 4.648332
232.6494, 4.571237
233.1316, 4.543785
233.6137, 4.546631
234.0958, 4.582230
234.5779, 4.644440
235.0600, 4.706650
235.5421, 4.758154
236.0243, 4.791223
236.5064, 4.778895
236.9885, 4.620658
237.4706, 4.499147
237.9527, 4.599745
238.4348, 4.900236
238.9170, 5.127437
239.3991, 5.069778
239.8812, 4.801333
240.3633, 4.629939
240.8454, 4.628912
241.3275, 4.669146
241.8097, 4.633070
242.2918, 4.524312
242.7739, 4.458217
243.2560, 4.537444
243.7381, 4.686400
244.2202, 4.758537
244.7024, 4.723800
245.1845, 4.632514
245.6666, 4.489733
246.1487, 4.292859
246.6308, 4.179069
247.1129, 4.300227
247.5951, 4.495317
248.0772, 4.550353
248.5593, 4.392059
249.0414, 4.205064
249.5235, 4.182435
250.0056, 4.334740
250.4878, 4.510407
250.9699, 4.733294
251.4520, 4.906999
251.9341, 4.914029
252.4162, 4.719041
252.8983, 4.481323
253.3805, 4.370880
253.8626, 4.398758
254.3447, 4.449382
254.8268, 4.528851
255.3089, 4.598261
255.7910, 4.633927
256.2732, 4.631929
256.7553, 4.595674
257.2374, 4.501153
257.7195, 4.329394
258.2016, 4.236403
258.6837, 4.321177
259.1659, 4.442967
259.6480, 4.561985
260.1301, 4.661870
260.6122, 4.704641
261.0943, 4.613153
261.5764, 4.353168
262.0586, 4.193321
262.5407, 4.255258
263.0228, 4.341750
263.5049, 4.371200
263.9870, 4.343393
264.4691, 4.301961
264.9513, 4.276797
265.4334, 4.262672
265.9155, 4.306785
266.3976, 4.538010
266.8797, 4.715346
267.3618, 4.724373
267.8440, 4.596467
268.3261, 4.434391
268.8082, 4.317893
269.2903, 4.247170
269.7724, 4.216136
270.2545, 4.279830
270.7367, 4.332793
271.2188, 4.355153
271.7009, 4.343626
272.1830, 4.292816
272.6651, 4.189590
273.1472, 4.040435
273.6294, 3.956811
274.1115, 4.036668
274.5936, 4.086178
275.0757, 4.015418
275.5578, 3.893430
276.0399, 3.846663
276.5221, 3.961477
277.0042, 4.198750
277.4863, 4.323700
277.9684, 4.220803
278.4505, 4.120282
278.9326, 4.007946
279.4148, 3.924394
279.8969, 3.939477
280.3790, 4.091589
280.8611, 4.320471
281.3432, 4.430513
281.8253, 4.302050
282.3075, 4.187882
282.7896, 4.035751
283.2717, 3.931533
283.7538, 4.015240
284.2359, 4.332647
284.7180, 4.737709
285.2002, 4.915523
285.6823, 4.633426
286.1644, 4.429733
286.6465, 4.369301
287.1286, 4.347980
287.6107, 4.238943
288.0929, 4.019729
288.5750, 3.819873
289.0571, 3.852184
289.5392, 4.327394
290.0213, 4.551946
290.5034, 4.344049
290.9856, 4.030241
291.4677, 3.811859
291.9498, 3.732543
292.4319, 3.767827
292.9140, 3.909503
293.3961, 4.207177
293.8783, 4.384498
294.3604, 4.347651
294.8425, 4.286115
295.3246, 4.334479
295.8067, 4.476416
296.2888, 4.584527
296.7710, 4.539583
297.2531, 4.331451
297.7352, 4.194056
298.2173, 4.164350
298.6994, 4.154473
299.1815, 4.127409
299.6637, 4.088578
300.1458, 4.059873
300.6279, 4.055778
301.1100, 4.074222
301.5921, 4.098603
302.0742, 4.168011
302.5564, 4.199140
303.0385, 4.123265
303.5206, 3.998234
304.0027, 3.934114
304.4848, 3.989836
304.9669, 4.122601
305.4491, 4.203617
305.9312, 4.202538
306.4133, 4.194943
306.8954, 4.208697
307.3775, 4.215349
307.8596, 4.154493
308.3418, 4.004267
308.8239, 3.845044
309.3060, 3.827532
309.7881, 4.052805
310.2702, 4.211914
310.7523, 4.282411
311.2345, 4.288278
311.7166, 4.227328
312.1987, 4.106018
312.6808, 3.979534
313.1629, 3.911186
313.6451, 3.914720
314.1272, 3.937293
314.6093, 3.985406
315.0914, 4.046349
315.5735, 4.147659
316.0556, 4.270786
316.5378, 4.317779
317.0199, 4.181494
317.5020, 3.857120
317.9841, 3.704246
318.4662, 3.856640
318.9483, 4.020341
319.4305, 4.064837
319.9126, 4.012585
320.3947, 3.932555
320.8768, 3.853634
321.3589, 3.792182
321.8410, 3.843250
322.3232, 4.156384
322.8053, 4.386774
323.2874, 4.389505
323.7695, 4.271091
324.2516, 4.211092
324.7337, 4.287904
325.2159, 4.419101
325.6980, 4.416223
326.1801, 4.178316
326.6622, 3.981263
327.1443, 3.847821
327.6264, 3.761542
328.1086, 3.702769
328.5907, 3.667629
329.0728, 3.674766
329.5549, 3.761095
330.0370, 3.983410
330.5191, 4.088540
331.0013, 3.980886
331.4834, 3.834377
331.9655, 3.751603
332.4476, 3.744836
332.9297, 3.793006
333.4118, 3.886766
333.8939, 4.029893
334.3760, 4.133889
334.8582, 4.250770
335.3403, 4.286713
335.8224, 4.137678
336.3045, 3.876083
336.7866, 3.666700
337.2687, 3.611519
337.7509, 3.677515
338.2330, 3.709723
338.7151, 3.691381
339.1972, 3.661452
339.6793, 3.577844
340.1614, 3.501732
340.6436, 3.536600
341.1257, 3.720303
341.6078, 3.955691
342.0899, 4.055284
342.5720, 3.917294
343.0541, 3.806786
343.5363, 3.731738
344.0184, 3.677010
344.5005, 3.621185
344.9826, 3.565894
345.4647, 3.544331
345.9468, 3.604360
346.4290, 3.782885
346.9111, 3.862508
347.3932, 3.777433
347.8753, 3.676857
348.3574, 3.609844
348.8395, 3.584947
349.3217, 3.605167
349.8038, 3.676716
350.2859, 3.794227
350.7680, 3.895108
351.2501, 4.017008
351.7322, 4.078462
352.2144, 4.005579
352.6965, 3.880746
353.1786, 3.819981
353.6607, 3.875516
354.1428, 3.996004
354.6249, 4.064425
355.1071, 4.082593
355.5892, 4.035320
356.0713, 3.822910
356.5534, 3.616736
357.0355, 3.573738
357.5176, 3.709345
357.9998, 3.898475
358.4819, 3.980730
358.9640, 3.915626
359.4461, 3.912514
359.9282, 4.104729
360.4103, 4.232031
360.8925, 4.116330
361.3746, 3.833096
361.8567, 3.592536
362.3388, 3.553823
362.8209, 3.696062
363.3030, 3.830319
363.7852, 3.989272
364.2673, 4.092199
364.7494, 4.121436
365.2315, 4.088070
365.7136, 3.980234
366.1957, 3.788136
366.6779, 3.585857
367.1600, 3.551708
367.6421, 3.793405
368.1242, 3.930459
368.6063, 3.827367
369.0884, 3.665794
369.5706, 3.572495
370.0527, 3.561721
370.5348, 3.556685
371.0169, 3.438461
371.4990, 3.189243
371.9811, 3.101780
372.4633, 3.353566
372.9454, 3.592206
373.4275, 3.639196
373.9096, 3.548240
374.3917, 3.463052
374.8738, 3.473568
375.3560, 3.549723
375.8381, 3.599013
376.3202, 3.613096
376.8023, 3.619570
377.2844, 3.611737
377.7665, 3.609781
378.2487, 3.647902
378.7308, 3.746275
379.2129, 3.839949
379.6950, 3.831663
380.1771, 3.715517
380.6592, 3.642692
381.1414, 3.686898
381.6235, 3.754208
382.1056, 3.756522
382.5877, 3.695199
383.0698, 3.640956
383.5519, 3.657954
384.0341, 3.716185
384.5162, 3.719272
384.9983, 3.647310
385.4804, 3.549884
385.9625, 3.432944
386.4446, 3.317557
386.9268, 3.260312
387.4089, 3.312096
387.8910, 3.400138
388.3731, 3.452477
388.8552, 3.469626
389.3373, 3.464449
389.8195, 3.433307
390.3016, 3.388875
390.7837, 3.341736
391.2658, 3.262217
391.7479, 3.263715
392.2300, 3.498672
392.7122, 3.845291
393.1943, 4.027879
393.6764, 3.964873
394.1585, 3.789559
394.6406, 3.639189
395.1227, 3.513960
395.6049, 3.400125
396.0870, 3.252270
396.5691, 3.146407
397.0512, 3.185559
397.5333, 3.353971
398.0154, 3.499478
398.4976, 3.506814
398.9797, 3.407983
399.4618, 3.406136
399.9439, 3.622978
400.4260, 3.779036
400.9081, 3.759435
401.3903, 3.633239
401.8724, 3.498945
402.3545, 3.391513
402.8366, 3.310792
403.3187, 3.258497
403.8008, 3.245761
404.2830, 3.241241
404.7651, 3.260165
405.2472, 3.275409
405.7293, 3.247974
406.2114, 3.190654
406.6935, 3.170174
407.1757, 3.254631
407.6578, 3.438974
408.1399, 3.518119
408.6220, 3.381957
409.1041, 3.264561
409.5862, 3.191617
410.0684, 3.173496
410.5505, 3.242377
411.0326, 3.410969
411.5147, 3.606975
411.9968, 3.672389
412.4789, 3.505776
412.9611, 3.434730
413.4432, 3.558846
413.9253, 3.703218
414.4074, 3.757901
414.8895, 3.724613
415.3716, 3.681972
415.8538, 3.734060
416.3359, 3.864052
416.8180, 3.755633
417.3001, 3.124130
417.7822, 2.664070
418.2643, 2.710071
418.7465, 3.019824
419.2286, 3.267914
419.7107, 3.325604
420.1928, 3.280998
420.6749, 3.257708
421.1570, 3.257623
421.6392, 3.265864
422.1213, 3.290728
422.6034, 3.312752
423.0855, 3.330354
423.5676, 3.339786
424.0497, 3.305096
424.5319, 3.123823
425.0140, 2.884125
425.4961, 2.884595
425.9782, 3.229648
426.4603, 3.517972
426.9424, 3.326852
427.4246, 2.890937
427.9067, 2.690911
428.3888, 2.935790
428.8709, 3.279683
429.3530, 3.460126
429.8351, 3.503907
430.3173, 3.540008
430.7994, 3.624808
431.2815, 3.705201
431.7636, 3.667032
432.2457, 3.493506
432.7278, 3.359963
433.2100, 3.302999
433.6921, 3.307030
434.1742, 3.420866
434.6563, 3.626027
435.1384, 3.705015
435.6205, 3.424475
436.1027, 2.826116
436.5848, 2.604168
437.0669, 3.053708
437.5490, 3.473673
438.0311, 3.626780
438.5132, 3.614050
438.9954, 3.601366
439.4775, 3.650895
439.9596, 3.706868
440.4417, 3.664040
440.9238, 3.440123
441.4059, 3.309955
441.8881, 3.360351
442.3702, 3.414555
442.8523, 3.336873
443.3344, 3.164834
443.8165, 3.039894
444.2986, 3.072208
444.7808, 3.237037
445.2629, 3.383467
445.7450, 3.514091
446.2271, 3.619549
446.7092, 3.750309
447.1913, 3.831027
447.6735, 3.746884
448.1556, 3.477141
448.6377, 3.190863
449.1198, 3.117172
449.6019, 3.273072
450.0840, 3.339101
450.5662, 3.211145
451.0483, 3.086682
451.5304, 3.071471
452.0125, 3.142500
452.4946, 3.246229
452.9767, 3.396861
453.4589, 3.532298
453.9410, 3.509833
454.4231, 3.311818
454.9052, 3.211592
455.3873, 3.401509
455.8694, 3.677544
456.3516, 3.747829
456.8337, 3.581319
457.3158, 3.391653
457.7979, 3.269588
458.2800, 3.193431
458.7621, 3.122201
459.2443, 3.048791
459.7264, 3.005015
460.2085, 3.023048
460.6906, 3.100054
461.1727, 3.174745
461.6548, 3.305369
462.1370, 3.372304
462.6191, 3.239491
463.1012, 3.014806
463.5833, 2.925715
464.0654, 3.060208
464.5475, 3.298731
465.0297, 3.442020
465.5118, 3.447388
465.9939, 3.455458
466.4760, 3.454274
466.9581, 3.465839
467.4402, 3.541762
467.9224, 3.646503
468.4045, 3.667036
468.8866, 3.511217
469.3687, 3.240175
469.8508, 3.144842
470.3329, 3.371697
470.8151, 3.543051
471.2972, 3.582139
471.7793, 3.569543
472.2614, 3.563235
472.7435, 3.577425
473.2256, 3.605462
473.7078, 3.660074
474.1899, 3.739305
474.6720, 3.743127
475.1541, 3.624104
475.6362, 3.502230
476.1183, 3.400143
476.6005, 3.339929
477.0826, 3.373445
477.5647, 3.549800
478.0468, 3.747562
478.5289, 3.820837
479.0110, 3.783334
479.4932, 3.778476
479.9753, 3.868808
480.4574, 3.963501
480.9395, 3.938629
481.4216, 3.807662
481.9037, 3.699865
482.3859, 3.616512
482.8680, 3.593937
483.3501, 3.715122
483.8322, 3.953654
484.3143, 4.148306
484.7964, 4.217290
485.2786, 4.174910
485.7607, 4.049317
486.2428, 3.717207
486.7249, 3.522697
487.2070, 3.587535
487.6891, 3.758573
488.1713, 3.924454
488.6534, 4.053578
489.1355, 4.123702
489.6176, 4.108914
490.0997, 4.011199
490.5818, 3.915860
491.0640, 3.786767
491.5461, 3.704940
492.0282, 3.688356
492.5103, 3.724028
492.9924, 3.822566
493.4745, 3.980004
493.9567, 4.123928
494.4388, 4.157621
494.9209, 4.073070
495.4030, 3.962634
495.8851, 3.782869
496.3672, 3.638813
496.8494, 3.594570
497.3315, 3.617471
497.8136, 3.640112
498.2957, 3.625161
498.7778, 3.619290
499.2599, 3.709140
499.7420, 3.887147
500.2242, 4.002776
500.7063, 4.005486
501.1884, 3.939387
501.6705, 3.844864
502.1526, 3.723269
502.6347, 3.612003
503.1169, 3.489977
503.5990, 3.403074
504.0811, 3.431617
504.5632, 3.552138
505.0453, 3.617923
505.5274, 3.532712
506.0096, 3.366930
506.4917, 3.334000
506.9738, 3.575381
507.4559, 3.716382
507.9380, 3.648611
508.4201, 3.532521
508.9023, 3.530246
509.3844, 3.629706
509.8665, 3.676674
510.3486, 3.530313
510.8307, 3.222506
511.3128, 3.036897
511.7950, 3.008073
512.2771, 3.062133
512.7592, 3.281358
513.2413, 3.512007
513.7234, 3.591297
514.2056, 3.496953
514.6877, 3.365925
515.1698, 3.301656
515.6519, 3.307417
516.1340, 3.445326
516.6161, 3.823756
517.0983, 4.110784
517.5804, 4.038734
518.0625, 3.779217
518.5446, 3.555083
519.0267, 3.393147
519.5089, 3.314475
519.9910, 3.382067
520.4731, 3.544800
520.9552, 3.676008
521.4373, 3.754590
521.9194, 3.756244
522.4016, 3.614264
522.8837, 3.325111
523.3658, 3.211762
523.8479, 3.508652
524.3300, 3.731907
524.8121, 3.542482
525.2943, 3.154834
525.7764, 2.963323
526.2585, 3.109716
526.7406, 3.420271
527.2227, 3.638482
527.7048, 3.765235
528.1870, 3.791188
528.6691, 3.652366
529.1512, 3.484279
529.6333, 3.260764
530.1154, 3.059470
530.5975, 3.039183
531.0797, 3.294764
531.5618, 3.634102
532.0439, 3.688569
532.5260, 3.405640
533.0081, 3.260171
533.4902, 3.433773
533.9724, 3.646629
534.4545, 3.685518
534.9366, 3.589169
535.4187, 3.508246
535.9008, 3.522180
536.3829, 3.561383
536.8651, 3.563184
537.3472, 3.525729
537.8293, 3.414373
538.3114, 3.181041
538.7935, 2.945091
539.2756, 2.924438
539.7578, 3.174798
540.2399, 3.341206
540.7220, 3.337259
541.2041, 3.286571
541.6862, 3.255404
542.1683, 3.248907
542.6505, 3.265261
543.1326, 3.305363
543.6147, 3.352424
544.0968, 3.365847
544.5789, 3.339934
545.0610, 3.289990
545.5432, 3.194887
546.0253, 3.098148
546.5074, 3.010979
546.9895, 2.942763
547.4716, 2.910291
547.9537, 2.927794
548.4359, 2.981379
548.9180, 3.051540
549.4001, 3.145119
549.8822, 3.208565
550.3643, 3.219587
550.8464, 3.200152
551.3286, 3.161083
551.8107, 3.106075
552.2928, 3.078056
552.7749, 3.121033
553.2570, 3.180510
553.7391, 3.214524
554.2213, 3.216187
554.7034, 3.134648
555.1855, 2.915139
555.6676, 2.675585
556.1497, 2.668338
556.6318, 3.060544
557.1140, 3.298427
557.5961, 3.268043
558.0782, 3.173527
558.5603, 3.113425
559.0424, 3.102763
559.5245, 3.153279
560.0067, 3.278013
560.4888, 3.426583
560.9709, 3.478307
561.4530, 3.431160
561.9351, 3.292000
562.4172, 2.888249
562.8994, 2.540787
563.3815, 2.436202
563.8636, 2.536398
564.3457, 2.702994
564.8278, 2.922113
565.3099, 3.108763
565.7921, 3.073091
566.2742, 2.829381
566.7563, 2.725225
567.2384, 2.939481
567.7205, 3.222282
568.2026, 3.200592
568.6848, 2.881686
569.1669, 2.662679
569.6490, 2.651690
570.1311, 2.714778
570.6132, 2.809498
571.0953, 2.903162
571.5775, 2.918109
572.0596, 2.819037
572.5417, 2.678968
573.0238, 2.623842
573.5059, 2.668785
573.9880, 2.754593
574.4702, 2.965214
574.9523, 3.127379
575.4344, 3.120416
575.9165, 3.028050
576.3986, 3.017769
576.8807, 3.173163
577.3629, 3.346333
577.8450, 3.305151
578.3271, 3.052402
578.8092, 2.816034
579.2913, 2.587528
579.7734, 2.450152
580.2555, 2.534244
580.7376, 2.759212
581.2197, 2.933108
581.7018, 3.028814
582.1840, 3.054144
582.6661, 2.958154
583.1482, 2.806553
583.6303, 2.736076
584.1124, 2.780344
584.5945, 2.870217
585.0767, 2.941870
585.5588, 2.995924
586.0409, 3.006277
586.5230, 2.916450
587.0051, 2.854271
587.4872, 2.883878
587.9694, 2.935910
588.4515, 2.937393
588.9336, 2.871626
589.4157, 2.763550
589.8978, 2.601824
590.3799, 2.405925
590.8621, 2.371679
591.3442, 2.580611
591.8263, 2.750904
592.3084, 2.669003
592.7905, 2.529703
593.2726, 2.585074
593.7548, 2.888772
594.2369, 3.135246
594.7190, 3.131467
595.2011, 2.998779
595.6832, 2.877382
596.1653, 2.785464
596.6475, 2.756068
597.1296, 2.825783
597.6117, 2.945165
598.0938, 2.971840
598.5759, 2.820984
599.0580, 2.708840
599.5402, 2.631226
600.0223, 2.596194
600.5044, 2.612630
600.9865, 2.676117
601.4686, 2.786257
601.9507, 2.951432
602.4329, 3.128343
602.9150, 3.222352
603.3971, 3.226509
603.8792, 3.191255
604.3613, 3.092513
604.8434, 2.993987
605.3256, 2.959347
605.8077, 2.964709
606.2898, 2.928935
606.7719, 2.774517
607.2540, 2.634100
607.7361, 2.629323
608.2183, 2.719933
608.7004, 2.805176
609.1825, 2.858004
609.6646, 2.911231
610.1467, 3.013314
610.6288, 3.171268
611.1110, 3.208435
611.5931, 3.006594
612.0752, 2.839713
612.5573, 2.742098
613.0394, 2.724953
613.5215, 2.864651
614.0037, 3.137333
614.4858, 3.326801
614.9679, 3.177639
615.4500, 2.765652
615.9321, 2.527364
616.4142, 2.494539
616.8964, 2.525654
617.3785, 2.565871
617.8606, 2.647651
618.3427, 2.849345
618.8248, 3.188148
619.3069, 3.407748
619.7891, 3.350293
620.2712, 3.176952
620.7533, 3.014531
621.2354, 2.878776
621.7175, 2.788787
622.1996, 2.755112
622.6818, 2.760467
623.1639, 2.773874
623.6460, 2.794300
624.1281, 2.826514
624.6102, 2.901442
625.0923, 2.954472
625.5745, 2.953593
626.0566, 2.915303
626.5387, 2.860068
627.0208, 2.794132
627.5029, 2.739781
627.9850, 2.737315
628.4672, 2.775945
628.9493, 2.775391
629.4314, 2.718222
629.9135, 2.656466
630.3956, 2.599860
630.8777, 2.570463
631.3599, 2.629177
631.8420, 2.847206
632.3241, 2.994291
632.8062, 2.951333
633.2883, 2.834492
633.7704, 2.739247
634.2526, 2.683089
634.7347, 2.671620
635.2168, 2.711880
635.6989, 2.785037
636.1810, 2.834972
636.6631, 2.846690
637.1453, 2.872806
637.6274, 2.920298
638.1095, 2.981410
638.5916, 3.099215
639.0737, 3.224980
639.5558, 3.234998
640.0380, 3.033792
640.5201, 2.811776
641.0022, 2.781715
641.4843, 2.894092
641.9664, 2.986876
642.4485, 3.032871
642.9307, 3.024746
643.4128, 2.936415
643.8949, 2.783094
644.3770, 2.705176
644.8591, 2.771234
645.3412, 2.810201
645.8234, 2.749053
646.3055, 2.682106
646.7876, 2.716100
647.2697, 2.835098
647.7518, 2.932929
648.2339, 2.932424
648.7161, 2.862757
649.1982, 2.780605
649.6803, 2.671868
650.1624, 2.653210
650.6445, 2.825714
651.1266, 3.001942
651.6088, 3.000838
652.0909, 2.862887
652.5730, 2.744949
653.0551, 2.663477
653.5372, 2.630363
654.0193, 2.679883
654.5015, 2.774037
654.9836, 2.851156
655.4657, 2.896845
655.9478, 2.924031
656.4299, 2.944488
656.9120, 2.957283
657.3942, 2.951437
657.8763, 2.908000
658.3584, 2.877725
658.8405, 2.874415
659.3226, 2.880258
659.8047, 2.882661
660.2869, 2.881654
660.7690, 2.882678
661.2511, 2.879482
661.7332, 2.889707
662.2153, 2.959865
662.6974, 3.073447
663.1796, 3.132385
663.6617, 3.104239
664.1438, 3.043893
664.6259, 3.015873
665.1080, 3.021022
665.5901, 2.950988
666.0723, 2.661560
666.5544, 2.487154
667.0365, 2.620988
667.5186, 2.835895
668.0007, 2.883839
668.4828, 2.754960
668.9650, 2.630068
669.4471, 2.663682
669.9292, 2.787711
670.4113, 2.779314
670.8934, 2.611203
671.3755, 2.560685
671.8577, 2.781208
672.3398, 3.036374
672.8219, 3.028901
673.3040, 2.815914
673.7861, 2.725528
674.2682, 2.938133
674.7504, 3.138035
675.2325, 3.130794
675.7146, 3.030323
676.1967, 3.017513
676.6788, 3.116727
677.1609, 3.204950
677.6431, 3.164515
678.1252, 3.023471
678.6073, 2.942334
679.0894, 2.945330
679.5715, 2.950361
680.0536, 2.961187
680.5358, 2.950704
681.0179, 2.883180
681.5000, 2.773695
681.9821, 2.687603
682.4642, 2.679742
682.9464, 2.666499
683.4285, 2.527282
683.9106, 2.338830
684.3927, 2.291124
684.8748, 2.422699
685.3569, 2.601674
685.8391, 2.713985
686.3212, 2.767426
686.8033, 2.828280
687.2854, 2.925445
687.7675, 2.982289
688.2496, 2.977189
688.7318, 2.945338
689.2139, 2.884142
689.6960, 2.815278
690.1781, 2.801663
690.6602, 2.901780
691.1423, 3.015507
691.6245, 3.027502
692.1066, 2.951688
692.5887, 2.817713
693.0708, 2.621964
693.5529, 2.465870
694.0350, 2.430713
694.5172, 2.505421
694.9993, 2.621007
695.4814, 2.918258
695.9635, 3.057825
696.4456, 2.900851
696.9277, 2.680861
697.4099, 2.502243
697.8920, 2.406505
698.3741, 2.467220
698.8562, 2.754647
699.3383, 3.081226
699.8204, 3.170665
700.3026, 3.048586
700.7847, 2.884134
701.2668, 2.678545
701.7489, 2.537530
702.2310, 2.572301
702.7131, 2.720038
703.1953, 2.742671
703.6774, 2.550812
704.1595, 2.423642
704.6416, 2.411433
705.1237, 2.464375
705.6058, 2.574938
706.0880, 2.717179
706.5701, 2.852926
707.0522, 2.963964
707.5343, 3.047626
708.0164, 3.109128
708.4985, 3.145471
708.9807, 3.088427
709.4628, 2.891239
709.9449, 2.747395
710.4270, 2.803403
710.9091, 2.960227
711.3912, 3.008723
711.8734, 2.928747
712.3555, 2.829530
712.8376, 2.690482
713.3197, 2.577424
713.8018, 2.554555
714.2839, 2.587767
714.7661, 2.592929
715.2482, 2.542768
715.7303, 2.515272
716.2124, 2.656738
716.6945, 2.944429
717.1766, 3.003522
717.6588, 2.757742
718.1409, 2.529506
718.6230, 2.425138
719.1051, 2.420602
719.5872, 2.517579
720.0693, 2.722244
720.5515, 2.832829
721.0336, 2.714853
721.5157, 2.587863
721.9978, 2.592731
722.4799, 2.672654
722.9620, 2.736667
723.4442, 2.759358
723.9263, 2.758363
724.4084, 2.749375
724.8905, 2.731789
725.3726, 2.695920
725.8547, 2.630470
726.3369, 2.597203
726.8190, 2.644583
727.3011, 2.692007
727.7832, 2.640196
728.2653, 2.515638
728.7474, 2.446937
729.2296, 2.477599
729.7117, 2.541152
730.1938, 2.651916
730.6759, 2.754126
731.1580, 2.766932
731.6401, 2.693727
732.1223, 2.595463
732.6044, 2.504199
733.0865, 2.451568
733.5686, 2.548150
734.0507, 2.828752
734.5328, 3.012805
735.0150, 3.048589
735.4971, 3.013933
735.9792, 2.930053
736.4613, 2.817490
736.9434, 2.706241
737.4255, 2.570554
737.9077, 2.510773
738.3898, 2.615921
738.8719, 2.766248
739.3540, 2.871559
739.8361, 2.927818
740.3182, 2.957137
740.8004, 2.969449
741.2825, 2.955647
741.7646, 2.877433
742.2467, 2.733823
742.7288, 2.703392
743.2109, 2.837938
743.6931, 2.937207
744.1752, 2.895201
744.6573, 2.789804
745.1394, 2.734405
745.6215, 2.732683
746.1036, 2.716151
746.5858, 2.624262
747.0679, 2.564373
747.5500, 2.643183
748.0321, 2.773896
748.5142, 2.806896
748.9963, 2.723276
749.4785, 2.648466
749.9606, 2.698066
750.4427, 2.837041
750.9248, 2.960171
751.4069, 3.072248
751.8890, 3.118070
752.3712, 3.060977
752.8533, 2.976311
753.3354, 2.929751
753.8175, 2.913928
754.2996, 2.884157
754.7817, 2.839799
755.2639, 2.780841
755.7460, 2.663249
756.2281, 2.565652
756.7102, 2.565043
757.1923, 2.646371
757.6744, 2.753023
758.1566, 2.859702
758.6387, 2.952196
759.1208, 3.020212
759.6029, 3.059657
760.0850, 3.005600
760.5671, 2.825161
761.0493, 2.728187
761.5314, 2.865758
762.0135, 3.106596
762.4956, 3.188725
762.9777, 3.056011
763.4598, 2.961250
763.9420, 2.901107
764.4241, 2.889306
764.9062, 2.943971
765.3883, 3.044398
765.8704, 3.195535
766.3525, 3.380669
766.8347, 3.508305
767.3168, 3.498787
767.7989, 3.391109
768.2810, 3.211013
768.7631, 2.978764
769.2452, 2.874269
769.7274, 2.956595
770.2095, 3.083987
770.6916, 3.121428
771.1737, 3.083759
771.6558, 3.095151
772.1379, 3.243398
772.6201, 3.309101
773.1022, 3.204250
773.5843, 3.087494
774.0664, 3.055298
774.5485, 3.086811
775.0306, 3.126487
775.5128, 3.160906
775.9949, 3.171422
776.4770, 3.121484
776.9591, 3.046645
777.4412, 3.004535
777.9233, 2.999238
778.4055, 3.017181
778.8876, 3.050450
779.3697, 3.123771
779.8518, 3.309588
780.3339, 3.646911
780.8160, 3.704606
781.2982, 3.243786
781.7803, 2.893341
782.2624, 2.889776
782.7445, 3.030329
783.2266, 3.168930
783.7087, 3.292795
784.1909, 3.399444
784.6730, 3.522886
785.1551, 3.591412
785.6372, 3.498380
786.1193, 3.348958
786.6014, 3.284908
787.0836, 3.331706
787.5657, 3.490782
788.0478, 3.785813
788.5299, 4.096082
789.0120, 4.087335
789.4941, 3.718599
789.9763, 3.547332
790.4584, 3.713481
790.9405, 3.864542
791.4226, 3.782753
791.9047, 3.563052
792.3868, 3.391145
792.8690, 3.258394
793.3511, 3.203264
793.8332, 3.300857
794.3153, 3.402831
794.7974, 3.411262
795.2795, 3.382124
795.7617, 3.415600
796.2438, 3.523048
796.7259, 3.606953
797.2080, 3.550090
797.6901, 3.449693
798.1722, 3.571459
798.6544, 3.873476
799.1365, 3.944741
799.6186, 3.656947
800.1007, 3.371380
800.5828, 3.414338
801.0649, 3.703989
801.5471, 3.834146
802.0292, 3.621390
802.5113, 3.562081
802.9934, 3.828023
803.4755, 4.069608
803.9576, 4.089624
804.4398, 3.979617
804.9219, 3.907882
805.4040, 3.919532
805.8861, 3.900233
806.3682, 3.708009
806.8503, 3.500988
807.3325, 3.520164
807.8146, 3.683938
808.2967, 3.703509
808.7788, 3.499488
809.2609, 3.313436
809.7430, 3.419298
810.2252, 3.753909
810.7073, 3.908497
811.1894, 3.824830
811.6715, 3.800049
812.1536, 3.954692
812.6357, 4.092401
813.1179, 3.983203
813.6000, 3.736155
814.0821, 3.703030
814.5642, 4.084973
815.0463, 4.303212
815.5284, 4.072019
816.0106, 3.770192
816.4927, 3.628604
816.9748, 3.634297
817.4569, 3.748817
817.9390, 3.950108
818.4211, 4.126516
818.9033, 4.132379
819.3854, 4.044850
819.8675, 4.077628
820.3496, 4.214220
820.8317, 4.262208
821.3138, 4.156554
821.7960, 4.002527
822.2781, 3.899296
822.7602, 3.843479
823.2423, 3.806227
823.7244, 3.794065
824.2065, 3.788913
824.6887, 3.738531
825.1708, 3.745522
825.6529, 3.933768
826.1350, 4.200025
826.6171, 4.337646
827.0992, 4.284741
827.5814, 4.205902
828.0635, 4.137806
828.5456, 4.116464
829.0277, 4.224638
829.5098, 4.397724
829.9919, 4.486417
830.4741, 4.449602
830.9562, 4.368919
831.4383, 4.320363
831.9204, 4.294362
832.4025, 4.233543
832.8846, 4.130003
833.3668, 4.171920
833.8489, 4.462061
834.3310, 4.701750
834.8131, 4.608521
835.2952, 4.289074
835.7773, 4.174162
836.2595, 4.440520
836.7416, 4.602354
837.2237, 4.617637
837.7058, 4.569495
838.1879, 4.420982
838.6700, 4.268983
839.1522, 4.276979
839.6343, 4.467842
840.1164, 4.613687
840.5985, 4.587914
841.0806, 4.443728
841.5627, 4.128033
842.0449, 3.760027
842.5270, 3.667163
843.0091, 3.878437
843.4912, 4.034365
843.9733, 3.838539
844.4554, 3.468710
844.9376, 3.426571
845.4197, 3.752917
845.9018, 3.963916
846.3839, 3.993443
846.8660, 3.969674
847.3481, 3.920754
847.8303, 3.888220
848.3124, 3.980199
848.7945, 4.248463
849.2766, 4.359601
849.7587, 4.218443
850.2408, 4.018546
850.7230, 3.688126
851.2051, 3.425860
851.6872, 3.514311
852.1693, 3.882698
852.6514, 4.134619
853.1335, 4.053117
853.6157, 3.845200
854.0978, 3.644279
854.5799, 3.479389
855.0620, 3.425353
855.5441, 3.470015
856.0262, 3.530091
856.5084, 3.566789
856.9905, 3.551374
857.4726, 3.417598
857.9547, 3.170037
858.4368, 3.007878
858.9189, 2.929748
859.4011, 2.951339
859.8832, 3.124646
860.3653, 3.331372
860.8474, 3.471150
861.3295, 3.543521
861.8116, 3.559875
862.2938, 3.471580
862.7759, 3.399060
863.2580, 3.338857
863.7401, 3.315482
864.2222, 3.392326
864.7043, 3.501065
865.1865, 3.509159
865.6686, 3.381494
866.1507, 3.252340
866.6328, 3.195278
867.1149, 3.197450
867.5970, 3.294720
868.0792, 3.430644
868.5613, 3.443646
869.0434, 3.313056
869.5255, 3.192937
870.0076, 3.210015
870.4897, 3.311521
870.9719, 3.379651
871.4540, 3.417092
871.9361, 3.340394
872.4182, 3.107953
872.9003, 2.878935
873.3824, 2.713451
873.8646, 2.625740
874.3467, 2.661228
874.8288, 2.859030
875.3109, 2.966908
875.7930, 2.927822
876.2751, 2.880242
876.7573, 2.836607
877.2394, 2.811320
877.7215, 2.839636
878.2036, 2.897077
878.6857, 2.901098
879.1678, 2.805713
879.6500, 2.701468
880.1321, 2.598248
880.6142, 2.548363
881.0963, 2.662028
881.5784, 2.874306
882.0605, 3.016349
882.5427, 3.030386
883.0248, 2.976750
883.5069, 2.899662
883.9890, 2.813622
884.4711, 2.773235
884.9532, 2.774437
885.4354, 2.730492
885.9175, 2.612744
886.3996, 2.547869
886.8817, 2.653754
887.3638, 2.845493
887.8459, 2.874433
888.3281, 2.680244
888.8102, 2.503536
889.2923, 2.267636
889.7744, 2.159357
890.2565, 2.369213
890.7386, 2.649488
891.2208, 2.753999
891.7029, 2.683735
892.1850, 2.582130
892.6671, 2.343606
893.1492, 2.253787
893.6313, 2.602612
894.1135, 2.992560
894.5956, 3.012060
895.0777, 2.770353
895.5598, 2.617076
896.0419, 2.683459
896.5240, 2.785952
897.0062, 2.736271
897.4883, 2.631002
897.9704, 2.634822
898.4525, 2.724604
898.9346, 2.827783
899.4167, 2.919465
899.8989, 2.947254
900.3810, 2.859502
900.8631, 2.699595
901.3452, 2.583108
901.8273, 2.511354
902.3094, 2.461455
902.7916, 2.422978
903.2737, 2.444146
903.7558, 2.581953
904.2379, 2.747938
904.7200, 2.800410
905.2021, 2.723874
905.6843, 2.685758
906.1664, 2.733395
906.6485, 2.753555
907.1306, 2.701445
907.6127, 2.643025
908.0948, 2.623096
908.5769, 2.633144
909.0590, 2.652437
909.5411, 2.684958
910.0233, 2.688880
910.5054, 2.648821
910.9875, 2.570465
911.4696, 2.381003
911.9517, 2.189430
912.4338, 2.231344
912.9160, 2.497124
913.3981, 2.662821
913.8802, 2.456801
914.3623, 2.155529
914.8444, 2.178483
915.3265, 2.418736
915.8087, 2.606251
916.2908, 2.705673
916.7729, 2.688028
917.2550, 2.534270
917.7371, 2.357013
918.2192, 2.328557
918.7014, 2.426775
919.1835, 2.354920
919.6656, 2.048737
920.1477, 1.928517
920.6298, 2.148568
921.1119, 2.420971
921.5941, 2.549591
922.0762, 2.560274
922.5583, 2.523924
923.0404, 2.408797
923.5225, 2.326412
924.0046, 2.251724
924.4868, 2.238989
924.9689, 2.382146
925.4510, 2.539174
925.9331, 2.562760
926.4152, 2.461158
926.8973, 2.343914
927.3795, 2.210076
927.8616, 2.116353
928.3437, 2.094306
928.8258, 2.117624
929.3079, 2.186650
929.7900, 2.275854
930.2722, 2.344292
930.7543, 2.379977
931.2364, 2.400860
931.7185, 2.404174
932.2006, 2.416073
932.6827, 2.518795
933.1649, 2.648494
933.6470, 2.608971
934.1291, 2.403378
934.6112, 2.246628
935.0933, 2.261646
935.5754, 2.379887
936.0576, 2.526736
936.5397, 2.690664
937.0218, 2.736600
937.5039, 2.656881
937.9860, 2.582479
938.4681, 2.547817
938.9503, 2.541587
939.4324, 2.555365
939.9145, 2.588340
940.3966, 2.643726
940.8787, 2.754296
941.3608, 2.798876
941.8430, 2.779311
942.3251, 2.684875
942.8072, 2.385572
943.2893, 2.098229
943.7714, 2.174405
944.2535, 2.581482
944.7357, 2.693995
945.2178, 2.061715
945.6999, 1.699178
946.1820, 2.049855
946.6641, 2.496116
947.1462, 2.659919
947.6284, 2.616702
948.1105, 2.521771
948.5926, 2.410364
949.0747, 2.328364
949.5568, 2.302928
950.0389, 2.310124
950.5211, 2.380000
951.0032, 2.443379
951.4853, 2.357411
951.9674, 2.171388
952.4495, 2.104674
952.9316, 2.265312
953.4138, 2.467530
953.8959, 2.527614
954.3780, 2.484739
954.8601, 2.364769
955.3422, 2.207021
955.8243, 2.172774
956.3065, 2.287854
956.7886, 2.388145
957.2707, 2.348808
957.7528, 2.221542
958.2349, 2.101335
958.7170, 1.989917
959.1992, 1.922649
959.6813, 1.902782
960.1634, 1.906882
960.6455, 1.924437
961.1276, 1.973663
961.6097, 2.083688
962.0919, 2.240400
962.5740, 2.348011
963.0561, 2.417644
963.5382, 2.391578
964.0203, 2.168233
964.5024, 2.024128
964.9846, 2.156409
965.4667, 2.393359
965.9488, 2.477356
966.4309, 2.394679
966.9130, 2.363790
967.3951, 2.510540
967.8773, 2.529626
968.3594, 2.214718
968.8415, 1.923141
969.3236, 1.906046
969.8057, 2.054597
970.2878, 2.166415
970.7700, 2.209718
971.2521, 2.224965
971.7342, 2.214208
972.2163, 2.191603
972.6984, 2.163574
973.1805, 2.128053
973.6627, 2.057895
974.1448, 1.980236
974.6269, 1.979275
975.1090, 2.092971
975.5911, 2.197310
976.0732, 2.169939
976.5554, 2.116404
977.0375, 2.188121
977.5196, 2.304789
978.0017, 2.268916
978.4838, 2.092924
978.9659, 2.004868
979.4481, 2.148193
979.9302, 2.360612
980.4123, 2.470615
980.8944, 2.479417
981.3765, 2.331291
981.8586, 2.072199
982.3408, 1.916268
982.8229, 1.921883
983.3050, 2.048664
983.7871, 2.287823
984.2692, 2.540504
984.7513, 2.551748
985.2335, 2.339277
985.7156, 2.140494
986.1977, 1.963076
986.6798, 1.906749
987.1619, 2.027507
987.6440, 2.172638
988.1262, 2.174362
988.6083, 2.072140
989.0904, 2.057422
989.5725, 2.141166
990.0546, 2.287601
990.5367, 2.576063
991.0189, 2.697742
991.5010, 2.438845
991.9831, 2.055738
992.4652, 1.848323
992.9473, 1.815505
993.4294, 1.920351
993.9116, 2.319772
994.3937, 2.571493
994.8758, 2.594262
995.3579, 2.523591
995.8400, 2.380650
996.3221, 2.204870
996.8043, 2.033352
997.2864, 1.865745
997.7685, 1.767723
998.2506, 1.767187
998.7327, 1.804508
999.2148, 1.886626
999.6970, 1.983837
1000.179, 2.126442
1000.661, 2.250672
1001.143, 2.220727
1001.625, 2.015135
1002.108, 1.885553
1002.590, 1.979252
1003.072, 2.084479
1003.554, 2.099185
1004.036, 2.087608
1004.518, 2.105736
1005.000, 2.147645
1005.482, 2.190675
1005.964, 2.228331
1006.447, 2.254933
1006.929, 2.256646
1007.411, 2.257330
1007.893, 2.284575
1008.375, 2.316462
1008.857, 2.331358
1009.339, 2.322688
1009.821, 2.281100
1010.304, 2.202976
1010.786, 2.112657
1011.268, 1.980457
1011.750, 1.888674
1012.232, 2.009608
1012.714, 2.225009
1013.196, 2.263398
1013.678, 2.136764
1014.160, 2.092666
1014.643, 2.250609
1015.125, 2.433189
1015.607, 2.423816
1016.089, 2.297537
1016.571, 2.208091
1017.053, 2.148726
1017.535, 2.101368
1018.017, 2.059566
1018.500, 1.989722
1018.982, 1.867921
1019.464, 1.791248
1019.946, 1.959833
1020.428, 2.288411
1020.910, 2.371511
1021.392, 2.234417
1021.874, 2.117611
1022.356, 2.069508
1022.839, 2.077370
1023.321, 2.139272
1023.803, 2.216384
1024.285, 2.231659
1024.767, 2.193126
1025.249, 2.237563
1025.731, 2.376966
1026.213, 2.361813
1026.696, 2.108655
1027.178, 1.909995
1027.660, 1.978008
1028.142, 2.180360
1028.624, 2.260727
1029.106, 2.216756
1029.588, 2.075519
1030.070, 1.782521
1030.552, 1.653056
1031.035, 1.794689
1031.517, 2.007875
1031.999, 2.190455
1032.481, 2.301740
1032.963, 2.226681
1033.445, 1.922658
1033.927, 1.791708
1034.409, 1.898048
1034.891, 2.008658
1035.374, 2.067042
1035.856, 2.136312
1036.338, 2.296697
1036.820, 2.470820
1037.302, 2.471326
1037.784, 2.259231
1038.266, 2.087792
1038.748, 1.911437
1039.231, 1.864599
1039.713, 2.090211
1040.195, 2.307613
1040.677, 2.319415
1041.159, 2.194882
1041.641, 2.057963
1042.123, 1.874136
1042.605, 1.843807
1043.088, 2.172484
1043.570, 2.361652
1044.052, 2.180636
1044.534, 1.990915
1045.016, 2.053344
1045.498, 2.252656
1045.980, 2.366192
1046.462, 2.380131
1046.944, 2.354107
1047.427, 2.257428
1047.909, 2.170194
1048.391, 2.126561
1048.873, 2.079802
1049.355, 1.932603
1049.837, 1.786719
1050.319, 1.869782
1050.801, 2.229251
1051.283, 2.455277
1051.766, 2.442345
1052.248, 2.347760
1052.730, 2.120816
1053.212, 1.917106
1053.694, 1.817079
1054.176, 1.820140
1054.658, 1.964456
1055.140, 2.255603
1055.623, 2.399199
1056.105, 2.157889
1056.587, 1.995963
1057.069, 2.167904
1057.551, 2.350421
1058.033, 2.285012
1058.515, 2.094649
1058.997, 2.000403
1059.479, 2.027045
1059.962, 2.024044
1060.444, 1.890707
1060.926, 1.799774
1061.408, 1.857501
1061.890, 1.929432
1062.372, 1.870484
1062.854, 1.790670
1063.336, 1.898864
1063.818, 2.193031
1064.301, 2.401533
1064.783, 2.423457
1065.265, 2.366271
1065.747, 2.177516
1066.229, 2.020479
1066.711, 2.068585
1067.193, 2.187295
1067.675, 2.134539
1068.158, 1.931985
1068.640, 1.901111
1069.122, 2.297676
1069.604, 2.548987
1070.086, 2.299185
1070.568, 1.939703
1071.050, 1.616403
1071.532, 1.426129
1072.015, 1.567957
1072.497, 1.957583
1072.979, 2.181171
1073.461, 2.050740
1073.943, 1.915294
1074.425, 1.950958
1074.907, 2.014285
1075.389, 2.017125
1075.871, 1.990201
1076.354, 1.956068
1076.836, 1.932494
1077.318, 1.959793
1077.800, 2.058700
1078.282, 2.161503
1078.764, 2.280647
1079.246, 2.343460
1079.728, 2.269194
1080.210, 2.144054
1080.693, 2.028674
1081.175, 1.949713
1081.657, 1.978735
1082.139, 2.150382
1082.621, 2.198662
1083.103, 1.804404
1083.585, 1.501648
1084.067, 1.708086
1084.549, 2.034409
1085.032, 2.088986
1085.514, 1.966987
1085.996, 1.943151
1086.478, 2.074444
1086.960, 2.188853
1087.442, 2.227595
1087.924, 2.213672
1088.406, 2.080674
1088.889, 1.973300
1089.371, 2.075048
1089.853, 2.256271
1090.335, 2.279905
1090.817, 2.122078
1091.299, 1.963242
1091.781, 1.830505
1092.263, 1.771179
1092.745, 1.854264
1093.228, 1.965618
1093.710, 2.045416
1094.192, 2.092362
1094.674, 2.095438
1095.156, 2.066787
1095.638, 2.069347
1096.120, 2.156036
1096.602, 2.185477
1097.084, 2.045562
1097.567, 1.906621
1098.049, 1.866814
1098.531, 1.876323
1099.013, 1.891945
1099.495, 1.904001
1099.977, 1.893828
1100.459, 1.839702
1100.941, 1.843753
1101.424, 2.049148
1101.906, 2.171254
1102.388, 1.955970
1102.870, 1.731310
1103.352, 1.840118
1103.834, 2.137295
1104.316, 2.273590
1104.798, 2.190476
1105.281, 2.081897
1105.763, 1.948836
1106.245, 1.850208
1106.727, 1.805151
1107.209, 1.796744
1107.691, 1.845589
1108.173, 1.907433
1108.655, 1.886119
1109.137, 1.782429
1109.620, 1.803003
1110.102, 2.151284
1110.584, 2.351665
1111.066, 2.262928
1111.548, 2.110753
1112.030, 1.902268
1112.512, 1.750900
1112.994, 1.849110
1113.476, 2.136467
1113.959, 2.227653
1114.441, 1.945460
1114.923, 1.815725
1115.405, 2.013145
1115.887, 2.141122
1116.369, 2.013014
1116.851, 1.862841
1117.333, 1.887302
1117.816, 2.024249
1118.298, 2.116951
1118.780, 2.168646
1119.262, 2.157590
1119.744, 2.047842
1120.226, 1.940981
1120.708, 1.820424
1121.190, 1.763394
1121.672, 1.847952
1122.155, 1.989681
1122.637, 2.062485
1123.119, 2.066426
1123.601, 1.995327
1124.083, 1.768609
1124.565, 1.728776
1125.047, 1.975001
1125.529, 2.235562
1126.011, 2.429439
1126.494, 2.516878
1126.976, 2.432570
1127.458, 2.222308
1127.940, 2.075117
1128.422, 1.989810
1128.904, 1.985424
1129.386, 2.075868
1129.868, 2.177163
1130.351, 2.273592
1130.833, 2.342178
1131.315, 2.374168
1131.797, 2.340385
1132.279, 2.136117
1132.761, 1.785882
1133.243, 1.712630
1133.725, 1.919048
1134.208, 2.107953
1134.690, 2.231640
1135.172, 2.268994
1135.654, 2.205021
1136.136, 2.105262
1136.618, 2.045014
1137.100, 2.018426
1137.582, 2.014426
1138.064, 2.029107
1138.547, 2.028009
1139.029, 2.016944
1139.511, 2.079049
1139.993, 2.233783
1140.475, 2.363972
1140.957, 2.376622
1141.439, 2.313186
1141.921, 2.223381
1142.403, 2.114250
1142.886, 1.990772
1143.368, 1.865290
1143.850, 1.764958
1144.332, 1.699530
1144.814, 1.684077
1145.296, 1.726263
1145.778, 1.799436
1146.260, 1.880953
1146.743, 1.975475
1147.225, 2.134030
1147.707, 2.282548
1148.189, 2.293818
1148.671, 2.189428
1149.153, 2.030853
1149.635, 1.851346
1150.117, 1.742805
1150.599, 1.785503
1151.082, 1.860547
1151.564, 1.849322
1152.046, 1.857852
1152.528, 2.059939
1153.010, 2.302349
1153.492, 2.322796
1153.974, 2.151623
1154.456, 2.035627
1154.938, 2.056803
1155.421, 2.101866
1155.903, 2.157061
1156.385, 2.182875
1156.867, 2.128595
1157.349, 2.066278
1157.831, 2.070849
1158.313, 2.106988
1158.795, 2.099233
1159.278, 2.038866
1159.760, 1.977100
1160.242, 1.862002
1160.724, 1.838234
1161.206, 2.062920
1161.688, 2.218018
1162.170, 2.073501
1162.652, 1.864995
1163.135, 1.855873
1163.617, 1.986131
1164.099, 2.004894
1164.581, 1.857482
1165.063, 1.789441
1165.545, 1.828542
1166.027, 1.889732
1166.509, 1.981443
1166.991, 2.029577
1167.474, 1.969993
1167.956, 1.870620
1168.438, 1.839066
1168.920, 1.871773
1169.402, 1.946483
1169.884, 2.077861
1170.366, 2.085276
1170.848, 1.932420
1171.330, 1.894380
1171.813, 2.084323
1172.295, 2.269210
1172.777, 2.237049
1173.259, 2.082326
1173.741, 1.993682
1174.223, 1.963483
1174.705, 1.952492
1175.187, 1.962543
1175.670, 2.021749
1176.152, 2.125269
1176.634, 2.211157
1177.116, 2.249437
1177.598, 2.238958
1178.080, 2.150706
1178.562, 2.052954
1179.044, 2.067394
1179.526, 2.136925
1180.009, 2.158213
1180.491, 2.144678
1180.973, 2.163369
1181.455, 2.217678
1181.937, 2.236128
1182.419, 2.176489
1182.901, 2.099711
1183.383, 1.984887
1183.865, 1.942559
1184.348, 2.229558
1184.830, 2.506867
1185.312, 2.228211
1185.794, 1.661741
1186.276, 1.540752
1186.758, 2.005032
1187.240, 2.373259
1187.722, 2.428592
1188.205, 2.379612
1188.687, 2.181818
1189.169, 2.008268
1189.651, 1.967089
1190.133, 1.982578
1190.615, 1.939159
1191.097, 1.875038
1191.579, 1.979771
1192.062, 2.354052
1192.544, 2.519338
1193.026, 2.391572
1193.508, 2.224411
1193.990, 2.003910
1194.472, 1.891744
1194.954, 2.015910
1195.436, 2.212362
1195.918, 2.247710
1196.401, 2.162935
1196.883, 2.203090
1197.365, 2.376888
1197.847, 2.433112
1198.329, 2.355261
1198.811, 2.311383
1199.293, 2.348109
1199.775, 2.325933
1200.257, 2.143459
1200.740, 1.917589
1201.222, 1.803152
1201.704, 1.786355
1202.186, 1.844891
1202.668, 1.966699
1203.150, 2.168640
1203.632, 2.399668
1204.114, 2.480313
1204.597, 2.372970
1205.079, 2.226149
1205.561, 2.117876
1206.043, 2.062692
1206.525, 2.116434
1207.007, 2.185454
1207.489, 2.157803
1207.971, 2.101934
1208.453, 2.150546
1208.936, 2.249753
1209.418, 2.209887
1209.900, 1.984044
1210.382, 1.813125
1210.864, 1.744937
1211.346, 1.788710
1211.828, 2.085158
1212.310, 2.332370
1212.792, 2.337302
1213.275, 2.233909
1213.757, 2.144401
1214.239, 2.077515
1214.721, 2.070625
1215.203, 2.161337
1215.685, 2.118380
1216.167, 1.849829
1216.649, 1.732625
1217.132, 1.886717
1217.614, 2.012474
1218.096, 1.953878
1218.578, 1.818320
1219.060, 1.719225
1219.542, 1.662669
1220.024, 1.665824
1220.506, 1.728194
1220.989, 1.859714
1221.471, 2.052252
1221.953, 2.265040
1222.435, 2.475185
1222.917, 2.586823
1223.399, 2.549952
1223.881, 2.432872
1224.363, 2.262447
1224.845, 2.110392
1225.328, 2.115586
1225.810, 2.172588
1226.292, 2.101547
1226.774, 1.965346
1227.256, 1.890723
1227.738, 1.908613
1228.220, 2.046039
1228.702, 2.354365
1229.184, 2.550422
1229.667, 2.439696
1230.149, 2.279149
1230.631, 2.149754
1231.113, 2.052026
1231.595, 2.011594
1232.077, 1.985222
1232.559, 1.868273
1233.041, 1.681649
1233.524, 1.678152
1234.006, 1.968529
1234.488, 2.162186
1234.970, 2.260908
1235.452, 2.248195
1235.934, 2.084563
1236.416, 1.906522
1236.898, 1.780481
1237.380, 1.738754
1237.863, 1.850805
1238.345, 2.062258
1238.827, 2.121556
1239.309, 2.062834
1239.791, 2.189301
1240.273, 2.471260
1240.755, 2.583527
1241.237, 2.465841
1241.719, 2.286375
1242.202, 2.133920
1242.684, 2.056420
1243.166, 2.153075
1243.648, 2.297487
1244.130, 2.340065
1244.612, 2.350120
1245.094, 2.448975
1245.576, 2.566516
1246.059, 2.538671
1246.541, 2.377794
1247.023, 2.265513
1247.505, 2.262508
1247.987, 2.279411
1248.469, 2.329252
1248.951, 2.342062
1249.433, 2.281471
1249.916, 2.190395
1250.398, 2.014407
1250.880, 1.898048
1251.362, 2.083615
1251.844, 2.485079
1252.326, 2.614480
1252.808, 2.418842
1253.290, 2.209843
1253.772, 1.967689
1254.255, 1.892949
1254.737, 2.035178
1255.219, 2.221747
1255.701, 2.367411
1256.183, 2.424613
1256.665, 2.311000
1257.147, 2.136422
1257.629, 2.133717
1258.111, 2.223806
1258.594, 2.263735
1259.076, 2.239072
1259.558, 2.078719
1260.040, 1.844501
1260.522, 1.796579
1261.004, 2.025382
1261.486, 2.227363
1261.968, 2.177026
1262.451, 2.127830
1262.933, 2.256706
1263.415, 2.367754
1263.897, 2.312474
1264.379, 2.186150
1264.861, 2.065390
1265.343, 1.973568
1265.825, 1.973650
1266.307, 2.081227
1266.790, 2.139320
1267.272, 2.125932
1267.754, 2.135826
1268.236, 2.194361
1268.718, 2.203378
1269.200, 2.116324
1269.682, 2.040557
1270.164, 2.073518
1270.646, 2.138799
1271.129, 2.083099
1271.611, 1.952311
1272.093, 1.882800
1272.575, 1.868696
1273.057, 1.905709
1273.539, 1.979366
1274.021, 2.052893
1274.503, 2.117197
1274.986, 2.196882
1275.468, 2.320222
1275.950, 2.383910
1276.432, 2.285135
1276.914, 2.151463
1277.396, 2.031675
1277.878, 1.940866
1278.360, 1.863105
1278.843, 1.837054
1279.325, 1.970929
1279.807, 2.234909
1280.289, 2.348824
##END=



