##NAMES=Ullmannite
##RRUFFID=R070541
##IDEAL CHEMISTRY=NiSbS
##LOCALITY=Oms, Pyrennes Mountains, Spain
##OWNER=RRUFF
##SOURCE=James Shigley
##DESCRIPTION=Steel gray massive
##STATUS=The identification of this mineral has been confirmed by single-crystal X-ray diffraction.
##URL=rruff.info/R070541
127.6675, 3372.742
128.1497, 3552.021
128.6318, 3660.801
129.1139, 3649.353
129.5960, 3635.450
130.0781, 3733.013
130.5602, 3933.491
131.0424, 4174.195
131.5245, 4446.393
132.0066, 4739.548
132.4887, 4998.844
132.9708, 5193.571
133.4529, 5373.927
133.9351, 5581.890
134.4172, 5818.103
134.8993, 6060.868
135.3814, 6306.765
135.8635, 6555.652
136.3456, 6762.634
136.8278, 6874.658
137.3099, 6978.859
137.7920, 7166.085
138.2741, 7438.424
138.7562, 7663.062
139.2383, 7701.706
139.7205, 7537.105
140.2026, 7312.276
140.6847, 7001.639
141.1668, 6666.693
141.6489, 6327.158
142.1310, 5989.398
142.6132, 5674.526
143.0953, 5397.787
143.5774, 5151.582
144.0595, 4980.177
144.5416, 4890.059
145.0237, 4870.182
145.5059, 4930.890
145.9880, 5072.002
146.4701, 5261.039
146.9522, 5447.859
147.4343, 5622.512
147.9164, 5819.737
148.3986, 6003.980
148.8807, 6231.059
149.3628, 6560.534
149.8449, 7006.179
150.3270, 7514.989
150.8091, 7995.849
151.2913, 8510.884
151.7734, 8877.497
152.2555, 9099.831
152.7376, 9187.667
153.2197, 9143.119
153.7018, 8968.179
154.1840, 8676.921
154.6661, 8290.913
155.1482, 7706.323
155.6303, 7174.856
156.1124, 6703.363
156.5945, 6289.438
157.0767, 5944.430
157.5588, 5671.526
158.0409, 5445.951
158.5230, 5206.186
159.0051, 4903.164
159.4872, 4647.549
159.9694, 4431.081
160.4515, 4249.310
160.9336, 4136.558
161.4157, 4115.922
161.8978, 4146.075
162.3799, 4117.029
162.8621, 3955.970
163.3442, 3823.350
163.8263, 3743.038
164.3084, 3689.117
164.7905, 3630.307
165.2726, 3553.451
165.7548, 3466.597
166.2369, 3392.958
166.7190, 3339.320
167.2011, 3290.245
167.6832, 3252.617
168.1653, 3216.779
168.6475, 3165.882
169.1296, 3091.398
169.6117, 3005.862
170.0938, 2945.594
170.5759, 2924.633
171.0580, 2908.243
171.5402, 2900.093
172.0223, 2891.776
172.5044, 2868.740
172.9865, 2823.328
173.4686, 2763.910
173.9507, 2714.714
174.4329, 2681.232
174.9150, 2648.354
175.3971, 2619.194
175.8792, 2587.800
176.3613, 2541.503
176.8434, 2472.892
177.3256, 2392.129
177.8077, 2327.682
178.2898, 2288.324
178.7719, 2247.620
179.2540, 2196.195
179.7361, 2139.410
180.2183, 2085.163
180.7004, 2035.602
181.1825, 1992.802
181.6646, 1964.946
182.1467, 1954.818
182.6288, 1949.421
183.1110, 1946.269
183.5931, 1945.359
184.0752, 1945.637
184.5573, 1945.654
185.0394, 1948.922
185.5215, 1966.135
186.0037, 2003.235
186.4858, 2036.938
186.9679, 2066.132
187.4500, 2086.667
187.9321, 2090.193
188.4142, 2073.636
188.8964, 2039.222
189.3785, 1985.050
189.8606, 1902.726
190.3427, 1829.527
190.8248, 1781.314
191.3069, 1749.798
191.7891, 1717.170
192.2712, 1674.590
192.7533, 1634.806
193.2354, 1625.747
193.7175, 1653.139
194.1996, 1678.050
194.6818, 1696.762
195.1639, 1704.133
195.6460, 1685.928
196.1281, 1632.906
196.6102, 1566.273
197.0923, 1521.838
197.5745, 1500.158
198.0566, 1481.531
198.5387, 1457.322
199.0208, 1432.800
199.5029, 1418.735
199.9850, 1419.564
200.4672, 1426.417
200.9493, 1428.869
201.4314, 1428.712
201.9135, 1418.184
202.3956, 1384.130
202.8777, 1340.897
203.3599, 1313.341
203.8420, 1308.609
204.3241, 1313.434
204.8062, 1312.979
205.2883, 1307.773
205.7704, 1298.465
206.2526, 1284.298
206.7347, 1266.380
207.2168, 1245.390
207.6989, 1220.986
208.1810, 1196.008
208.6631, 1173.053
209.1453, 1151.846
209.6274, 1135.104
210.1095, 1128.076
210.5916, 1123.846
211.0737, 1110.979
211.5558, 1086.594
212.0380, 1065.000
212.5201, 1064.034
213.0022, 1081.754
213.4843, 1092.450
213.9664, 1090.152
214.4485, 1080.033
214.9307, 1065.214
215.4128, 1045.785
215.8949, 1028.088
216.3770, 1018.388
216.8591, 1015.950
217.3412, 1012.247
217.8233, 1003.632
218.3055, 995.2953
218.7876, 992.3283
219.2697, 994.8974
219.7518, 999.6585
220.2339, 1006.735
220.7160, 1014.253
221.1982, 1012.668
221.6803, 996.3572
222.1624, 974.9825
222.6445, 952.9711
223.1266, 931.0812
223.6087, 913.4239
224.0909, 903.4454
224.5730, 900.1800
225.0551, 896.5054
225.5372, 891.1542
226.0193, 886.5730
226.5014, 884.9125
226.9836, 885.5129
227.4657, 885.6385
227.9478, 884.1614
228.4299, 880.8615
228.9120, 875.3452
229.3941, 865.4402
229.8763, 856.2861
230.3584, 851.1776
230.8405, 848.7048
231.3226, 844.3201
231.8047, 834.8781
232.2868, 823.9705
232.7690, 821.7726
233.2511, 832.2246
233.7332, 842.1072
234.2153, 846.8281
234.6974, 848.1904
235.1796, 849.3369
235.6617, 851.3416
236.1438, 853.7157
236.6259, 855.1866
237.1080, 854.4663
237.5901, 856.1146
238.0723, 862.7604
238.5544, 871.6595
239.0365, 880.2078
239.5186, 887.8284
240.0007, 892.5465
240.4828, 889.8990
240.9650, 874.6454
241.4471, 869.1594
241.9292, 885.9000
242.4113, 907.2695
242.8934, 915.0064
243.3755, 906.2577
243.8577, 892.4059
244.3398, 886.0719
244.8219, 889.8327
245.3040, 890.6505
245.7861, 882.8086
246.2682, 876.3781
246.7504, 880.7989
247.2325, 895.2104
247.7146, 909.7684
248.1967, 915.6782
248.6788, 912.1196
249.1609, 909.3326
249.6431, 902.7413
250.1252, 900.9297
250.6073, 909.9854
251.0894, 927.6994
251.5715, 947.5494
252.0536, 965.3616
252.5358, 981.1390
253.0179, 995.3069
253.5000, 1008.122
253.9821, 1019.333
254.4642, 1032.482
254.9463, 1043.494
255.4285, 1044.090
255.9106, 1029.195
256.3927, 1003.466
256.8748, 984.3866
257.3569, 978.2505
257.8391, 971.8915
258.3212, 967.9471
258.8033, 961.8505
259.2854, 946.1052
259.7675, 918.1312
260.2496, 885.4102
260.7318, 864.2813
261.2139, 866.7236
261.6960, 862.0400
262.1781, 846.2661
262.6602, 826.0496
263.1423, 804.7044
263.6245, 783.7330
264.1066, 765.6700
264.5887, 754.2426
265.0708, 751.4095
265.5529, 749.8994
266.0350, 753.6526
266.5172, 755.3412
266.9993, 747.6960
267.4814, 732.8262
267.9635, 720.7200
268.4456, 722.2816
268.9277, 738.9464
269.4099, 750.7097
269.8920, 754.1046
270.3741, 755.3457
270.8562, 754.8530
271.3383, 753.5340
271.8204, 752.5875
272.3026, 752.4583
272.7847, 753.4628
273.2668, 757.9041
273.7489, 769.4796
274.2310, 779.0972
274.7131, 785.3836
275.1953, 788.0850
275.6774, 785.8959
276.1595, 777.2176
276.6416, 766.1498
277.1237, 761.8939
277.6058, 766.9446
278.0880, 771.9487
278.5701, 773.1570
279.0522, 773.8394
279.5343, 777.0123
280.0164, 783.5430
280.4985, 791.2006
280.9807, 798.5896
281.4628, 805.9888
281.9449, 808.9488
282.4270, 802.4876
282.9091, 794.5391
283.3912, 791.7239
283.8734, 794.1604
284.3555, 796.5472
284.8376, 793.8718
285.3197, 787.6050
285.8018, 785.6613
286.2839, 792.6258
286.7661, 797.6966
287.2482, 789.6031
287.7303, 771.6389
288.2124, 756.3942
288.6945, 751.6716
289.1766, 751.6382
289.6588, 745.9218
290.1409, 733.2292
290.6230, 719.9903
291.1051, 709.5688
291.5872, 702.0354
292.0693, 697.7686
292.5515, 700.4637
293.0336, 703.4172
293.5157, 699.9730
293.9978, 691.1293
294.4799, 683.7574
294.9620, 681.6581
295.4442, 683.0676
295.9263, 683.1922
296.4084, 682.3666
296.8905, 679.9018
297.3726, 675.1747
297.8547, 668.6506
298.3369, 660.2274
298.8190, 649.3032
299.3011, 639.3432
299.7832, 637.1970
300.2653, 647.1058
300.7474, 652.2889
301.2296, 647.4595
301.7117, 639.3687
302.1938, 633.1005
302.6759, 629.8780
303.1580, 630.6619
303.6401, 637.4751
304.1223, 652.2518
304.6044, 660.0279
305.0865, 656.5986
305.5686, 651.2506
306.0507, 647.5641
306.5328, 645.7382
307.0150, 645.2106
307.4971, 645.7725
307.9792, 647.1655
308.4613, 647.3269
308.9434, 643.8421
309.4255, 641.8521
309.9077, 643.9097
310.3898, 647.2250
310.8719, 648.2269
311.3540, 645.4485
311.8361, 640.3881
312.3182, 635.7009
312.8004, 629.8413
313.2825, 627.8874
313.7646, 633.8363
314.2467, 640.6334
314.7288, 643.2132
315.2109, 641.0743
315.6931, 637.5073
316.1752, 637.3279
316.6573, 641.4614
317.1394, 638.4515
317.6215, 619.6884
318.1036, 602.5417
318.5858, 594.8523
319.0679, 594.8540
319.5500, 597.1235
320.0321, 598.2010
320.5142, 599.3221
320.9963, 605.7225
321.4785, 621.3134
321.9606, 631.7582
322.4427, 626.0911
322.9248, 612.7429
323.4069, 600.7996
323.8890, 591.7774
324.3712, 586.2365
324.8533, 586.5956
325.3354, 592.3976
325.8175, 595.7598
326.2996, 592.4580
326.7817, 587.3032
327.2639, 587.8943
327.7460, 595.3853
328.2281, 600.2574
328.7102, 596.3307
329.1923, 587.4710
329.6744, 580.7324
330.1566, 577.4272
330.6387, 575.5457
331.1208, 572.8315
331.6029, 569.2613
332.0850, 568.2682
332.5671, 572.5924
333.0493, 577.5999
333.5314, 579.5579
334.0135, 578.9340
334.4956, 578.6846
334.9777, 580.8115
335.4598, 584.7999
335.9420, 587.5566
336.4241, 590.1570
336.9062, 590.4832
337.3883, 584.8737
337.8704, 577.7910
338.3525, 576.2149
338.8346, 582.4910
339.3167, 591.4615
339.7989, 593.8807
340.2810, 584.8896
340.7631, 579.0117
341.2452, 576.7442
341.7273, 576.6152
342.2094, 578.7274
342.6916, 582.3925
343.1737, 585.7479
343.6558, 586.8703
344.1379, 585.8191
344.6200, 586.1974
345.1021, 590.4545
345.5843, 593.1083
346.0664, 590.7290
346.5485, 586.2542
347.0306, 584.6493
347.5127, 588.9263
347.9948, 594.9400
348.4770, 593.6135
348.9591, 582.5115
349.4412, 575.0060
349.9233, 578.8846
350.4054, 585.4112
350.8875, 587.4034
351.3697, 583.9536
351.8518, 579.6053
352.3339, 577.8596
352.8160, 577.9465
353.2981, 576.3953
353.7802, 571.4863
354.2624, 567.7539
354.7445, 572.5712
355.2266, 583.1399
355.7087, 588.0233
356.1908, 578.2393
356.6729, 566.1320
357.1551, 564.3158
357.6372, 571.9542
358.1193, 580.1859
358.6014, 584.9082
359.0835, 586.1192
359.5656, 583.5705
360.0478, 572.6702
360.5299, 565.0685
361.0120, 565.8199
361.4941, 570.7471
361.9762, 574.7596
362.4583, 576.3361
362.9405, 575.9386
363.4226, 573.9756
363.9047, 569.5150
364.3868, 566.3994
364.8689, 564.4612
365.3510, 563.7980
365.8332, 566.3342
366.3153, 570.4016
366.7974, 571.3721
367.2795, 565.3276
367.7616, 553.9813
368.2437, 547.5014
368.7259, 549.4212
369.2080, 551.1366
369.6901, 549.5506
370.1722, 547.5950
370.6543, 549.0602
371.1364, 555.1000
371.6186, 561.6110
372.1007, 562.5089
372.5828, 557.3047
373.0649, 554.5809
373.5470, 556.7906
374.0291, 560.4617
374.5113, 563.2010
374.9934, 565.1693
375.4755, 567.3121
375.9576, 571.2148
376.4397, 575.1851
376.9218, 575.9789
377.4040, 573.2585
377.8861, 569.8116
378.3682, 566.6504
378.8503, 564.0966
379.3324, 562.8368
379.8145, 563.9551
380.2967, 564.7311
380.7788, 562.7234
381.2609, 559.5979
381.7430, 559.1608
382.2251, 562.7348
382.7072, 567.5042
383.1894, 569.4442
383.6715, 567.3045
384.1536, 566.0150
384.6357, 566.8594
385.1178, 567.4449
385.5999, 565.8956
386.0821, 562.6398
386.5642, 559.5124
387.0463, 557.8864
387.5284, 557.3492
388.0105, 555.2714
388.4926, 547.5921
388.9748, 544.0962
389.4569, 550.6451
389.9390, 559.3364
390.4211, 561.6602
390.9032, 555.5527
391.3853, 547.1718
391.8675, 544.6976
392.3496, 548.7067
392.8317, 550.1533
393.3138, 545.5051
393.7959, 541.6279
394.2780, 543.3584
394.7602, 548.9372
395.2423, 553.3895
395.7244, 553.6887
396.2065, 552.1257
396.6886, 551.9366
397.1707, 553.1423
397.6529, 555.4214
398.1350, 559.8717
398.6171, 564.4269
399.0992, 564.7827
399.5813, 558.9966
400.0634, 554.8288
400.5456, 557.8780
401.0277, 563.3293
401.5098, 563.4882
401.9919, 556.9623
402.4740, 548.3618
402.9561, 541.4387
403.4383, 535.9794
403.9204, 536.1234
404.4025, 549.3740
404.8846, 559.5252
405.3667, 557.6862
405.8488, 548.7521
406.3310, 541.8023
406.8131, 541.1495
407.2952, 544.2199
407.7773, 545.6823
408.2594, 545.8934
408.7415, 543.5390
409.2237, 535.7252
409.7058, 527.8080
410.1879, 522.2851
410.6700, 519.5782
411.1521, 519.6414
411.6342, 523.1628
412.1164, 529.4344
412.5985, 536.4909
413.0806, 546.1442
413.5627, 551.6080
414.0448, 544.3583
414.5269, 532.5450
415.0091, 526.4706
415.4912, 529.1818
415.9733, 534.2447
416.4554, 537.8994
416.9375, 540.3713
417.4196, 542.4617
417.9018, 544.4720
418.3839, 545.6224
418.8660, 544.8745
419.3481, 541.9879
419.8302, 538.8970
420.3123, 534.4680
420.7945, 530.9399
421.2766, 531.4294
421.7587, 534.0092
422.2408, 532.7022
422.7229, 523.8265
423.2050, 511.5141
423.6872, 507.9147
424.1693, 521.1095
424.6514, 529.9481
425.1335, 529.4908
425.6156, 527.8795
426.0977, 532.0339
426.5799, 541.5168
427.0620, 549.9313
427.5441, 551.6575
428.0262, 547.4485
428.5083, 542.6110
428.9904, 536.9421
429.4726, 531.0573
429.9547, 523.1826
430.4368, 516.0502
430.9189, 513.8237
431.4010, 518.5714
431.8831, 524.2039
432.3653, 524.6433
432.8474, 521.7715
433.3295, 523.1603
433.8116, 531.6652
434.2937, 539.9420
434.7758, 539.5989
435.2580, 530.3246
435.7401, 522.9498
436.2222, 518.7078
436.7043, 515.8539
437.1864, 513.2034
437.6685, 511.1316
438.1507, 511.2779
438.6328, 514.5956
439.1149, 518.9254
439.5970, 519.0696
440.0791, 510.5125
440.5612, 505.9887
441.0434, 507.0025
441.5255, 510.3089
442.0076, 516.2169
442.4897, 523.0158
442.9718, 525.7997
443.4539, 518.7977
443.9361, 506.2467
444.4182, 505.1508
444.9003, 520.2171
445.3824, 533.1966
445.8645, 536.9956
446.3466, 535.3492
446.8288, 530.0702
447.3109, 520.7220
447.7930, 513.3526
448.2751, 512.8350
448.7572, 516.7180
449.2393, 520.8442
449.7215, 524.8244
450.2036, 526.2399
450.6857, 521.7792
451.1678, 512.3220
451.6499, 508.4698
452.1320, 514.7236
452.6142, 520.8801
453.0963, 522.7098
453.5784, 522.6113
454.0605, 524.6117
454.5426, 529.7962
455.0247, 535.2780
455.5069, 537.1771
455.9890, 535.0225
456.4711, 531.3730
456.9532, 524.2277
457.4353, 517.5404
457.9174, 511.8122
458.3996, 507.5461
458.8817, 505.6277
459.3638, 506.7119
459.8459, 509.4193
460.3280, 511.8864
460.8102, 514.1046
461.2923, 516.6989
461.7744, 521.4110
462.2565, 524.4012
462.7386, 520.2399
463.2207, 509.7018
463.7029, 501.4153
464.1850, 497.0511
464.6671, 496.4243
465.1492, 502.1513
465.6313, 512.2554
466.1134, 518.4376
466.5956, 516.0019
467.0777, 508.3217
467.5598, 503.6154
468.0419, 502.9574
468.5240, 503.9276
469.0061, 508.9193
469.4883, 513.6082
469.9704, 514.5004
470.4525, 512.1158
470.9346, 509.2393
471.4167, 507.6646
471.8988, 507.4493
472.3810, 509.6487
472.8631, 516.5037
473.3452, 519.9178
473.8273, 511.7140
474.3094, 502.4233
474.7915, 502.5765
475.2737, 513.3945
475.7558, 521.7172
476.2379, 515.6721
476.7200, 503.3047
477.2021, 500.9522
477.6842, 510.0453
478.1664, 518.2092
478.6485, 517.2296
479.1306, 509.0800
479.6127, 502.7223
480.0948, 497.8963
480.5769, 494.8704
481.0591, 493.4427
481.5412, 493.9565
482.0233, 497.9075
482.5054, 504.8617
482.9875, 511.5694
483.4696, 515.1424
483.9518, 515.6246
484.4339, 513.9365
484.9160, 508.6972
485.3981, 503.3309
485.8802, 496.8295
486.3623, 491.6531
486.8445, 490.8674
487.3266, 495.2714
487.8087, 501.3521
488.2908, 507.1832
488.7729, 512.3640
489.2550, 515.2744
489.7372, 515.4641
490.2193, 514.9314
490.7014, 515.2379
491.1835, 515.9947
491.6656, 515.4099
492.1477, 513.7905
492.6299, 510.4971
493.1120, 502.2288
493.5941, 493.4959
494.0762, 490.5638
494.5583, 494.6212
495.0404, 502.0064
495.5226, 509.4357
496.0047, 517.0914
496.4868, 520.7214
496.9689, 517.5189
497.4510, 513.6055
497.9331, 509.8673
498.4153, 506.5242
498.8974, 503.9036
499.3795, 502.0972
499.8616, 500.4213
500.3437, 498.0595
500.8258, 495.2152
501.3080, 492.2776
501.7901, 488.5976
502.2722, 487.5806
502.7543, 494.0337
503.2364, 505.3765
503.7185, 510.5421
504.2007, 505.1088
504.6828, 498.6893
505.1649, 492.2023
505.6470, 487.9627
506.1291, 491.7000
506.6112, 503.5440
507.0934, 513.9258
507.5755, 511.8408
508.0576, 496.9243
508.5397, 488.8025
509.0218, 493.5121
509.5039, 497.4465
509.9861, 496.6574
510.4682, 493.9937
510.9503, 493.1796
511.4324, 495.1134
511.9145, 496.2157
512.3967, 491.4470
512.8788, 482.9684
513.3609, 479.7358
513.8430, 483.4802
514.3251, 487.5182
514.8073, 487.0373
515.2894, 483.5095
515.7715, 482.7577
516.2536, 487.8112
516.7357, 490.9733
517.2178, 487.8688
517.7000, 482.7098
518.1821, 480.7708
518.6642, 482.5352
519.1463, 484.6380
519.6284, 484.1173
520.1105, 481.1661
520.5927, 477.3794
521.0748, 469.5982
521.5569, 466.3220
522.0390, 472.4606
522.5211, 481.3221
523.0032, 487.3566
523.4854, 489.6652
523.9675, 490.1749
524.4496, 488.9695
524.9317, 487.2457
525.4138, 488.4736
525.8959, 492.9623
526.3781, 495.5220
526.8602, 493.0536
527.3423, 487.0266
527.8244, 480.8324
528.3065, 471.4709
528.7886, 467.9886
529.2708, 477.1533
529.7529, 488.4019
530.2350, 493.4265
530.7171, 492.4142
531.1992, 489.6183
531.6813, 487.6806
532.1635, 486.4639
532.6456, 485.5569
533.1277, 484.8747
533.6098, 484.7860
534.0919, 486.7384
534.5740, 488.1203
535.0562, 485.5413
535.5383, 480.0256
536.0204, 477.8576
536.5025, 486.1808
536.9846, 495.9387
537.4667, 496.1055
537.9489, 488.5825
538.4310, 481.5644
538.9131, 477.9553
539.3952, 477.1886
539.8773, 478.5747
540.3594, 482.6944
540.8416, 487.0834
541.3237, 494.6829
541.8058, 499.4971
542.2879, 495.7902
542.7700, 488.3559
543.2521, 486.3315
543.7343, 493.6764
544.2164, 502.1725
544.6985, 498.9797
545.1806, 484.5292
545.6627, 473.6687
546.1448, 467.9419
546.6270, 465.6907
547.1091, 467.4425
547.5912, 471.7736
548.0733, 475.0481
548.5554, 476.7385
549.0375, 477.5913
549.5197, 477.7172
550.0018, 477.3020
550.4839, 475.3272
550.9660, 472.2213
551.4481, 472.4462
551.9302, 481.2029
552.4124, 497.0706
552.8945, 504.1745
553.3766, 497.4776
553.8587, 489.7791
554.3408, 481.5430
554.8229, 474.7863
555.3051, 471.3385
555.7872, 471.3009
556.2693, 473.0969
556.7514, 477.5779
557.2335, 482.4718
557.7156, 483.2035
558.1978, 479.9484
558.6799, 476.5984
559.1620, 474.7479
559.6441, 473.8658
560.1262, 472.8002
560.6083, 470.5314
561.0905, 471.0469
561.5726, 478.4057
562.0547, 484.7091
562.5368, 484.2751
563.0189, 479.6632
563.5010, 476.3448
563.9832, 476.8265
564.4653, 479.1558
564.9474, 480.2886
565.4295, 480.1643
565.9116, 481.3199
566.3937, 485.6603
566.8759, 488.2614
567.3580, 483.6835
567.8401, 474.8753
568.3222, 468.5114
568.8043, 465.2288
569.2864, 464.7335
569.7686, 468.9094
570.2507, 474.9131
570.7328, 478.9492
571.2149, 480.4276
571.6970, 480.6212
572.1791, 480.5540
572.6613, 480.1556
573.1434, 478.7195
573.6255, 474.4455
574.1076, 472.5827
574.5897, 475.6529
575.0718, 480.1182
575.5540, 484.6931
576.0361, 488.6829
576.5182, 489.5531
577.0003, 483.6920
577.4824, 475.4722
577.9645, 469.4724
578.4467, 465.8032
578.9288, 465.6992
579.4109, 470.1851
579.8930, 475.5044
580.3751, 476.0738
580.8572, 470.2971
581.3394, 467.7279
581.8215, 471.6413
582.3036, 474.5979
582.7857, 472.1830
583.2678, 468.1504
583.7499, 468.4251
584.2321, 474.5150
584.7142, 480.7006
585.1963, 479.2962
585.6783, 472.7907
586.1605, 473.7511
586.6426, 484.5364
587.1247, 490.6885
587.6068, 481.8709
588.0889, 464.9419
588.5710, 456.7610
589.0532, 459.9761
589.5353, 463.4370
590.0174, 467.0584
590.4995, 468.9907
590.9816, 465.4761
591.4637, 459.1356
591.9459, 457.6989
592.4280, 465.7747
592.9101, 476.3159
593.3922, 474.0590
593.8743, 457.1560
594.3564, 448.7415
594.8386, 455.3470
595.3207, 464.2677
595.8028, 466.9211
596.2849, 465.3940
596.7670, 463.9723
597.2491, 461.5435
597.7313, 462.0689
598.2134, 472.1628
598.6955, 483.8138
599.1776, 484.9473
599.6597, 475.4263
600.1418, 465.2588
600.6240, 462.2675
601.1061, 464.3911
601.5882, 463.0216
602.0703, 456.3543
602.5524, 450.7994
603.0345, 444.7570
603.5167, 442.6229
603.9988, 450.1386
604.4809, 464.6794
604.9630, 475.6157
605.4451, 478.3624
605.9272, 477.0057
606.4094, 471.3867
606.8915, 464.7084
607.3736, 466.3568
607.8557, 478.3312
608.3378, 489.7677
608.8199, 488.9185
609.3021, 476.4561
609.7842, 468.9257
610.2663, 468.5991
610.7484, 469.9468
611.2305, 472.8255
611.7126, 476.2393
612.1948, 480.6765
612.6769, 485.4748
613.1590, 486.7583
613.6411, 478.0635
614.1232, 467.4744
614.6053, 466.8843
615.0875, 474.1643
615.5696, 479.2322
616.0517, 478.6674
616.5338, 475.7695
617.0159, 474.6083
617.4980, 475.3922
617.9802, 476.0024
618.4623, 477.3079
618.9444, 477.3707
619.4265, 474.4218
619.9086, 470.7700
620.3907, 468.6768
620.8729, 468.5859
621.3550, 469.8604
621.8371, 474.4919
622.3192, 479.1754
622.8013, 475.9700
623.2834, 465.5383
623.7656, 457.5602
624.2477, 456.0130
624.7298, 458.0054
625.2119, 459.2929
625.6940, 459.3785
626.1761, 461.0043
626.6583, 465.4153
627.1404, 469.7543
627.6225, 474.4620
628.1046, 477.9074
628.5867, 477.4881
629.0688, 472.7755
629.5510, 467.2639
630.0331, 462.9539
630.5152, 460.2680
630.9973, 461.0635
631.4794, 465.3573
631.9615, 468.9754
632.4437, 470.0433
632.9258, 469.6191
633.4079, 469.6632
633.8900, 471.0833
634.3721, 469.6114
634.8542, 462.0757
635.3364, 455.2709
635.8185, 450.7781
636.3006, 449.2555
636.7827, 452.5127
637.2648, 460.7712
637.7469, 468.9269
638.2291, 471.8089
638.7112, 470.7776
639.1933, 469.2411
639.6754, 467.2621
640.1575, 466.3048
640.6396, 467.0987
641.1218, 469.1667
641.6039, 471.8969
642.0860, 476.0335
642.5681, 478.3930
643.0502, 478.9210
643.5323, 477.8172
644.0145, 473.6927
644.4966, 468.5904
644.9787, 465.5598
645.4608, 465.3965
645.9429, 465.7747
646.4250, 463.3029
646.9072, 459.8392
647.3893, 462.2526
647.8714, 470.8300
648.3535, 475.7442
648.8356, 471.3618
649.3177, 463.3730
649.7999, 461.9342
650.2820, 470.4048
650.7641, 473.6485
651.2462, 465.3930
651.7283, 459.1605
652.2104, 462.3793
652.6926, 469.8170
653.1747, 474.7680
653.6568, 475.3750
654.1389, 473.1017
654.6210, 466.2210
655.1031, 458.2125
655.5853, 458.4326
656.0674, 466.7172
656.5495, 474.1317
657.0316, 477.2719
657.5137, 477.0577
657.9958, 474.7013
658.4780, 469.9266
658.9601, 464.2591
659.4422, 454.1376
659.9243, 447.3893
660.4064, 447.9371
660.8885, 452.2069
661.3707, 456.4340
661.8528, 459.7540
662.3349, 462.4140
662.8170, 465.2861
663.2991, 467.2879
663.7813, 465.2559
664.2634, 460.0338
664.7455, 457.9395
665.2276, 461.6721
665.7097, 466.4460
666.1918, 465.7895
666.6740, 459.1271
667.1561, 452.7529
667.6382, 443.5982
668.1203, 438.8055
668.6024, 443.3645
669.0845, 450.5011
669.5667, 453.0163
670.0488, 450.6965
670.5309, 450.0023
671.0130, 456.9913
671.4951, 465.4142
671.9772, 469.1877
672.4594, 468.6017
672.9415, 463.3867
673.4236, 453.5404
673.9057, 443.7780
674.3878, 438.8970
674.8699, 438.7994
675.3521, 442.3733
675.8342, 453.0063
676.3163, 460.9729
676.7984, 463.0630
677.2805, 462.7340
677.7626, 461.8218
678.2448, 460.5505
678.7269, 459.3000
679.2090, 457.9227
679.6911, 456.9195
680.1732, 456.8583
680.6553, 457.3166
681.1375, 458.0673
681.6196, 458.8077
682.1017, 457.8744
682.5838, 453.3591
683.0659, 447.1721
683.5480, 447.5755
684.0302, 457.6379
684.5123, 460.6513
684.9944, 448.5511
685.4765, 435.9226
685.9586, 435.4320
686.4407, 443.2556
686.9229, 448.2903
687.4050, 446.6449
687.8871, 446.3907
688.3692, 453.8094
688.8513, 461.3867
689.3334, 459.6260
689.8156, 450.7861
690.2977, 445.3266
690.7798, 449.4703
691.2619, 456.8260
691.7440, 455.3848
692.2261, 445.8588
692.7083, 441.8456
693.1904, 445.9389
693.6725, 450.2425
694.1546, 450.0061
694.6367, 446.7262
695.1188, 444.0150
695.6010, 440.8707
696.0831, 440.5846
696.5652, 445.7043
697.0473, 451.3550
697.5294, 455.2140
698.0115, 457.6707
698.4937, 460.0848
698.9758, 462.8789
699.4579, 463.8415
699.9400, 458.4875
700.4221, 450.6402
700.9042, 449.8577
701.3864, 455.8120
701.8685, 460.2027
702.3506, 459.4137
702.8327, 456.6017
703.3148, 456.6782
703.7969, 460.4930
704.2791, 460.5077
704.7612, 452.6205
705.2433, 446.4386
705.7254, 444.0115
706.2075, 444.3147
706.6896, 447.7546
707.1718, 453.7433
707.6539, 457.4315
708.1360, 454.5788
708.6181, 450.5805
709.1002, 450.7246
709.5823, 452.8685
710.0645, 452.7275
710.5466, 449.4485
711.0287, 444.6721
711.5108, 439.5109
711.9929, 434.4189
712.4750, 430.9525
712.9572, 428.9914
713.4393, 429.2379
713.9214, 431.8398
714.4035, 436.7166
714.8856, 446.6122
715.3677, 458.9488
715.8499, 464.1298
716.3320, 456.2555
716.8141, 449.9681
717.2962, 448.3781
717.7783, 450.1244
718.2604, 457.6777
718.7426, 467.3588
719.2247, 469.8969
719.7068, 460.5082
720.1889, 448.2330
720.6710, 444.0595
721.1531, 446.1858
721.6353, 447.9940
722.1174, 448.9837
722.5995, 452.3618
723.0816, 461.0621
723.5637, 469.7126
724.0458, 467.4976
724.5280, 450.1626
725.0101, 438.9918
725.4922, 438.3053
725.9743, 438.9597
726.4564, 438.4071
726.9385, 438.2128
727.4207, 441.2050
727.9028, 447.3332
728.3849, 451.2132
728.8670, 446.6314
729.3491, 442.0186
729.8312, 448.5099
730.3134, 459.5277
730.7955, 459.9416
731.2776, 447.4491
731.7597, 434.2789
732.2418, 430.9009
732.7239, 435.4435
733.2061, 443.3426
733.6882, 456.2660
734.1703, 459.8807
734.6524, 447.1473
735.1345, 433.3327
735.6166, 430.7859
736.0988, 436.9846
736.5809, 439.9015
737.0630, 435.0894
737.5451, 434.4609
738.0272, 445.2827
738.5093, 455.5431
738.9915, 456.1334
739.4736, 450.1445
739.9557, 445.0063
740.4378, 443.3920
740.9199, 442.5191
741.4020, 438.8947
741.8842, 434.5941
742.3663, 434.2610
742.8484, 437.5664
743.3305, 441.1901
743.8126, 443.9130
744.2947, 445.0202
744.7769, 443.1243
745.2590, 438.0839
745.7411, 435.0351
746.2232, 435.1707
746.7053, 434.8734
747.1874, 432.9247
747.6696, 430.3604
748.1517, 427.6509
748.6338, 424.9818
749.1159, 423.5922
749.5980, 424.8820
750.0801, 426.0767
750.5623, 425.7044
751.0444, 424.9302
751.5265, 424.5682
752.0086, 424.9971
752.4907, 426.8922
752.9728, 430.7945
753.4550, 435.5919
753.9371, 440.4657
754.4192, 444.9745
754.9013, 446.9416
755.3834, 446.1489
755.8655, 444.2726
756.3477, 441.9048
756.8298, 439.7568
757.3119, 439.1806
757.7940, 440.2871
758.2761, 442.5737
758.7582, 448.4286
759.2404, 452.1362
759.7225, 451.5011
760.2046, 448.3039
760.6867, 443.4556
761.1688, 437.2221
761.6509, 432.5823
762.1331, 430.5651
762.6152, 430.3358
763.0973, 432.6209
763.5794, 435.7593
764.0615, 437.7748
764.5436, 438.2969
765.0258, 437.5743
765.5079, 435.5558
765.9900, 433.0189
766.4721, 431.3234
766.9542, 430.4028
767.4363, 429.5396
767.9185, 428.5357
768.4006, 429.1452
768.8827, 432.9094
769.3648, 438.2188
769.8469, 441.2559
770.3290, 441.5442
770.8112, 441.0278
771.2933, 438.8042
771.7754, 436.8770
772.2575, 436.5222
772.7396, 436.4076
773.2217, 434.6383
773.7039, 431.0640
774.1860, 428.3283
774.6681, 426.5517
775.1502, 426.7198
775.6323, 431.7571
776.1144, 437.9913
776.5966, 439.1218
777.0787, 435.3303
777.5608, 433.2717
778.0429, 438.2169
778.5250, 445.6460
779.0071, 447.2769
779.4893, 444.0423
779.9714, 441.3992
780.4535, 440.0912
780.9356, 438.2709
781.4177, 434.5107
781.8998, 430.2262
782.3820, 428.9715
782.8641, 432.3702
783.3462, 432.7747
783.8283, 427.0567
784.3104, 422.7725
784.7925, 423.7025
785.2747, 426.5976
785.7568, 427.5672
786.2389, 426.4588
786.7210, 427.4875
787.2031, 435.4930
787.6852, 441.4737
788.1674, 439.7817
788.6495, 434.3679
789.1316, 429.0598
789.6137, 424.7369
790.0958, 421.2084
790.5779, 418.0677
791.0601, 416.6892
791.5422, 420.0652
792.0243, 426.5763
792.5064, 431.8688
792.9885, 435.4154
793.4706, 436.5508
793.9528, 434.7511
794.4349, 431.4054
794.9170, 428.5206
795.3991, 425.8975
795.8812, 426.3582
796.3633, 432.0473
796.8455, 435.6198
797.3276, 433.1926
797.8097, 429.0288
798.2918, 428.2872
798.7739, 430.5924
799.2560, 431.5194
799.7382, 430.4167
800.2203, 428.3989
800.7024, 423.8615
801.1845, 420.0797
801.6666, 420.1556
802.1487, 423.2318
802.6309, 426.7761
803.1130, 430.0144
803.5951, 432.5076
804.0772, 434.5016
804.5593, 435.1771
805.0414, 431.9160
805.5236, 426.1702
806.0057, 423.0275
806.4878, 424.3190
806.9699, 427.8524
807.4520, 431.8599
807.9341, 435.7994
808.4163, 436.3848
808.8984, 433.3405
809.3805, 430.9934
809.8626, 430.5065
810.3447, 430.4316
810.8268, 429.7053
811.3090, 428.3337
811.7911, 426.1713
812.2732, 420.7105
812.7553, 419.0045
813.2374, 423.8500
813.7195, 429.5114
814.2017, 434.6301
814.6838, 438.5830
815.1659, 440.1895
815.6480, 439.1052
816.1301, 437.9885
816.6122, 437.5175
817.0944, 437.5026
817.5765, 439.5501
818.0586, 441.0695
818.5407, 436.9001
819.0228, 427.8003
819.5049, 421.2432
819.9871, 422.6331
820.4692, 427.3969
820.9513, 429.7218
821.4334, 430.4011
821.9155, 431.8188
822.3976, 434.0752
822.8798, 435.3506
823.3619, 434.6455
823.8440, 432.6806
824.3261, 429.9200
824.8082, 426.2588
825.2903, 427.9179
825.7725, 437.4492
826.2546, 441.7598
826.7367, 433.6819
827.2188, 423.7527
827.7009, 423.6957
828.1830, 432.9347
828.6652, 440.0458
829.1473, 446.0298
829.6294, 448.3435
830.1115, 443.8091
830.5936, 438.4549
831.0757, 435.6609
831.5579, 434.6757
832.0400, 433.7679
832.5221, 432.6194
833.0042, 431.3230
833.4863, 429.1421
833.9684, 427.5863
834.4506, 428.5504
834.9327, 430.6297
835.4148, 431.6780
835.8969, 431.2217
836.3790, 429.7851
836.8611, 427.3691
837.3433, 424.7906
837.8254, 422.5213
838.3075, 421.1526
838.7896, 423.7370
839.2717, 429.9982
839.7538, 433.4696
840.2360, 430.1547
840.7181, 424.6934
841.2002, 426.4837
841.6823, 435.7104
842.1644, 437.2040
842.6465, 428.9110
843.1287, 422.3322
843.6108, 421.6428
844.0929, 423.2263
844.5750, 422.8595
845.0571, 420.9153
845.5392, 422.9871
846.0214, 434.5856
846.5035, 441.2391
846.9856, 438.5023
847.4677, 434.3692
847.9498, 433.8030
848.4319, 434.4838
848.9141, 431.1440
849.3962, 421.8219
849.8783, 415.9816
850.3604, 417.0772
850.8425, 421.7580
851.3246, 434.4280
851.8068, 445.9314
852.2889, 440.7234
852.7710, 420.8891
853.2531, 407.3943
853.7352, 414.0520
854.2173, 426.7142
854.6995, 432.5416
855.1816, 433.9922
855.6637, 434.8762
856.1458, 435.5243
856.6279, 434.9971
857.1100, 432.8893
857.5922, 430.3167
858.0743, 428.2462
858.5564, 426.9368
859.0385, 426.8797
859.5206, 428.1714
860.0027, 435.3509
860.4849, 450.6411
860.9670, 462.6432
861.4491, 461.1779
861.9312, 449.7774
862.4133, 440.5529
862.8954, 432.8670
863.3776, 430.3669
863.8597, 435.7578
864.3418, 441.3712
864.8239, 444.4072
865.3060, 445.1918
865.7881, 444.1307
866.2703, 441.1389
866.7524, 436.6189
867.2345, 425.2908
867.7166, 419.6296
868.1987, 427.2483
868.6808, 436.7578
869.1630, 439.4860
869.6451, 437.1385
870.1272, 435.8925
870.6093, 437.8217
871.0914, 438.5208
871.5735, 434.1483
872.0557, 429.9171
872.5378, 430.8089
873.0199, 433.9314
873.5020, 434.0222
873.9841, 430.5365
874.4662, 428.1274
874.9484, 431.4565
875.4305, 434.6492
875.9126, 429.4955
876.3947, 420.4016
876.8768, 414.8353
877.3589, 413.6379
877.8411, 416.1046
878.3232, 421.9099
878.8053, 428.4249
879.2874, 432.7104
879.7695, 434.7916
880.2516, 434.0053
880.7338, 430.6401
881.2159, 428.0147
881.6980, 426.9747
882.1801, 427.7165
882.6622, 431.0669
883.1443, 435.0584
883.6265, 432.8542
884.1086, 423.2050
884.5907, 415.4943
885.0728, 409.9109
885.5549, 407.2933
886.0370, 408.2207
886.5192, 412.0862
887.0013, 419.0224
887.4834, 429.2656
887.9655, 434.9237
888.4476, 433.6916
888.9297, 431.5819
889.4119, 427.0625
889.8940, 424.1675
890.3761, 427.6794
890.8582, 433.9368
891.3403, 434.3189
891.8224, 425.8994
892.3046, 420.3497
892.7867, 423.0095
893.2688, 424.9202
893.7509, 420.5394
894.2330, 414.5207
894.7151, 410.6512
895.1973, 409.9600
895.6794, 414.3708
896.1615, 428.0074
896.6436, 439.5703
897.1257, 441.6708
897.6078, 439.5814
898.0900, 436.8675
898.5721, 434.4430
899.0542, 432.9130
899.5363, 432.4967
900.0184, 433.5372
900.5005, 439.3259
900.9827, 443.5588
901.4648, 434.3990
901.9469, 419.3223
902.4290, 413.4821
902.9111, 417.7412
903.3932, 425.4611
903.8754, 433.4714
904.3575, 438.4619
904.8396, 433.3886
905.3217, 422.1630
905.8038, 418.0478
906.2859, 420.4442
906.7681, 424.0199
907.2502, 427.3597
907.7323, 428.9721
908.2144, 427.4213
908.6965, 423.7984
909.1786, 419.9904
909.6608, 415.8805
910.1429, 417.8232
910.6250, 427.4804
911.1071, 434.4681
911.5892, 433.8886
912.0714, 431.1850
912.5535, 433.4603
913.0356, 439.9950
913.5177, 441.2704
913.9998, 433.8089
914.4819, 431.8036
914.9641, 439.9228
915.4462, 448.4811
915.9283, 453.3312
916.4104, 454.1393
916.8925, 449.1048
917.3746, 436.0451
917.8568, 428.6525
918.3389, 431.5436
918.8210, 433.6890
919.3031, 432.8962
919.7852, 430.8894
920.2673, 427.4673
920.7495, 423.9375
921.2316, 424.3343
921.7137, 431.1503
922.1958, 435.8714
922.6779, 435.8928
923.1600, 434.9057
923.6422, 435.8850
924.1243, 435.8107
924.6064, 428.6669
925.0885, 416.3322
925.5706, 410.7052
926.0527, 419.9409
926.5349, 427.9828
927.0170, 425.5599
927.4991, 421.4690
927.9812, 422.9443
928.4633, 427.7509
928.9454, 432.1304
929.4276, 434.9354
929.9097, 434.9675
930.3918, 428.6223
930.8739, 422.8638
931.3560, 424.0671
931.8381, 428.4232
932.3203, 432.8392
932.8024, 435.6903
933.2845, 433.4577
933.7666, 424.9453
934.2487, 416.9224
934.7308, 415.6433
935.2130, 417.9897
935.6951, 420.6847
936.1772, 423.4175
936.6593, 426.6487
937.1414, 429.6072
937.6235, 427.8590
938.1057, 418.5598
938.5878, 408.9510
939.0699, 409.4746
939.5520, 416.2495
940.0341, 420.1778
940.5162, 421.4919
940.9984, 422.2657
941.4805, 423.0279
941.9626, 423.2541
942.4447, 422.3679
942.9268, 421.4704
943.4089, 423.1237
943.8911, 426.8107
944.3732, 429.7407
944.8553, 431.7151
945.3374, 431.3001
945.8195, 427.8772
946.3016, 424.7585
946.7838, 425.1284
947.2659, 428.5009
947.7480, 435.3594
948.2301, 445.8198
948.7122, 444.7360
949.1943, 429.2180
949.6765, 417.2722
950.1586, 417.3538
950.6407, 422.1301
951.1228, 422.4077
951.6049, 418.8254
952.0870, 416.9053
952.5692, 416.9037
953.0513, 417.1359
953.5334, 417.3480
954.0155, 417.9845
954.4976, 419.4981
954.9797, 421.1313
955.4619, 421.2929
955.9440, 419.8253
956.4261, 421.7518
956.9082, 429.5643
957.3903, 433.4601
957.8724, 430.3795
958.3546, 425.6087
958.8367, 422.5212
959.3188, 420.0705
959.8009, 415.5902
960.2830, 407.9906
960.7651, 404.2146
961.2473, 405.0142
961.7294, 408.3982
962.2115, 415.4384
962.6936, 423.1724
963.1757, 430.1225
963.6578, 435.8491
964.1400, 439.3346
964.6221, 442.1374
965.1042, 438.1601
965.5863, 416.0002
966.0684, 402.4352
966.5505, 411.3882
967.0327, 425.5672
967.5148, 431.7981
967.9969, 431.3632
968.4790, 429.8128
968.9611, 426.5432
969.4432, 423.8955
969.9254, 421.1061
970.4075, 420.0464
970.8896, 422.7899
971.3717, 426.5081
971.8538, 429.0773
972.3359, 430.2174
972.8181, 428.8743
973.3002, 421.5120
973.7823, 418.1400
974.2644, 423.7076
974.7465, 429.4866
975.2286, 431.6494
975.7108, 431.6823
976.1929, 430.4907
976.6750, 428.6688
977.1571, 429.3797
977.6392, 436.2184
978.1213, 440.6943
978.6035, 440.8515
979.0856, 438.1580
979.5677, 428.9382
980.0498, 419.9894
980.5319, 423.3938
981.0140, 438.2963
981.4962, 444.7102
981.9783, 427.9719
982.4604, 415.9627
982.9425, 423.0158
983.4246, 431.4784
983.9067, 426.7431
984.3889, 417.0677
984.8710, 416.6862
985.3531, 426.9302
985.8352, 436.0455
986.3173, 441.7985
986.7994, 443.5823
987.2816, 437.5083
987.7637, 430.9214
988.2458, 429.8466
988.7279, 431.8948
989.2100, 432.4357
989.6921, 430.7542
990.1743, 429.6774
990.6564, 430.3080
991.1385, 431.7160
991.6206, 435.3676
992.1027, 437.9177
992.5848, 436.2640
993.0670, 431.6024
993.5491, 424.5123
994.0312, 415.5084
994.5133, 413.0113
994.9954, 429.1522
995.4775, 441.4247
995.9597, 435.0096
996.4418, 423.8289
996.9239, 418.5751
997.4060, 418.5616
997.8881, 421.6031
998.3702, 427.0125
998.8524, 429.5818
999.3345, 424.5478
999.8166, 419.2806
1000.299, 419.2188
1000.781, 419.1236
1001.263, 409.9318
1001.745, 398.4388
1002.227, 400.8835
1002.709, 420.4499
1003.191, 435.6555
1003.674, 432.4051
1004.156, 428.0114
1004.638, 433.1935
1005.120, 439.5894
1005.602, 439.6083
1006.084, 434.8213
1006.566, 428.7277
1007.048, 422.2166
1007.530, 418.7037
1008.013, 421.2110
1008.495, 425.0713
1008.977, 429.8257
1009.459, 433.2098
1009.941, 432.1319
1010.423, 428.5357
1010.905, 426.3069
1011.387, 426.2742
1011.870, 426.7120
1012.352, 427.8544
1012.834, 428.1032
1013.316, 426.0054
1013.798, 423.3338
1014.280, 420.8640
1014.762, 419.2610
1015.244, 419.6707
1015.726, 422.2869
1016.209, 425.3323
1016.691, 430.4419
1017.173, 432.8243
1017.655, 428.1440
1018.137, 422.1852
1018.619, 417.7119
1019.101, 416.0664
1019.583, 419.8811
1020.065, 429.3996
1020.548, 437.7583
1021.030, 445.4476
1021.512, 447.9436
1021.994, 436.4602
1022.476, 426.3897
1022.958, 432.7655
1023.440, 446.2796
1023.922, 450.2470
1024.405, 442.8708
1024.887, 436.8057
1025.369, 434.4288
1025.851, 435.0591
1026.333, 444.4133
1026.815, 450.4984
1027.297, 441.4820
1027.779, 426.7253
1028.261, 419.9923
1028.744, 422.4246
1029.226, 427.6411
1029.708, 438.1720
1030.190, 445.9619
1030.672, 451.4072
1031.154, 451.6141
1031.636, 440.8405
1032.118, 426.4975
1032.601, 417.5914
1033.083, 414.4779
1033.565, 414.0542
1034.047, 415.5634
1034.529, 420.4043
1035.011, 435.8315
1035.493, 446.1764
1035.975, 441.7026
1036.458, 430.7681
1036.940, 421.4978
1037.422, 414.1530
1037.904, 409.1617
1038.386, 403.5172
1038.868, 405.4161
1039.350, 420.8369
1039.832, 435.8972
1040.314, 449.5974
1040.797, 457.3527
1041.279, 451.7856
1041.761, 436.1340
1042.243, 426.3926
1042.725, 423.2779
1043.207, 424.7008
1043.689, 434.4855
1044.171, 441.5805
1044.653, 442.3369
1045.136, 439.7332
1045.618, 435.5246
1046.100, 430.3727
1046.582, 426.4807
1047.064, 423.8778
1047.546, 422.3231
1048.028, 421.4785
1048.510, 423.0887
1048.993, 428.8793
1049.475, 433.9156
1049.957, 434.2863
1050.439, 431.8348
1050.921, 430.8431
1051.403, 431.5226
1051.885, 429.2420
1052.367, 422.5933
1052.849, 422.5061
1053.332, 432.4891
1053.814, 442.3361
1054.296, 445.6881
1054.778, 445.2958
1055.260, 445.8975
1055.742, 447.0761
1056.224, 444.3401
1056.706, 437.6643
1057.188, 429.1674
1057.671, 419.0316
1058.153, 415.9835
1058.635, 425.0037
1059.117, 436.8238
1059.599, 440.0771
1060.081, 436.4431
1060.563, 428.7204
1061.045, 418.7827
1061.528, 420.7351
1062.010, 433.9554
1062.492, 439.4344
1062.974, 430.1010
1063.456, 418.7133
1063.938, 416.9450
1064.420, 421.8112
1064.902, 430.6034
1065.385, 440.6503
1065.867, 445.1097
1066.349, 444.1756
1066.831, 438.3107
1067.313, 429.0892
1067.795, 427.1358
1068.277, 443.0744
1068.759, 458.1250
1069.241, 443.4643
1069.724, 418.6856
1070.206, 413.2234
1070.688, 420.8821
1071.170, 426.7874
1071.652, 428.2040
1072.134, 429.2363
1072.616, 432.2371
1073.098, 433.0004
1073.580, 423.5214
1074.063, 415.2927
1074.545, 422.5392
1075.027, 434.8137
1075.509, 436.8992
1075.991, 430.9356
1076.473, 428.8296
1076.955, 434.5472
1077.437, 439.0199
1077.920, 436.9664
1078.402, 434.0417
1078.884, 433.7149
1079.366, 433.1589
1079.848, 426.1119
1080.330, 418.4475
1080.812, 424.1853
1081.294, 445.4397
1081.776, 458.2154
1082.259, 452.4955
1082.741, 445.1918
1083.223, 436.3001
1083.705, 430.5504
1084.187, 431.6842
1084.669, 436.5999
1085.151, 442.4129
1085.633, 448.7229
1086.115, 452.1620
1086.598, 452.3330
1087.080, 450.3047
1087.562, 445.3074
1088.044, 439.1709
1088.526, 429.9807
1089.008, 424.0317
1089.490, 428.8710
1089.972, 439.8221
1090.454, 441.6103
1090.937, 431.9411
1091.419, 429.0357
1091.901, 434.4101
1092.383, 439.0380
1092.865, 440.9967
1093.347, 441.7442
1093.829, 442.3618
1094.311, 441.5515
1094.794, 436.0387
1095.276, 427.3254
1095.758, 426.8398
1096.240, 433.4992
1096.722, 432.7742
1097.204, 423.4555
1097.686, 416.7527
1098.168, 417.4423
1098.651, 422.1638
1099.133, 428.2473
1099.615, 434.7187
1100.097, 441.9994
1100.579, 447.3604
1101.061, 439.8181
1101.543, 424.4800
1102.025, 420.4576
1102.507, 430.7430
1102.990, 440.1198
1103.472, 438.9709
1103.954, 435.0689
1104.436, 434.5165
1104.918, 436.2287
1105.400, 442.0128
1105.882, 447.4670
1106.364, 443.3855
1106.846, 432.8245
1107.329, 429.2858
1107.811, 438.1489
1108.293, 444.6694
1108.775, 438.9597
1109.257, 433.0267
1109.739, 434.8176
1110.221, 436.8886
1110.703, 430.2584
1111.186, 420.5794
1111.668, 419.7252
1112.150, 428.8813
1112.632, 433.7710
1113.114, 425.7885
1113.596, 424.1101
1114.078, 438.5425
1114.560, 449.3122
1115.042, 445.7979
1115.525, 438.9220
1116.007, 439.9201
1116.489, 446.6656
1116.971, 450.6386
1117.453, 451.6552
1117.935, 450.3055
1118.417, 445.9427
1118.899, 441.7051
1119.381, 438.1173
1119.864, 435.8143
1120.346, 435.2274
1120.828, 436.2190
1121.310, 439.2506
1121.792, 443.4988
1122.274, 443.5148
1122.756, 439.9487
1123.238, 437.6496
1123.721, 437.3478
1124.203, 440.8084
1124.685, 448.3906
1125.167, 453.3369
1125.649, 448.9038
1126.131, 440.4793
1126.613, 433.6954
1127.095, 429.9651
1127.578, 434.9280
1128.060, 443.8875
1128.542, 444.7982
1129.024, 437.6555
1129.506, 434.2336
1129.988, 440.8591
1130.470, 445.1830
1130.952, 433.5085
1131.434, 423.3409
1131.917, 431.2277
1132.399, 442.9297
1132.881, 443.2982
1133.363, 436.0909
1133.845, 431.1212
1134.327, 429.8833
1134.809, 431.0865
1135.291, 437.2054
1135.773, 441.5662
1136.256, 440.1660
1136.738, 440.5862
1137.220, 449.1772
1137.702, 457.7614
1138.184, 457.3375
1138.666, 450.1362
1139.148, 444.9520
1139.630, 442.1713
1140.113, 439.4560
1140.595, 436.5103
1141.077, 434.6156
1141.559, 433.5778
1142.041, 437.9346
1142.523, 451.9142
1143.005, 464.8163
1143.487, 459.2950
1143.969, 441.4855
1144.452, 433.0656
1144.934, 432.4767
1145.416, 434.6033
1145.898, 437.9102
1146.380, 437.4687
1146.862, 432.4249
1147.344, 429.3743
1147.826, 433.4469
1148.308, 439.3704
1148.791, 441.8313
1149.273, 442.7990
1149.755, 444.1873
1150.237, 445.9418
1150.719, 448.9668
1151.201, 451.9963
1151.683, 450.6837
1152.165, 443.4552
1152.648, 438.1611
1153.130, 440.0061
1153.612, 441.1020
1154.094, 436.2639
1154.576, 432.4839
1155.058, 435.7803
1155.540, 441.6825
1156.022, 444.0027
1156.505, 443.2352
1156.987, 443.0411
1157.469, 444.1984
1157.951, 443.2841
1158.433, 438.6311
1158.915, 437.4576
1159.397, 442.7618
1159.879, 447.3331
1160.361, 446.2995
1160.844, 442.6166
1161.326, 441.2383
1161.808, 441.3007
1162.290, 437.2389
1162.772, 430.5951
1163.254, 431.9189
1163.736, 440.5819
1164.218, 447.3118
1164.700, 448.9819
1165.183, 446.4887
1165.665, 439.3140
1166.147, 432.8944
1166.629, 435.0258
1167.111, 439.2762
1167.593, 437.2836
1168.075, 433.1956
1168.557, 432.9438
1169.040, 436.5590
1169.522, 442.9512
1170.004, 452.0713
1170.486, 456.4384
1170.968, 448.3904
1171.450, 442.9091
1171.932, 445.2402
1172.414, 449.7357
1172.896, 456.2986
1173.379, 461.0952
1173.861, 459.6003
1174.343, 453.3167
1174.825, 447.7157
1175.307, 442.8562
1175.789, 437.9454
1176.271, 432.2039
1176.753, 431.7239
1177.235, 438.3597
1177.718, 443.8925
1178.200, 443.9283
1178.682, 442.3679
1179.164, 444.0753
1179.646, 447.0040
1180.128, 445.7888
1180.610, 442.1329
1181.092, 440.1683
1181.575, 439.9489
1182.057, 441.2148
1182.539, 443.3990
1183.021, 444.4079
1183.503, 443.1023
1183.985, 442.1030
1184.467, 443.4460
1184.949, 445.3869
1185.432, 448.2473
1185.914, 449.8038
1186.396, 443.9181
1186.878, 437.5559
1187.360, 445.9835
1187.842, 468.4279
1188.324, 477.6411
1188.806, 464.2841
1189.288, 453.7878
1189.771, 446.6927
1190.253, 441.1375
1190.735, 435.8829
1191.217, 434.7635
1191.699, 441.6642
1192.181, 450.2133
1192.663, 449.4951
1193.145, 442.0088
1193.627, 439.5147
1194.110, 441.2344
1194.592, 442.8869
1195.074, 444.1563
1195.556, 444.8063
1196.038, 445.3841
1196.520, 451.3481
1197.002, 467.6396
1197.484, 478.9843
1197.967, 466.9644
1198.449, 448.2035
1198.931, 432.4557
1199.413, 423.1754
1199.895, 427.2190
1200.377, 438.8697
1200.859, 447.9442
1201.341, 452.8779
1201.823, 454.0574
1202.306, 447.7406
1202.788, 444.5687
1203.270, 447.7393
1203.752, 448.8996
1204.234, 443.2391
1204.716, 440.5900
1205.198, 449.3709
1205.680, 462.0310
1206.162, 465.3052
1206.645, 461.0493
1207.127, 460.4906
1207.609, 463.0181
1208.091, 463.4613
1208.573, 461.5360
1209.055, 457.6136
1209.537, 452.4363
1210.019, 450.4558
1210.502, 454.7325
1210.984, 460.2443
1211.466, 460.4537
1211.948, 461.7136
1212.430, 475.0556
1212.912, 488.2232
1213.394, 484.8769
1213.876, 472.3433
1214.359, 465.7449
1214.841, 466.5102
1215.323, 466.6234
1215.805, 464.3385
1216.287, 462.5686
1216.769, 461.3652
1217.251, 460.6448
1217.733, 460.0026
1218.215, 460.9089
1218.698, 464.6149
1219.180, 469.4768
1219.662, 473.3940
1220.144, 476.2640
1220.626, 476.8839
1221.108, 476.1122
1221.590, 478.8963
1222.072, 484.4660
1222.554, 489.2031
1223.037, 491.8657
1223.519, 491.1935
1224.001, 486.5034
1224.483, 480.0587
1224.965, 471.3475
1225.447, 464.2060
1225.929, 461.5794
1226.411, 461.2467
1226.894, 462.4415
1227.376, 464.0460
1227.858, 463.8251
1228.340, 462.6194
1228.822, 465.8321
1229.304, 476.0240
1229.786, 479.1494
1230.268, 472.3845
1230.750, 468.1273
1231.233, 468.4908
1231.715, 470.7343
1232.197, 473.7909
1232.679, 476.9248
1233.161, 479.4609
1233.643, 481.4543
1234.125, 482.7313
1234.607, 483.7026
1235.089, 486.5982
1235.572, 489.2689
1236.054, 486.3549
1236.536, 478.9464
1237.018, 471.3299
1237.500, 464.9778
1237.982, 462.1222
1238.464, 468.2732
1238.946, 470.0648
1239.429, 455.3337
1239.911, 445.7442
1240.393, 456.7792
1240.875, 470.1107
1241.357, 472.9999
1241.839, 469.6501
1242.321, 467.2034
1242.803, 465.6742
1243.286, 465.3333
1243.768, 466.1620
1244.250, 466.8509
1244.732, 467.4823
1245.214, 470.6772
1245.696, 476.4980
1246.178, 480.3204
1246.660, 479.5833
1247.142, 475.2696
1247.625, 464.6414
1248.107, 455.1646
1248.589, 453.4904
1249.071, 456.3076
1249.553, 463.8551
1250.035, 471.5458
1250.517, 471.4520
1250.999, 465.5711
1251.481, 466.8957
1251.964, 479.8400
1252.446, 481.2643
1252.928, 465.0952
1253.410, 456.1508
1253.892, 458.4861
1254.374, 464.8849
1254.856, 473.1679
1255.338, 476.8094
1255.821, 469.1626
1256.303, 458.2476
1256.785, 458.3078
1257.267, 463.7452
1257.749, 462.8028
1258.231, 459.6624
1258.713, 462.6283
1259.195, 470.0340
1259.677, 477.3352
1260.160, 482.8501
1260.642, 483.0938
1261.124, 474.0241
1261.606, 467.6709
1262.088, 470.2665
1262.570, 469.9306
1263.052, 459.7358
1263.534, 454.2709
1264.016, 463.7314
1264.499, 475.5424
1264.981, 473.7069
##END=



