##NAMES=Umangite
##RRUFFID=R070019
##IDEAL CHEMISTRY=Cu_3_Se_2_
##LOCALITY=Ato Bay, Beaverlodge Lake, Saskatchewan, Canada
##OWNER=RRUFF
##SOURCE=Mark Mauthner
##DESCRIPTION=Metallic dark blue to black blebs underneath green glassy material
##STATUS=The identification of this mineral has been confirmed by X-ray diffraction and chemical analysis
##URL=rruff.info/R070019
##MEASURED CHEMISTRY=Cu_3.00_Se_2.00_
165.1278, 2362.850
165.6099, 2378.740
166.0920, 2401.813
166.5741, 2425.393
167.0563, 2449.018
167.5384, 2471.465
168.0205, 2489.522
168.5026, 2505.118
168.9847, 2524.354
169.4668, 2559.395
169.9490, 2596.726
170.4311, 2620.886
170.9132, 2622.059
171.3953, 2615.746
171.8774, 2609.305
172.3595, 2604.222
172.8417, 2611.334
173.3238, 2650.072
173.8059, 2704.442
174.2880, 2748.849
174.7701, 2770.344
175.2522, 2779.529
175.7344, 2784.476
176.2165, 2785.073
176.6986, 2791.061
177.1807, 2819.079
177.6628, 2859.906
178.1449, 2891.436
178.6270, 2892.720
179.1092, 2881.417
179.5913, 2888.856
180.0734, 2917.377
180.5555, 2955.261
181.0376, 2993.633
181.5197, 3031.279
182.0019, 3066.240
182.4840, 3095.766
182.9661, 3121.623
183.4482, 3147.931
183.9303, 3175.866
184.4124, 3202.525
184.8946, 3225.454
185.3767, 3244.131
185.8588, 3257.352
186.3409, 3262.626
186.8230, 3261.180
187.3051, 3257.762
187.7873, 3252.428
188.2694, 3246.128
188.7515, 3238.322
189.2336, 3228.706
189.7157, 3225.024
190.1978, 3239.875
190.6799, 3270.199
191.1621, 3285.278
191.6442, 3274.037
192.1263, 3247.486
192.6084, 3240.192
193.0905, 3254.656
193.5726, 3271.189
194.0548, 3271.964
194.5369, 3257.077
195.0190, 3238.848
195.5011, 3217.550
195.9832, 3195.032
196.4653, 3182.786
196.9475, 3183.608
197.4296, 3185.185
197.9117, 3174.443
198.3938, 3150.777
198.8759, 3120.643
199.3580, 3080.841
199.8402, 3032.998
200.3223, 3004.464
200.8044, 2999.376
201.2865, 3004.945
201.7686, 3005.622
202.2507, 3001.414
202.7328, 2992.353
203.2150, 2976.328
203.6971, 2952.672
204.1792, 2934.424
204.6613, 2922.531
205.1434, 2914.749
205.6255, 2908.121
206.1077, 2903.216
206.5898, 2897.238
207.0719, 2887.486
207.5540, 2872.120
208.0361, 2864.201
208.5182, 2866.890
209.0004, 2874.678
209.4825, 2875.019
209.9646, 2866.156
210.4467, 2854.327
210.9288, 2840.356
211.4109, 2821.116
211.8931, 2813.890
212.3752, 2826.141
212.8573, 2848.394
213.3394, 2849.089
213.8215, 2817.644
214.3036, 2786.282
214.7858, 2776.756
215.2679, 2799.169
215.7500, 2810.279
216.2321, 2802.119
216.7142, 2779.853
217.1963, 2768.519
217.6785, 2774.750
218.1606, 2781.213
218.6427, 2773.824
219.1248, 2743.303
219.6069, 2724.457
220.0890, 2725.489
220.5712, 2743.343
221.0533, 2752.625
221.5354, 2749.947
222.0175, 2743.136
222.4996, 2738.404
222.9817, 2737.392
223.4639, 2734.506
223.9460, 2728.240
224.4281, 2718.705
224.9102, 2710.371
225.3923, 2701.470
225.8744, 2695.832
226.3566, 2698.135
226.8387, 2714.556
227.3208, 2726.215
227.8029, 2728.819
228.2850, 2722.014
228.7671, 2715.222
229.2492, 2706.251
229.7314, 2699.321
230.2135, 2698.927
230.6956, 2706.398
231.1777, 2718.086
231.6598, 2735.089
232.1419, 2758.759
232.6241, 2775.824
233.1062, 2784.877
233.5883, 2788.516
234.0704, 2788.715
234.5525, 2781.040
235.0346, 2777.723
235.5168, 2780.580
235.9989, 2788.800
236.4810, 2809.402
236.9631, 2848.837
237.4452, 2896.175
237.9273, 2935.668
238.4095, 2963.163
238.8916, 2990.351
239.3737, 3019.391
239.8558, 3049.450
240.3379, 3085.336
240.8200, 3128.491
241.3021, 3176.567
241.7843, 3226.784
242.2664, 3281.174
242.7485, 3333.113
243.2306, 3376.712
243.7127, 3403.381
244.1948, 3455.569
244.6770, 3545.584
245.1591, 3654.272
245.6412, 3747.601
246.1233, 3814.542
246.6054, 3882.920
247.0875, 3963.081
247.5697, 4059.907
248.0518, 4151.917
248.5339, 4232.458
249.0160, 4310.875
249.4981, 4405.350
249.9802, 4524.044
250.4624, 4645.588
250.9445, 4764.097
251.4266, 4878.378
251.9087, 4988.323
252.3908, 5086.704
252.8729, 5184.240
253.3551, 5306.354
253.8372, 5464.909
254.3193, 5625.230
254.8014, 5774.866
255.2835, 5911.988
255.7656, 6046.041
256.2477, 6182.649
256.7299, 6314.782
257.2120, 6424.451
257.6941, 6509.887
258.1762, 6578.180
258.6583, 6639.853
259.1404, 6712.652
259.6226, 6722.559
260.1047, 6656.726
260.5868, 6535.333
261.0689, 6404.644
261.5510, 6275.557
262.0331, 6113.071
262.5153, 5894.190
262.9974, 5602.584
263.4795, 5315.228
263.9616, 5033.579
264.4437, 4757.766
264.9258, 4492.494
265.4080, 4228.233
265.8901, 3989.951
266.3722, 3795.312
266.8543, 3648.877
267.3364, 3512.212
267.8185, 3378.604
268.3007, 3257.140
268.7828, 3172.112
269.2649, 3132.669
269.7470, 3101.339
270.2291, 3058.699
270.7112, 3001.705
271.1934, 2950.531
271.6755, 2904.724
272.1576, 2866.034
272.6397, 2840.515
273.1218, 2829.942
273.6039, 2825.970
274.0860, 2827.216
274.5681, 2835.008
275.0503, 2834.887
275.5324, 2824.589
276.0145, 2808.265
276.4966, 2791.482
276.9787, 2772.622
277.4608, 2761.949
277.9430, 2770.243
278.4251, 2798.487
278.9072, 2814.586
279.3893, 2816.551
279.8714, 2806.634
280.3535, 2783.397
280.8357, 2744.106
281.3178, 2713.398
281.7999, 2709.163
282.2820, 2730.478
282.7641, 2743.400
283.2462, 2745.576
283.7284, 2740.875
284.2105, 2735.198
284.6926, 2728.540
285.1747, 2720.983
285.6568, 2709.771
286.1389, 2696.199
286.6211, 2692.627
287.1032, 2701.359
287.5853, 2715.394
288.0674, 2725.475
288.5495, 2731.607
289.0316, 2733.901
289.5138, 2728.827
289.9959, 2719.061
290.4780, 2717.833
290.9601, 2727.626
291.4422, 2739.480
291.9243, 2741.882
292.4065, 2735.424
292.8886, 2723.889
293.3707, 2701.598
293.8528, 2675.658
294.3349, 2667.841
294.8170, 2681.468
295.2992, 2701.613
295.7813, 2712.005
296.2634, 2713.885
296.7455, 2711.944
297.2276, 2706.942
297.7097, 2699.886
298.1919, 2691.133
298.6740, 2679.878
299.1561, 2672.737
299.6382, 2682.663
300.1203, 2703.263
300.6024, 2716.602
301.0845, 2706.350
301.5667, 2687.555
302.0488, 2682.300
302.5309, 2691.997
303.0130, 2704.111
303.4951, 2708.425
303.9772, 2707.211
304.4594, 2704.883
304.9415, 2701.582
305.4236, 2699.040
305.9057, 2699.737
306.3878, 2703.783
306.8699, 2707.661
307.3521, 2707.913
307.8342, 2706.571
308.3163, 2706.660
308.7984, 2709.774
309.2805, 2714.473
309.7626, 2723.133
310.2448, 2735.333
310.7269, 2739.675
311.2090, 2719.276
311.6911, 2690.871
312.1732, 2673.392
312.6553, 2684.131
313.1375, 2698.242
313.6196, 2701.215
314.1017, 2694.225
314.5838, 2690.384
315.0659, 2702.220
315.5480, 2716.695
316.0302, 2722.726
316.5123, 2708.624
316.9944, 2693.814
317.4765, 2682.520
317.9586, 2675.323
318.4407, 2675.769
318.9229, 2695.331
319.4050, 2716.645
319.8871, 2727.936
320.3692, 2715.661
320.8513, 2706.459
321.3334, 2709.858
321.8156, 2722.154
322.2977, 2728.571
322.7798, 2719.044
323.2619, 2707.892
323.7440, 2702.463
324.2261, 2710.299
324.7083, 2714.452
325.1904, 2710.187
325.6725, 2700.772
326.1546, 2695.596
326.6367, 2699.420
327.1188, 2704.129
327.6009, 2706.635
328.0830, 2704.598
328.5652, 2704.563
329.0473, 2708.083
329.5294, 2713.330
330.0115, 2716.490
330.4936, 2715.521
330.9757, 2714.915
331.4579, 2715.984
331.9400, 2718.777
332.4221, 2723.720
332.9042, 2734.668
333.3863, 2745.224
333.8684, 2744.092
334.3506, 2724.044
334.8327, 2706.806
335.3148, 2698.739
335.7969, 2700.513
336.2790, 2705.207
336.7611, 2714.511
337.2433, 2724.415
337.7254, 2729.595
338.2075, 2728.604
338.6896, 2728.413
339.1717, 2730.158
339.6538, 2734.003
340.1360, 2744.117
340.6181, 2763.169
341.1002, 2780.214
341.5823, 2781.326
342.0644, 2765.753
342.5465, 2753.803
343.0287, 2751.216
343.5108, 2755.037
343.9929, 2755.408
344.4750, 2751.958
344.9571, 2748.957
345.4392, 2752.766
345.9214, 2761.407
346.4035, 2761.677
346.8856, 2746.631
347.3677, 2728.095
347.8498, 2730.374
348.3319, 2751.872
348.8141, 2772.912
349.2962, 2778.855
349.7783, 2774.570
350.2604, 2770.492
350.7425, 2766.968
351.2246, 2767.249
351.7067, 2779.511
352.1888, 2800.111
352.6710, 2816.163
353.1531, 2815.607
353.6352, 2808.480
354.1173, 2809.685
354.5994, 2823.088
355.0815, 2832.543
355.5637, 2818.005
356.0458, 2790.808
356.5279, 2772.750
357.0100, 2779.407
357.4921, 2795.058
357.9742, 2812.574
358.4564, 2832.035
358.9385, 2840.969
359.4206, 2818.827
359.9027, 2787.169
360.3848, 2770.927
360.8669, 2794.092
361.3491, 2819.826
361.8312, 2833.250
362.3133, 2834.472
362.7954, 2833.930
363.2775, 2832.220
363.7596, 2831.376
364.2418, 2832.898
364.7239, 2846.924
365.2060, 2852.520
365.6881, 2835.883
366.1702, 2803.177
366.6523, 2790.245
367.1345, 2821.690
367.6166, 2857.130
368.0987, 2877.580
368.5808, 2874.806
369.0629, 2868.405
369.5450, 2852.845
370.0272, 2834.131
370.5093, 2828.070
370.9914, 2844.483
371.4735, 2860.376
371.9556, 2865.902
372.4377, 2855.352
372.9199, 2855.725
373.4020, 2873.217
373.8841, 2896.078
374.3662, 2905.698
374.8483, 2898.960
375.3304, 2888.594
375.8126, 2876.861
376.2947, 2863.867
376.7768, 2857.048
377.2589, 2857.656
377.7410, 2860.918
378.2231, 2861.355
378.7052, 2858.851
379.1873, 2858.214
379.6695, 2861.709
380.1516, 2867.323
380.6337, 2868.499
381.1158, 2865.043
381.5979, 2860.902
382.0800, 2859.390
382.5622, 2859.896
383.0443, 2859.508
383.5264, 2856.514
384.0085, 2854.721
384.4906, 2861.930
384.9727, 2876.435
385.4549, 2889.286
385.9370, 2893.914
386.4191, 2893.903
386.9012, 2894.758
387.3833, 2897.551
387.8654, 2899.109
388.3476, 2896.330
388.8297, 2890.348
389.3118, 2883.287
389.7939, 2872.021
390.2760, 2862.944
390.7581, 2861.074
391.2403, 2866.682
391.7224, 2876.286
392.2045, 2893.836
392.6866, 2912.229
393.1687, 2924.066
393.6508, 2924.422
394.1330, 2920.569
394.6151, 2912.555
395.0972, 2901.216
395.5793, 2892.754
396.0614, 2889.584
396.5435, 2889.041
397.0257, 2889.509
397.5078, 2886.874
397.9899, 2890.309
398.4720, 2907.107
398.9541, 2930.588
399.4362, 2943.336
399.9184, 2939.696
400.4005, 2931.624
400.8826, 2921.247
401.3647, 2904.351
401.8468, 2900.324
402.3289, 2915.622
402.8111, 2938.420
403.2932, 2952.442
403.7753, 2955.521
404.2574, 2955.931
404.7395, 2955.658
405.2216, 2954.644
405.7037, 2952.065
406.1859, 2947.900
406.6680, 2942.181
407.1501, 2932.773
407.6322, 2919.670
408.1143, 2913.039
408.5964, 2916.221
409.0786, 2925.367
409.5607, 2933.547
410.0428, 2940.609
410.5249, 2943.630
411.0070, 2934.805
411.4891, 2920.572
411.9713, 2919.181
412.4534, 2935.390
412.9355, 2954.863
413.4176, 2963.254
413.8997, 2962.321
414.3818, 2957.032
414.8640, 2940.991
415.3461, 2926.804
415.8282, 2932.448
416.3103, 2959.180
416.7924, 2980.436
417.2745, 2972.822
417.7567, 2952.768
418.2388, 2939.384
418.7209, 2950.297
419.2030, 2958.230
419.6851, 2944.858
420.1672, 2915.688
420.6494, 2899.484
421.1315, 2916.095
421.6136, 2940.211
422.0957, 2957.996
422.5778, 2966.319
423.0599, 2969.714
423.5421, 2961.343
424.0242, 2949.054
424.5063, 2949.121
424.9884, 2977.599
425.4705, 3000.119
425.9526, 3004.260
426.4348, 2985.221
426.9169, 2978.465
427.3990, 2992.467
427.8811, 3009.412
428.3632, 3006.725
428.8453, 2974.608
429.3275, 2956.817
429.8095, 2965.692
430.2917, 2994.877
430.7738, 3014.431
431.2559, 3023.808
431.7380, 3027.143
432.2201, 3023.618
432.7022, 3014.397
433.1844, 3014.759
433.6665, 3029.337
434.1486, 3046.527
434.6307, 3043.266
435.1128, 3023.857
435.5949, 3011.608
436.0771, 3027.932
436.5592, 3055.659
437.0413, 3064.118
437.5234, 3051.822
438.0055, 3036.675
438.4876, 3030.690
438.9698, 3031.672
439.4519, 3036.698
439.9340, 3050.900
440.4161, 3062.541
440.8982, 3062.108
441.3803, 3051.904
441.8625, 3041.667
442.3446, 3033.995
442.8267, 3028.962
443.3088, 3027.358
443.7909, 3031.814
444.2730, 3034.010
444.7552, 3027.658
445.2373, 3018.758
445.7194, 3017.079
446.2015, 3032.273
446.6836, 3046.213
447.1657, 3055.089
447.6479, 3058.693
448.1300, 3059.266
448.6121, 3054.784
449.0942, 3049.344
449.5763, 3045.818
450.0584, 3043.338
450.5406, 3046.067
451.0227, 3058.116
451.5048, 3073.990
451.9869, 3072.642
452.4690, 3049.215
452.9511, 3033.070
453.4333, 3048.306
453.9154, 3091.235
454.3975, 3113.537
454.8796, 3111.157
455.3617, 3098.243
455.8438, 3089.851
456.3259, 3085.557
456.8080, 3083.871
457.2902, 3084.252
457.7723, 3086.884
458.2544, 3093.396
458.7365, 3103.266
459.2186, 3112.291
459.7007, 3118.822
460.1829, 3122.259
460.6650, 3120.114
461.1471, 3106.809
461.6292, 3099.182
462.1113, 3114.854
462.5934, 3142.821
463.0756, 3161.544
463.5577, 3155.011
464.0398, 3144.943
464.5219, 3140.647
465.0040, 3143.486
465.4861, 3146.537
465.9683, 3149.955
466.4504, 3152.483
466.9325, 3152.917
467.4146, 3147.296
467.8967, 3145.493
468.3788, 3151.489
468.8610, 3162.103
469.3431, 3163.911
469.8252, 3151.769
470.3073, 3140.822
470.7894, 3138.846
471.2715, 3147.123
471.7537, 3154.887
472.2358, 3161.779
472.7179, 3168.954
473.2000, 3181.066
473.6821, 3197.737
474.1642, 3204.065
474.6464, 3188.676
475.1285, 3164.610
475.6106, 3166.203
476.0927, 3191.648
476.5748, 3214.338
477.0569, 3207.095
477.5391, 3186.184
478.0212, 3179.712
478.5033, 3196.267
478.9854, 3214.350
479.4675, 3215.389
479.9496, 3205.710
480.4318, 3197.127
480.9139, 3192.667
481.3960, 3192.334
481.8781, 3198.255
482.3602, 3210.352
482.8423, 3219.847
483.3244, 3221.959
483.8065, 3221.923
484.2887, 3223.411
484.7708, 3234.696
485.2529, 3237.426
485.7350, 3222.031
486.2171, 3198.785
486.6992, 3193.498
487.1814, 3218.008
487.6635, 3240.962
488.1456, 3251.059
488.6277, 3247.517
489.1098, 3244.451
489.5919, 3241.682
490.0741, 3239.849
490.5562, 3240.050
491.0383, 3242.295
491.5204, 3243.795
492.0025, 3243.479
492.4846, 3242.816
492.9668, 3245.733
493.4489, 3251.752
493.9310, 3256.530
494.4131, 3254.705
494.8952, 3250.864
495.3773, 3253.610
495.8595, 3264.040
496.3416, 3274.873
496.8237, 3280.694
497.3058, 3283.320
497.7879, 3285.343
498.2701, 3281.324
498.7522, 3283.171
499.2343, 3302.447
499.7164, 3333.979
500.1985, 3357.061
500.6806, 3360.201
501.1628, 3358.182
501.6449, 3357.713
502.1270, 3359.537
502.6091, 3362.255
503.0912, 3364.952
503.5733, 3369.028
504.0555, 3377.184
504.5376, 3395.411
505.0197, 3404.405
505.5018, 3397.081
505.9839, 3377.966
506.4660, 3369.099
506.9482, 3371.871
507.4303, 3378.949
507.9124, 3386.978
508.3945, 3395.801
508.8766, 3403.915
509.3587, 3411.135
509.8408, 3418.176
510.3229, 3426.304
510.8051, 3435.119
511.2872, 3443.379
511.7693, 3450.927
512.2514, 3457.437
512.7335, 3462.663
513.2156, 3466.524
513.6978, 3468.954
514.1799, 3469.119
514.6620, 3468.260
515.1441, 3467.678
515.6262, 3468.240
516.1083, 3466.794
516.5905, 3459.681
517.0726, 3450.863
517.5547, 3445.241
518.0368, 3449.244
518.5189, 3450.000
519.0010, 3441.500
519.4832, 3425.939
519.9653, 3422.882
520.4474, 3441.341
520.9295, 3458.574
521.4116, 3462.546
521.8937, 3451.490
522.3759, 3435.072
522.8580, 3410.838
523.3401, 3386.843
523.8222, 3372.692
524.3043, 3368.401
524.7864, 3375.535
525.2686, 3401.060
525.7507, 3432.761
526.2328, 3444.034
526.7149, 3437.111
527.1970, 3427.593
527.6791, 3427.203
528.1613, 3429.748
528.6434, 3424.970
529.1255, 3409.348
529.6076, 3400.567
530.0897, 3423.756
530.5718, 3455.529
531.0540, 3466.709
531.5361, 3422.297
532.0182, 3384.163
532.5003, 3376.077
532.9824, 3392.135
533.4645, 3397.056
533.9467, 3368.606
534.4288, 3348.151
534.9109, 3354.727
535.3930, 3398.752
535.8751, 3426.766
536.3572, 3432.750
536.8394, 3431.203
537.3215, 3440.244
537.8036, 3462.029
538.2857, 3475.817
538.7678, 3475.916
539.2499, 3467.261
539.7321, 3458.929
540.2142, 3451.248
540.6963, 3448.251
541.1784, 3451.804
541.6605, 3461.891
542.1426, 3483.857
542.6248, 3518.876
543.1069, 3544.835
543.5890, 3539.919
544.0711, 3518.134
544.5532, 3495.447
545.0353, 3469.543
545.5175, 3452.998
545.9996, 3454.149
546.4817, 3468.479
546.9637, 3484.989
547.4459, 3512.667
547.9280, 3531.274
548.4101, 3530.193
548.8922, 3507.387
549.3743, 3491.975
549.8564, 3483.663
550.3386, 3483.120
550.8207, 3494.203
551.3028, 3521.584
551.7849, 3536.395
552.2670, 3533.473
552.7491, 3521.399
553.2313, 3513.200
553.7134, 3508.892
554.1955, 3509.085
554.6776, 3519.096
555.1597, 3531.370
555.6418, 3525.467
556.1240, 3503.820
556.6061, 3489.284
557.0882, 3508.815
557.5703, 3538.496
558.0524, 3552.544
558.5345, 3544.771
559.0167, 3528.036
559.4988, 3497.070
559.9809, 3464.292
560.4630, 3446.014
560.9451, 3459.807
561.4272, 3473.113
561.9094, 3478.738
562.3915, 3478.127
562.8736, 3478.349
563.3557, 3478.792
563.8378, 3481.089
564.3199, 3487.756
564.8021, 3500.332
565.2842, 3502.697
565.7663, 3493.073
566.2484, 3478.096
566.7305, 3462.677
567.2126, 3447.408
567.6948, 3436.325
568.1769, 3429.949
568.6590, 3429.015
569.1411, 3440.201
569.6232, 3459.088
570.1053, 3470.295
570.5875, 3456.722
571.0696, 3438.517
571.5517, 3434.593
572.0338, 3445.104
572.5159, 3454.144
572.9980, 3453.713
573.4802, 3449.764
573.9623, 3446.340
574.4444, 3443.758
574.9265, 3442.210
575.4086, 3439.621
575.8907, 3438.969
576.3729, 3445.168
576.8550, 3462.752
577.3371, 3477.746
577.8192, 3489.160
578.3013, 3495.599
578.7834, 3487.632
579.2656, 3462.673
579.7477, 3440.636
580.2298, 3434.642
580.7119, 3441.658
581.1940, 3454.827
581.6761, 3474.902
582.1583, 3488.295
582.6404, 3474.316
583.1225, 3446.757
583.6046, 3428.843
584.0867, 3429.304
584.5688, 3435.735
585.0510, 3442.656
585.5331, 3449.882
586.0152, 3457.024
586.4973, 3464.311
586.9794, 3471.154
587.4615, 3478.226
587.9437, 3485.512
588.4258, 3489.265
588.9079, 3492.601
589.3900, 3488.627
589.8721, 3468.875
590.3542, 3424.747
590.8364, 3405.715
591.3185, 3418.775
591.8006, 3443.794
592.2827, 3455.620
592.7648, 3455.307
593.2469, 3453.042
593.7291, 3449.782
594.2112, 3448.397
594.6933, 3454.629
595.1754, 3466.888
595.6575, 3479.379
596.1396, 3495.589
596.6218, 3506.030
597.1039, 3497.654
597.5860, 3469.885
598.0681, 3449.853
598.5502, 3450.886
599.0323, 3461.642
599.5144, 3474.367
599.9965, 3491.941
600.4786, 3505.720
600.9608, 3518.855
601.4429, 3526.328
601.9250, 3516.425
602.4071, 3478.080
602.8892, 3460.016
603.3713, 3480.864
603.8535, 3525.025
604.3356, 3543.137
604.8177, 3535.069
605.2998, 3519.758
605.7819, 3501.528
606.2640, 3485.536
606.7462, 3487.266
607.2283, 3507.287
607.7104, 3523.914
608.1925, 3518.730
608.6746, 3502.922
609.1567, 3487.765
609.6389, 3474.637
610.1210, 3465.112
610.6031, 3460.487
611.0852, 3459.731
611.5673, 3461.259
612.0494, 3461.950
612.5316, 3468.957
613.0137, 3486.839
613.4958, 3512.199
613.9779, 3529.847
614.4600, 3539.086
614.9421, 3542.182
615.4243, 3536.689
615.9064, 3524.263
616.3885, 3522.392
616.8706, 3531.609
617.3527, 3544.713
617.8348, 3561.220
618.3170, 3575.778
618.7991, 3574.575
619.2812, 3550.062
619.7633, 3525.696
620.2454, 3519.862
620.7275, 3525.822
621.2097, 3533.169
621.6918, 3539.694
622.1739, 3545.804
622.6560, 3553.130
623.1381, 3560.600
623.6202, 3562.817
624.1024, 3554.675
624.5845, 3547.932
625.0666, 3545.651
625.5487, 3547.703
626.0308, 3560.690
626.5129, 3588.876
626.9951, 3613.940
627.4772, 3617.067
627.9593, 3602.334
628.4414, 3592.987
628.9235, 3592.062
629.4056, 3595.430
629.8878, 3600.979
630.3699, 3607.121
630.8520, 3611.015
631.3341, 3613.084
631.8162, 3610.962
632.2983, 3601.078
632.7805, 3585.685
633.2626, 3571.427
633.7447, 3557.104
634.2268, 3546.999
634.7089, 3541.995
635.1910, 3542.026
635.6732, 3548.743
636.1553, 3564.995
636.6374, 3583.039
637.1195, 3601.263
637.6016, 3620.525
638.0837, 3619.665
638.5659, 3593.624
639.0480, 3565.531
639.5301, 3566.766
640.0122, 3587.505
640.4943, 3597.482
640.9764, 3582.748
641.4586, 3567.537
641.9407, 3579.978
642.4228, 3607.833
642.9049, 3626.880
643.3870, 3619.951
643.8691, 3610.019
644.3513, 3605.339
644.8334, 3605.813
645.3155, 3607.179
645.7976, 3610.260
646.2797, 3612.826
646.7618, 3614.277
647.2440, 3614.681
647.7261, 3612.657
648.2082, 3607.713
648.6903, 3601.940
649.1724, 3596.375
649.6545, 3591.399
650.1367, 3589.090
650.6187, 3589.699
651.1008, 3593.093
651.5829, 3600.788
652.0651, 3610.953
652.5472, 3620.100
653.0293, 3623.620
653.5114, 3629.847
653.9935, 3652.520
654.4756, 3681.544
654.9578, 3690.721
655.4399, 3649.023
655.9220, 3613.415
656.4041, 3601.445
656.8862, 3611.694
657.3683, 3617.281
657.8505, 3615.952
658.3326, 3615.207
658.8147, 3618.371
659.2968, 3625.567
659.7789, 3641.483
660.2610, 3667.491
660.7432, 3691.374
661.2253, 3700.866
661.7074, 3699.598
662.1895, 3692.779
662.6716, 3679.262
663.1537, 3667.079
663.6359, 3665.981
664.1180, 3668.304
664.6001, 3663.203
665.0822, 3624.166
665.5643, 3604.235
666.0464, 3630.046
666.5286, 3683.070
667.0107, 3711.778
667.4928, 3707.053
667.9749, 3697.253
668.4570, 3690.274
668.9391, 3686.070
669.4213, 3685.698
669.9034, 3689.464
670.3855, 3690.711
670.8676, 3679.463
671.3497, 3663.619
671.8318, 3661.330
672.3140, 3674.300
672.7961, 3688.320
673.2782, 3691.683
673.7603, 3692.034
674.2424, 3698.155
674.7245, 3719.298
675.2067, 3731.010
675.6888, 3717.836
676.1709, 3696.706
676.6530, 3689.898
677.1351, 3706.078
677.6172, 3717.546
678.0994, 3719.395
678.5815, 3715.418
679.0636, 3716.425
679.5457, 3722.552
680.0278, 3721.688
680.5099, 3701.426
680.9921, 3676.074
681.4742, 3672.559
681.9563, 3688.129
682.4384, 3707.932
682.9205, 3731.397
683.4026, 3749.432
683.8848, 3751.812
684.3669, 3736.902
684.8490, 3725.113
685.3311, 3720.979
685.8132, 3722.028
686.2953, 3727.597
686.7775, 3742.105
687.2596, 3747.890
687.7417, 3742.228
688.2238, 3732.469
688.7059, 3726.604
689.1880, 3724.451
689.6702, 3723.006
690.1523, 3721.364
690.6344, 3721.378
691.1165, 3727.499
691.5986, 3737.204
692.0807, 3744.296
692.5629, 3743.037
693.0450, 3741.967
693.5271, 3748.106
694.0092, 3758.376
694.4913, 3764.288
694.9734, 3758.001
695.4556, 3753.201
695.9377, 3752.166
696.4198, 3755.239
696.9019, 3770.353
697.3840, 3806.047
697.8661, 3828.297
698.3483, 3806.701
698.8304, 3750.314
699.3125, 3725.370
699.7946, 3732.726
700.2767, 3750.210
700.7589, 3764.044
701.2410, 3774.794
701.7231, 3784.545
702.2052, 3795.038
702.6873, 3797.263
703.1694, 3774.674
703.6515, 3747.581
704.1336, 3735.984
704.6157, 3757.190
705.0978, 3774.782
705.5800, 3787.261
706.0621, 3796.460
706.5442, 3807.267
707.0263, 3821.668
707.5084, 3823.249
707.9905, 3803.022
708.4727, 3775.531
708.9548, 3772.230
709.4369, 3787.794
709.9190, 3799.035
710.4011, 3785.198
710.8832, 3769.252
711.3654, 3775.724
711.8475, 3799.173
712.3296, 3816.030
712.8117, 3814.290
713.2938, 3807.387
713.7759, 3796.926
714.2581, 3782.462
714.7402, 3785.868
715.2223, 3819.365
715.7044, 3848.327
716.1865, 3847.458
716.6686, 3817.830
717.1508, 3805.649
717.6329, 3813.001
718.1150, 3824.863
718.5971, 3827.740
719.0792, 3825.120
719.5613, 3824.186
720.0435, 3827.730
720.5256, 3825.763
721.0077, 3801.786
721.4898, 3774.053
721.9719, 3761.730
722.4540, 3781.107
722.9362, 3800.511
723.4183, 3818.726
723.9004, 3835.562
724.3825, 3852.933
724.8646, 3873.834
725.3467, 3878.406
725.8289, 3855.892
726.3110, 3824.031
726.7931, 3822.414
727.2752, 3845.330
727.7573, 3866.636
728.2394, 3879.032
728.7216, 3880.842
729.2037, 3863.174
729.6858, 3832.068
730.1679, 3809.397
730.6500, 3812.891
731.1321, 3816.754
731.6143, 3805.607
732.0964, 3780.963
732.5785, 3777.296
733.0606, 3804.951
733.5427, 3831.146
734.0248, 3836.311
734.5070, 3822.545
734.9891, 3814.023
735.4712, 3810.803
735.9533, 3809.579
736.4354, 3806.845
736.9175, 3804.742
737.3997, 3808.009
737.8818, 3818.309
738.3639, 3824.653
738.8460, 3818.566
739.3281, 3808.040
739.8102, 3798.961
740.2924, 3785.542
740.7745, 3787.706
741.2566, 3817.553
741.7387, 3850.238
742.2208, 3851.810
742.7029, 3819.702
743.1851, 3804.308
743.6672, 3817.071
744.1493, 3836.937
744.6314, 3828.790
745.1135, 3804.580
745.5956, 3794.675
746.0778, 3821.367
746.5599, 3848.140
747.0420, 3850.309
747.5241, 3837.101
748.0062, 3826.564
748.4883, 3827.223
748.9705, 3825.201
749.4526, 3813.885
749.9347, 3799.052
750.4168, 3801.677
750.8989, 3826.275
751.3810, 3842.682
751.8632, 3835.455
752.3453, 3814.808
752.8274, 3805.043
753.3095, 3805.103
753.7916, 3808.390
754.2737, 3812.247
754.7558, 3816.851
755.2379, 3825.519
755.7200, 3837.160
756.2021, 3839.422
756.6843, 3815.119
757.1664, 3793.941
757.6485, 3788.658
758.1306, 3799.961
758.6127, 3816.264
759.0948, 3841.637
759.5770, 3859.395
760.0591, 3853.210
760.5412, 3828.858
761.0233, 3810.986
761.5054, 3800.831
761.9875, 3794.303
762.4697, 3785.173
762.9518, 3779.819
763.4339, 3788.185
763.9160, 3816.983
764.3981, 3836.428
764.8802, 3830.995
765.3624, 3817.450
765.8445, 3808.554
766.3266, 3805.831
766.8087, 3803.659
767.2908, 3801.596
767.7729, 3800.842
768.2551, 3804.057
768.7372, 3810.317
769.2193, 3814.233
769.7014, 3814.748
770.1835, 3813.261
770.6656, 3807.368
771.1478, 3801.546
771.6299, 3802.598
772.1120, 3821.076
772.5941, 3834.474
773.0762, 3829.763
773.5583, 3819.223
774.0405, 3822.937
774.5226, 3851.795
775.0047, 3863.301
775.4868, 3844.158
775.9689, 3813.365
776.4510, 3812.857
776.9332, 3837.308
777.4153, 3853.787
777.8974, 3845.661
778.3795, 3831.360
778.8616, 3828.555
779.3438, 3792.790
779.8259, 3823.572
780.3080, 3841.346
780.7901, 3846.810
781.2722, 3803.093
781.7543, 3822.882
782.2365, 3817.222
782.7186, 3810.517
783.2007, 3839.245
783.6828, 3802.681
784.1649, 3830.847
784.6470, 3833.174
785.1292, 3847.326
785.6113, 3835.872
786.0934, 3832.326
786.5755, 3854.396
787.0576, 3856.572
787.5397, 3873.172
788.0219, 3883.417
788.5040, 3873.896
788.9861, 3865.323
789.4682, 3866.213
789.9503, 3875.666
790.4324, 3883.267
790.9146, 3889.775
791.3967, 3891.403
791.8788, 3880.665
792.3609, 3863.734
792.8430, 3867.735
793.3251, 3890.588
793.8073, 3908.837
794.2894, 3897.791
794.7715, 3881.811
795.2536, 3882.802
795.7357, 3902.425
796.2178, 3922.705
796.7000, 3943.801
797.1821, 3960.103
797.6642, 3966.173
798.1463, 3960.721
798.6284, 3969.959
799.1105, 3997.271
799.5927, 4024.119
800.0748, 4033.628
800.5569, 4033.032
801.0390, 4043.115
801.5211, 4064.664
802.0032, 4081.820
802.4854, 4078.939
802.9675, 4070.576
803.4496, 4066.984
803.9317, 4068.699
804.4138, 4079.576
804.8959, 4108.651
805.3781, 4135.910
805.8602, 4146.038
806.3423, 4136.506
806.8243, 4139.053
807.3065, 4154.964
807.7886, 4175.416
808.2707, 4195.690
808.7528, 4213.804
809.2349, 4225.282
809.7170, 4229.078
810.1992, 4231.617
810.6813, 4237.001
811.1634, 4242.201
811.6455, 4245.161
812.1276, 4246.673
812.6097, 4243.456
813.0919, 4236.437
813.5740, 4223.196
814.0561, 4196.768
814.5382, 4158.486
815.0203, 4135.336
815.5024, 4129.871
815.9846, 4130.284
816.4667, 4127.006
816.9488, 4122.126
817.4309, 4119.712
817.9130, 4122.789
818.3951, 4119.173
818.8773, 4096.657
819.3594, 4071.342
819.8415, 4056.942
820.3236, 4059.412
820.8057, 4054.156
821.2878, 4038.322
821.7700, 4021.749
822.2521, 4020.271
822.7342, 4027.458
823.2163, 4017.075
823.6984, 3982.647
824.1805, 3950.754
824.6627, 3949.635
825.1448, 3958.600
825.6269, 3955.075
826.1090, 3924.381
826.5911, 3905.677
827.0732, 3908.265
827.5554, 3916.987
828.0375, 3919.384
828.5196, 3915.157
829.0017, 3906.310
829.4838, 3891.915
829.9659, 3878.518
830.4481, 3872.305
830.9302, 3872.716
831.4123, 3882.061
831.8944, 3904.904
832.3765, 3918.244
832.8586, 3898.375
833.3408, 3870.954
833.8229, 3862.302
834.3050, 3888.467
834.7871, 3896.090
835.2692, 3879.190
835.7513, 3855.131
836.2335, 3840.575
836.7156, 3834.887
837.1977, 3835.560
837.6798, 3843.007
838.1619, 3850.757
838.6440, 3852.319
839.1262, 3851.270
839.6083, 3850.932
840.0904, 3850.406
840.5725, 3855.334
841.0546, 3874.691
841.5367, 3893.249
842.0189, 3898.611
842.5010, 3888.177
842.9831, 3879.726
843.4652, 3873.419
843.9473, 3870.953
844.4294, 3878.705
844.9116, 3890.380
845.3937, 3893.108
845.8758, 3884.238
846.3579, 3872.809
846.8400, 3864.497
847.3221, 3855.292
847.8043, 3839.532
848.2864, 3809.291
848.7685, 3799.156
849.2506, 3816.200
849.7327, 3839.465
850.2148, 3851.746
850.6970, 3854.630
851.1791, 3860.688
851.6612, 3871.098
852.1433, 3874.015
852.6254, 3845.813
853.1075, 3813.415
853.5897, 3807.697
854.0718, 3838.142
854.5539, 3860.186
855.0360, 3861.505
855.5181, 3855.800
856.0002, 3848.532
856.4824, 3839.205
856.9645, 3836.067
857.4466, 3839.561
857.9287, 3845.174
858.4108, 3849.273
858.8929, 3853.016
859.3750, 3861.148
859.8571, 3873.683
860.3392, 3877.143
860.8214, 3852.095
861.3035, 3826.766
861.7856, 3821.756
862.2677, 3838.585
862.7498, 3840.725
863.2319, 3820.205
863.7141, 3807.864
864.1962, 3832.013
864.6783, 3879.003
865.1604, 3897.461
865.6425, 3889.363
866.1246, 3876.428
866.6068, 3868.077
867.0889, 3863.579
867.5710, 3863.728
868.0531, 3868.232
868.5352, 3871.527
869.0173, 3874.480
869.4995, 3873.740
869.9816, 3864.679
870.4637, 3851.049
870.9458, 3858.894
871.4279, 3887.047
871.9100, 3903.056
872.3922, 3874.144
872.8743, 3835.013
873.3564, 3827.275
873.8385, 3842.964
874.3206, 3851.611
874.8027, 3829.474
875.2849, 3814.843
875.7670, 3820.758
876.2491, 3841.232
876.7312, 3856.362
877.2133, 3866.114
877.6954, 3870.364
878.1776, 3866.965
878.6597, 3860.768
879.1418, 3862.894
879.6239, 3868.745
880.1060, 3866.817
880.5881, 3833.564
881.0703, 3812.530
881.5524, 3832.661
882.0345, 3873.035
882.5166, 3890.423
882.9987, 3877.562
883.4808, 3863.960
883.9630, 3853.757
884.4451, 3846.857
884.9272, 3844.242
885.4093, 3844.876
885.8914, 3845.896
886.3735, 3847.525
886.8557, 3846.992
887.3378, 3834.913
887.8199, 3822.816
888.3020, 3827.226
888.7841, 3869.982
889.2662, 3887.799
889.7484, 3867.464
890.2305, 3840.525
890.7126, 3853.644
891.1947, 3896.755
891.6768, 3909.442
892.1589, 3879.823
892.6411, 3848.817
893.1232, 3855.834
893.6053, 3876.610
894.0874, 3886.262
894.5695, 3876.447
895.0516, 3868.937
895.5338, 3864.213
896.0159, 3863.517
896.4980, 3871.086
896.9801, 3886.468
897.4622, 3887.831
897.9443, 3874.408
898.4265, 3858.276
898.9086, 3844.412
899.3907, 3835.759
899.8728, 3835.000
900.3549, 3842.361
900.8370, 3859.011
901.3192, 3905.625
901.8013, 3939.363
902.2834, 3939.167
902.7655, 3909.779
903.2476, 3897.255
903.7297, 3902.462
904.2119, 3905.063
904.6940, 3887.971
905.1761, 3865.140
905.6582, 3855.791
906.1403, 3857.329
906.6224, 3861.045
907.1046, 3860.822
907.5867, 3865.862
908.0688, 3884.807
908.5509, 3909.576
909.0330, 3914.730
909.5151, 3897.708
909.9973, 3883.809
910.4793, 3879.286
910.9614, 3883.241
911.4435, 3901.928
911.9257, 3927.014
912.4078, 3940.891
912.8899, 3927.051
913.3720, 3915.036
913.8541, 3922.769
914.3362, 3932.241
914.8184, 3916.686
915.3005, 3865.504
915.7826, 3842.318
916.2647, 3858.055
916.7468, 3886.496
917.2289, 3899.291
917.7111, 3901.028
918.1932, 3898.998
918.6753, 3893.725
919.1574, 3889.234
919.6395, 3884.510
920.1216, 3883.644
920.6038, 3891.572
921.0859, 3911.379
921.5680, 3919.541
922.0501, 3914.387
922.5322, 3904.813
923.0143, 3893.622
923.4965, 3884.048
923.9786, 3885.680
924.4607, 3897.611
924.9428, 3908.132
925.4249, 3916.074
925.9070, 3916.325
926.3892, 3898.161
926.8713, 3866.564
927.3534, 3858.410
927.8355, 3879.351
928.3176, 3901.550
928.7997, 3916.098
929.2819, 3923.438
929.7640, 3922.018
930.2461, 3913.730
930.7282, 3904.167
931.2103, 3890.703
931.6924, 3882.344
932.1746, 3888.827
932.6567, 3901.163
933.1388, 3901.734
933.6209, 3886.250
934.1030, 3872.720
934.5851, 3861.674
935.0673, 3858.362
935.5494, 3879.298
936.0315, 3912.004
936.5136, 3927.896
936.9957, 3916.419
937.4778, 3902.611
937.9600, 3895.087
938.4421, 3892.928
938.9242, 3895.461
939.4063, 3903.427
939.8884, 3913.368
940.3705, 3926.517
940.8527, 3936.332
941.3348, 3936.395
941.8169, 3929.539
942.2990, 3919.116
942.7811, 3905.954
943.2632, 3897.052
943.7454, 3904.007
944.2275, 3908.116
944.7096, 3892.265
945.1917, 3862.726
945.6738, 3861.967
946.1559, 3896.182
946.6381, 3926.513
947.1202, 3936.142
947.6023, 3934.733
948.0844, 3938.352
948.5665, 3944.521
949.0486, 3946.845
949.5308, 3939.647
950.0129, 3931.735
950.4950, 3924.380
950.9771, 3918.727
951.4592, 3917.319
951.9413, 3921.331
952.4235, 3920.248
952.9056, 3910.157
953.3877, 3905.316
953.8698, 3937.821
954.3519, 3981.028
954.8340, 3989.250
955.3162, 3947.601
955.7983, 3909.961
956.2804, 3891.322
956.7625, 3885.659
957.2446, 3891.488
957.7267, 3909.219
958.2089, 3926.779
958.6910, 3944.566
959.1731, 3956.975
959.6552, 3955.644
960.1373, 3949.658
960.6194, 3953.901
961.1016, 3964.890
961.5837, 3965.285
962.0658, 3939.196
962.5479, 3913.162
963.0300, 3888.302
963.5121, 3870.822
963.9942, 3885.525
964.4763, 3930.685
964.9584, 3958.817
965.4406, 3951.289
965.9227, 3932.967
966.4048, 3927.956
966.8869, 3929.012
967.3690, 3925.494
967.8511, 3905.573
968.3333, 3899.123
968.8154, 3913.627
969.2975, 3933.287
969.7796, 3944.887
970.2617, 3948.962
970.7438, 3948.459
971.2260, 3943.524
971.7081, 3937.221
972.1902, 3927.354
972.6723, 3920.564
973.1544, 3927.658
973.6365, 3948.358
974.1187, 3948.876
974.6008, 3912.406
975.0829, 3890.953
975.5650, 3908.160
976.0471, 3948.776
976.5292, 3977.617
977.0114, 3994.245
977.4935, 3996.394
977.9756, 3970.878
978.4577, 3946.580
978.9398, 3937.177
979.4219, 3939.099
979.9041, 3947.841
980.3862, 3970.661
980.8683, 3975.277
981.3504, 3955.749
981.8325, 3930.040
982.3146, 3913.125
982.7968, 3906.246
983.2789, 3916.206
983.7610, 3945.307
984.2431, 3967.843
984.7252, 3964.608
985.2073, 3959.041
985.6895, 3969.186
986.1716, 3993.028
986.6537, 3978.450
987.1358, 3920.852
987.6179, 3884.281
988.1000, 3921.068
988.5822, 3980.291
989.0643, 3994.995
989.5464, 3978.479
990.0285, 3963.532
990.5106, 3960.347
990.9927, 3961.034
991.4749, 3967.281
991.9570, 3973.667
992.4391, 3970.575
992.9212, 3958.936
993.4033, 3952.063
993.8854, 3952.571
994.3676, 3952.491
994.8497, 3939.106
995.3318, 3925.502
995.8139, 3925.333
996.2960, 3943.430
996.7781, 3957.854
997.2603, 3967.415
997.7424, 3974.439
998.2245, 3979.380
998.7066, 3982.937
999.1887, 3988.641
999.6708, 3995.501
1000.153, 3999.150
1000.635, 3998.343
1001.117, 3992.669
1001.599, 3975.369
1002.081, 3954.899
1002.564, 3949.638
1003.046, 3964.894
1003.528, 3970.124
1004.010, 3959.006
1004.492, 3943.970
1004.974, 3934.497
1005.456, 3933.725
1005.938, 3952.792
1006.420, 3999.035
1006.903, 4028.006
1007.385, 4011.410
1007.867, 3988.049
1008.349, 3974.224
1008.831, 3969.473
1009.313, 3972.424
1009.795, 3982.525
1010.277, 3985.446
1010.760, 3960.656
1011.242, 3936.506
1011.724, 3943.106
1012.206, 3968.728
1012.688, 3984.041
1013.170, 3974.157
1013.652, 3976.646
1014.134, 4002.316
1014.616, 4028.193
1015.099, 4011.859
1015.581, 3969.617
1016.063, 3953.991
1016.545, 3975.552
1017.027, 3998.066
1017.509, 3998.720
1017.991, 3994.884
1018.473, 3999.359
1018.955, 4012.080
1019.438, 4018.104
1019.920, 4017.600
1020.402, 4008.349
1020.884, 3979.939
1021.366, 3951.010
1021.848, 3952.703
1022.330, 3974.138
1022.812, 3989.942
1023.294, 3980.990
1023.777, 3981.946
1024.259, 4004.605
1024.741, 4029.659
1025.223, 4029.886
1025.705, 4008.714
1026.187, 3990.040
1026.669, 3976.282
1027.151, 3966.619
1027.634, 3962.799
1028.116, 3960.753
1028.598, 3956.332
1029.080, 3949.437
1029.562, 3947.304
1030.044, 3948.796
1030.526, 3960.730
1031.008, 3994.348
1031.490, 4029.482
1031.973, 4018.107
1032.455, 3979.502
1032.937, 3959.362
1033.419, 3990.845
1033.901, 4016.908
1034.383, 4021.625
1034.865, 4016.927
1035.347, 4012.654
1035.830, 4008.781
1036.312, 4002.611
1036.794, 3993.910
1037.276, 3988.959
1037.758, 4000.413
1038.240, 4011.758
1038.722, 4002.989
1039.204, 3977.005
1039.687, 3970.904
1040.169, 3996.174
1040.651, 4015.802
1041.133, 4020.253
1041.615, 4013.079
1042.097, 3991.606
1042.579, 3964.840
1043.061, 3956.642
1043.543, 3983.875
1044.026, 4002.794
1044.508, 3977.449
1044.990, 3953.921
1045.472, 3972.124
1045.954, 4035.998
1046.436, 4052.975
1046.918, 4022.682
1047.400, 3993.845
1047.882, 4003.534
1048.365, 4025.659
1048.847, 4041.282
1049.329, 4049.842
1049.811, 4050.459
1050.293, 4038.111
1050.775, 4029.827
1051.257, 4029.182
1051.739, 4031.300
1052.221, 4027.956
1052.704, 4022.226
1053.186, 4022.908
1053.668, 4032.595
1054.150, 4038.316
1054.632, 4031.328
1055.114, 4021.243
1055.596, 4012.098
1056.078, 4004.240
1056.561, 4000.286
1057.043, 4000.273
1057.525, 4006.313
1058.007, 4027.619
1058.489, 4044.464
1058.971, 4026.537
1059.453, 3995.998
1059.935, 3992.160
1060.417, 4046.519
1060.900, 4067.921
1061.382, 4045.088
1061.864, 4013.575
1062.346, 4011.263
1062.828, 4024.371
1063.310, 4021.533
1063.792, 4002.823
1064.274, 3989.122
1064.756, 3996.803
1065.239, 4002.397
1065.721, 3995.555
1066.203, 3982.382
1066.685, 3977.335
1067.167, 3980.415
1067.649, 3993.560
1068.131, 4021.186
1068.613, 4044.886
1069.096, 4048.617
1069.578, 4041.396
1070.060, 4028.886
1070.542, 4007.623
1071.024, 4009.858
1071.506, 4042.834
1071.988, 4068.861
1072.470, 4060.694
1072.953, 4035.068
1073.435, 4019.160
1073.917, 4010.446
1074.399, 4001.966
1074.881, 3977.806
1075.363, 3975.218
1075.845, 4011.517
1076.327, 4054.068
1076.809, 4057.896
1077.292, 4031.343
1077.774, 4022.307
1078.256, 4034.848
1078.738, 4049.047
1079.220, 4055.246
1079.702, 4055.824
1080.184, 4037.453
1080.666, 3998.697
1081.148, 4040.242
1081.631, 4064.377
1082.113, 4072.028
1082.595, 4013.842
1083.077, 4040.671
1083.559, 4033.430
1084.041, 4024.792
1084.523, 4063.586
1085.005, 4014.976
1085.488, 4053.022
1085.970, 4056.474
1086.452, 4075.758
1086.934, 4060.760
1087.416, 4056.352
1087.898, 4086.234
1088.380, 4097.129
1088.862, 4034.323
1089.344, 4043.857
1089.827, 4051.055
1090.309, 4049.543
1090.791, 4044.546
1091.273, 4039.437
1091.755, 4034.868
1092.237, 4048.522
1092.719, 4082.294
1093.201, 4106.883
1093.683, 4098.031
1094.166, 4074.021
1094.648, 4037.838
1095.130, 3995.491
1095.612, 3980.907
1096.094, 3998.970
1096.576, 4017.862
1097.058, 4030.341
1097.540, 4037.300
1098.022, 4035.230
1098.505, 4030.435
1098.987, 4033.036
1099.469, 4048.598
1099.951, 4056.042
1100.433, 4049.178
1100.915, 4044.703
1101.397, 4057.120
1101.879, 4076.096
1102.362, 4068.488
1102.844, 4041.232
1103.326, 4017.490
1103.808, 4003.192
1104.290, 3998.967
1104.772, 4010.455
1105.254, 4026.994
1105.736, 4039.309
1106.219, 4047.420
1106.701, 4047.857
1107.183, 4040.692
1107.665, 4033.040
1108.147, 4027.706
1108.629, 4025.491
1109.111, 4028.970
1109.593, 4036.010
1110.075, 4038.222
1110.557, 4033.792
1111.040, 4040.332
1111.522, 4065.530
1112.004, 4083.240
1112.486, 4046.145
1112.968, 3995.461
1113.450, 3985.137
1113.932, 4028.597
1114.414, 4047.931
1114.897, 4026.852
1115.379, 4016.208
1115.861, 4042.529
1116.343, 4084.481
1116.825, 4101.224
1117.307, 4099.956
1117.789, 4097.607
1118.271, 4100.980
1118.754, 4099.758
1119.236, 4089.098
1119.718, 4077.529
1120.200, 4074.671
1120.682, 4077.372
1121.164, 4056.150
1121.646, 4016.588
1122.128, 3992.583
1122.610, 4019.710
1123.093, 4046.813
1123.575, 4045.760
1124.057, 4034.495
1124.539, 4037.741
1125.021, 4055.786
1125.503, 4073.075
1125.985, 4088.676
1126.467, 4093.351
1126.949, 4069.059
1127.432, 4039.861
1127.914, 4023.652
1128.396, 4020.447
1128.878, 4020.447
1129.360, 4023.391
1129.842, 4031.939
1130.324, 4048.536
1130.806, 4064.884
1131.289, 4071.640
1131.771, 4071.696
1132.253, 4066.589
1132.735, 4054.504
1133.217, 4053.991
1133.699, 4073.097
1134.181, 4083.853
1134.663, 4071.407
1135.146, 4045.602
1135.628, 4013.881
1136.110, 3986.228
1136.592, 3987.394
1137.074, 4051.316
1137.556, 4090.848
1138.038, 4085.943
1138.520, 4068.512
1139.002, 4061.835
1139.484, 4062.682
1139.967, 4054.542
1140.449, 4039.642
1140.931, 4028.701
1141.413, 4026.047
1141.895, 4030.016
1142.377, 4045.775
1142.859, 4063.124
1143.341, 4069.827
1143.824, 4066.442
1144.306, 4056.527
1144.788, 4040.594
1145.270, 4030.586
1145.752, 4042.088
1146.234, 4054.549
1146.716, 4053.616
1147.198, 4044.207
1147.680, 4038.864
1148.163, 4037.699
1148.645, 4037.073
1149.127, 4035.724
1149.609, 4038.228
1150.091, 4055.992
1150.573, 4074.291
1151.055, 4078.765
1151.537, 4068.804
1152.020, 4055.835
1152.502, 4037.475
1152.984, 4031.102
1153.466, 4047.455
1153.948, 4068.325
1154.430, 4068.469
1154.912, 4060.469
1155.394, 4062.294
1155.876, 4082.830
1156.359, 4092.115
1156.841, 4087.472
1157.323, 4080.510
1157.805, 4078.528
1158.287, 4077.473
1158.769, 4067.250
1159.251, 4052.897
1159.733, 4045.203
1160.215, 4051.294
1160.698, 4059.499
1161.180, 4071.949
1161.662, 4080.818
1162.144, 4077.146
1162.626, 4065.833
1163.108, 4056.844
1163.590, 4050.910
1164.072, 4049.967
1164.555, 4060.729
1165.037, 4068.236
1165.519, 4069.126
1166.001, 4066.998
1166.483, 4065.624
1166.965, 4065.053
1167.447, 4066.390
1167.929, 4069.459
1168.411, 4070.316
1168.894, 4060.243
1169.376, 4056.790
1169.858, 4070.974
1170.340, 4090.113
1170.822, 4081.109
1171.304, 4051.920
1171.786, 4047.402
1172.268, 4078.474
1172.750, 4101.010
1173.233, 4073.108
1173.715, 4046.202
1174.197, 4049.141
1174.679, 4074.465
1175.161, 4099.880
1175.643, 4123.267
1176.125, 4122.125
1176.607, 4081.289
1177.090, 4045.839
1177.572, 4048.917
1178.054, 4067.170
1178.536, 4085.844
1179.018, 4103.667
1179.500, 4098.087
1179.982, 4070.565
1180.464, 4054.522
1180.947, 4074.752
1181.429, 4093.361
1181.911, 4071.222
1182.393, 4039.138
1182.875, 4032.923
1183.357, 4056.819
1183.839, 4078.932
1184.321, 4099.396
1184.803, 4111.829
1185.286, 4111.006
1185.768, 4101.511
1186.250, 4075.207
1186.732, 4047.422
1187.214, 4047.316
1187.696, 4085.734
1188.178, 4099.977
1188.660, 4086.282
1189.142, 4069.064
1189.625, 4067.119
1190.107, 4070.493
1190.589, 4069.694
1191.071, 4066.897
1191.553, 4069.705
1192.035, 4081.184
1192.517, 4085.697
1192.999, 4081.206
1193.482, 4073.054
1193.964, 4057.573
1194.446, 4047.719
1194.928, 4065.818
1195.410, 4104.665
1195.892, 4115.729
1196.374, 4086.702
1196.856, 4075.105
1197.338, 4094.594
1197.821, 4119.067
1198.303, 4120.308
1198.785, 4110.175
1199.267, 4100.417
1199.749, 4092.321
1200.231, 4085.727
1200.713, 4079.112
1201.195, 4080.957
1201.677, 4096.924
1202.160, 4112.116
1202.642, 4100.706
1203.124, 4080.992
1203.606, 4077.516
1204.088, 4096.030
1204.570, 4107.958
1205.052, 4111.504
1205.534, 4112.344
1206.016, 4111.893
1206.499, 4111.169
1206.981, 4111.719
1207.463, 4112.882
1207.945, 4114.449
1208.427, 4117.790
1208.909, 4112.792
1209.391, 4095.350
1209.873, 4084.907
1210.356, 4094.448
1210.838, 4111.082
1211.320, 4116.027
1211.802, 4114.270
1212.284, 4114.542
1212.766, 4123.480
1213.248, 4118.685
1213.730, 4095.787
1214.213, 4076.233
1214.695, 4075.054
1215.177, 4083.706
1215.659, 4093.971
1216.141, 4103.585
1216.623, 4108.061
1217.105, 4103.505
1217.587, 4099.650
1218.069, 4096.044
1218.552, 4095.016
1219.034, 4101.021
1219.516, 4108.774
1219.998, 4108.451
1220.480, 4103.946
1220.962, 4105.967
1221.444, 4122.965
1221.926, 4128.454
1222.408, 4118.647
1222.891, 4109.024
1223.373, 4115.919
1223.855, 4128.681
1224.337, 4133.195
1224.819, 4131.741
1225.301, 4134.229
1225.783, 4144.745
1226.265, 4149.400
1226.748, 4145.514
1227.230, 4142.437
1227.712, 4160.273
1228.194, 4175.679
1228.676, 4147.152
1229.158, 4088.600
1229.640, 4074.838
1230.122, 4129.082
1230.604, 4157.733
1231.087, 4145.025
1231.569, 4120.553
1232.051, 4109.508
1232.533, 4105.772
1233.015, 4102.147
1233.497, 4099.623
1233.979, 4106.735
1234.461, 4126.241
1234.943, 4143.895
1235.426, 4158.735
1235.908, 4163.240
1236.390, 4133.916
1236.872, 4102.424
1237.354, 4107.259
1237.836, 4145.250
1238.318, 4159.912
1238.800, 4147.583
1239.283, 4141.244
1239.765, 4151.186
1240.247, 4154.349
1240.729, 4103.251
1241.211, 4053.208
1241.693, 4073.543
1242.175, 4151.966
1242.657, 4174.491
1243.140, 4136.828
1243.622, 4113.532
1244.104, 4125.967
1244.586, 4148.033
1245.068, 4169.974
1245.550, 4180.162
1246.032, 4159.416
1246.514, 4115.238
1246.996, 4096.246
1247.479, 4101.833
1247.961, 4109.812
1248.443, 4113.069
1248.925, 4119.029
1249.407, 4136.539
1249.889, 4156.393
1250.371, 4174.740
1250.853, 4189.660
1251.335, 4180.958
1251.818, 4151.857
1252.300, 4134.013
1252.782, 4139.674
1253.264, 4151.028
1253.746, 4164.299
1254.228, 4172.315
1254.710, 4169.211
1255.192, 4157.298
1255.674, 4150.562
1256.157, 4147.354
1256.639, 4138.036
1257.121, 4113.747
1257.603, 4097.670
1258.085, 4103.875
1258.567, 4118.977
1259.049, 4142.163
1259.531, 4166.458
1260.014, 4148.167
1260.496, 4103.995
1260.978, 4092.844
1261.460, 4155.030
1261.942, 4203.877
1262.424, 4212.833
1262.906, 4211.816
1263.388, 4218.755
1263.870, 4227.814
1264.353, 4220.563
1264.835, 4201.395
1265.317, 4180.908
1265.799, 4154.430
1266.281, 4147.527
1266.763, 4172.729
1267.245, 4192.542
1267.727, 4177.701
1268.209, 4146.970
1268.692, 4136.517
1269.174, 4139.913
1269.656, 4143.303
1270.138, 4137.011
1270.620, 4148.429
1271.102, 4185.050
1271.584, 4211.580
1272.066, 4195.303
1272.549, 4165.584
1273.031, 4162.920
1273.513, 4176.449
1273.995, 4187.206
1274.477, 4194.120
1274.959, 4191.549
1275.441, 4178.440
1275.923, 4164.941
1276.406, 4155.409
1276.888, 4150.802
1277.370, 4150.765
1277.852, 4157.356
1278.334, 4177.858
1278.816, 4219.975
1279.298, 4219.282
1279.780, 4176.094
1280.262, 4135.147
1280.745, 4122.835
1281.227, 4123.419
1281.709, 4132.081
1282.191, 4145.192
1282.673, 4158.361
1283.155, 4171.532
1283.637, 4193.699
1284.119, 4221.783
1284.601, 4230.766
1285.084, 4181.646
1285.566, 4143.623
1286.048, 4151.124
1286.530, 4171.674
1287.012, 4177.129
1287.494, 4172.201
1287.976, 4188.686
1288.458, 4219.500
1288.941, 4235.075
1289.423, 4207.223
1289.905, 4185.257
1290.387, 4175.945
1290.869, 4174.029
1291.351, 4178.850
1291.833, 4186.323
1292.315, 4185.824
1292.797, 4179.664
1293.280, 4174.245
1293.762, 4165.940
1294.244, 4171.719
1294.726, 4198.208
1295.208, 4215.970
1295.690, 4185.792
1296.172, 4146.400
1296.654, 4155.718
1297.136, 4193.669
1297.619, 4216.416
1298.101, 4215.567
1298.583, 4217.260
##END=



