##NAMES=Uramarsite
##RRUFFID=R061122
##IDEAL CHEMISTRY=N^3-^H_4_(U^6+^O_2_)As^5+^O_4_&#183;3H_2_O
##LOCALITY=Bota-Burum Uranium deposit, Kazakhstan
##OWNER=RRUFF
##SOURCE=Michael Scott
##DESCRIPTION=Brownish green cleavage fragment, co-type material
##STATUS=The identification of this mineral has been confirmed by single-crystal X-ray diffraction.
##URL=rruff.info/R061122
160.6808, 912.8252
161.1629, 905.7451
161.6451, 900.4716
162.1272, 896.2346
162.6093, 892.6990
163.0914, 891.2996
163.5735, 894.8100
164.0556, 898.9194
164.5378, 899.4147
165.0199, 894.8784
165.5020, 887.9527
165.9841, 884.4549
166.4662, 887.9239
166.9483, 889.2143
167.4305, 886.5809
167.9126, 882.3085
168.3947, 877.5450
168.8768, 872.7991
169.3589, 869.4999
169.8410, 871.5146
170.3232, 886.2003
170.8053, 895.4351
171.2874, 897.1393
171.7695, 893.7134
172.2516, 885.6872
172.7337, 873.3795
173.2159, 860.2519
173.6980, 855.0402
174.1801, 863.6912
174.6622, 873.2407
175.1443, 886.4603
175.6264, 898.6994
176.1085, 904.0426
176.5907, 900.1570
177.0728, 891.1255
177.5549, 887.2722
178.0370, 898.0757
178.5191, 902.2328
179.0012, 890.9686
179.4834, 876.1213
179.9655, 871.3276
180.4476, 881.8893
180.9297, 901.4841
181.4118, 915.3774
181.8939, 915.6144
182.3761, 919.3417
182.8582, 928.2900
183.3403, 940.2042
183.8224, 952.5557
184.3045, 964.4197
184.7866, 976.7421
185.2688, 991.8580
185.7509, 1020.418
186.2330, 1037.950
186.7151, 1036.175
187.1972, 1026.512
187.6793, 1020.899
188.1615, 1023.503
188.6436, 1030.851
189.1257, 1035.818
189.6078, 1032.271
190.0899, 1035.310
190.5720, 1051.980
191.0542, 1072.433
191.5363, 1085.493
192.0184, 1087.524
192.5005, 1084.666
192.9826, 1088.058
193.4647, 1105.393
193.9469, 1116.473
194.4290, 1116.250
194.9111, 1111.754
195.3932, 1111.151
195.8753, 1116.658
196.3574, 1123.149
196.8396, 1122.239
197.3217, 1110.277
197.8038, 1096.760
198.2859, 1077.703
198.7680, 1059.270
199.2501, 1048.925
199.7323, 1048.332
200.2144, 1051.245
200.6965, 1049.008
201.1786, 1039.471
201.6607, 1028.352
202.1428, 1013.334
202.6250, 997.9963
203.1071, 986.2770
203.5892, 978.7487
204.0713, 972.0281
204.5534, 961.8177
205.0355, 946.5007
205.5177, 931.6684
205.9998, 917.4921
206.4819, 903.6467
206.9640, 888.8917
207.4461, 873.3732
207.9282, 860.2892
208.4104, 854.3153
208.8925, 859.1893
209.3746, 854.9887
209.8567, 831.1993
210.3388, 806.2095
210.8209, 795.2314
211.3030, 798.6259
211.7852, 804.1684
212.2673, 800.0357
212.7494, 784.3193
213.2315, 769.3409
213.7136, 752.7297
214.1957, 738.7361
214.6779, 729.3737
215.1600, 725.0037
215.6421, 726.5413
216.1242, 736.7365
216.6063, 756.6449
217.0884, 763.3033
217.5706, 745.0403
218.0527, 726.1575
218.5348, 720.7064
219.0169, 726.6562
219.4990, 733.2365
219.9811, 732.5856
220.4633, 724.8276
220.9454, 717.6691
221.4275, 711.3149
221.9096, 705.2117
222.3917, 698.4044
222.8738, 691.5658
223.3560, 686.4246
223.8381, 684.1453
224.3202, 684.4857
224.8023, 685.5382
225.2844, 690.3664
225.7665, 692.4505
226.2487, 687.3441
226.7308, 678.2759
227.2129, 671.4174
227.6950, 670.2440
228.1771, 673.3452
228.6592, 674.9698
229.1414, 674.7021
229.6235, 673.5454
230.1056, 672.6339
230.5877, 670.6883
231.0698, 664.3693
231.5519, 651.8533
232.0341, 637.4247
232.5162, 632.2642
232.9983, 647.9233
233.4804, 658.9678
233.9625, 662.5535
234.4446, 661.8773
234.9268, 660.0632
235.4089, 658.2239
235.8910, 656.0887
236.3731, 653.0870
236.8552, 647.5959
237.3373, 643.9438
237.8195, 643.6394
238.3016, 644.2195
238.7837, 642.6010
239.2658, 638.5252
239.7479, 635.5278
240.2300, 639.0015
240.7122, 653.3780
241.1943, 662.9236
241.6764, 667.5249
242.1585, 668.2057
242.6406, 663.1487
243.1227, 653.6298
243.6049, 644.9302
244.0870, 642.8759
244.5691, 648.9570
245.0512, 654.4141
245.5333, 658.9348
246.0154, 663.2128
246.4975, 669.3196
246.9797, 675.8036
247.4618, 678.4158
247.9439, 672.9828
248.4260, 659.2331
248.9081, 648.6700
249.3902, 640.7030
249.8724, 636.6002
250.3545, 639.8091
250.8366, 647.0371
251.3187, 652.2269
251.8008, 651.1187
252.2829, 645.0093
252.7651, 642.0049
253.2472, 644.3172
253.7293, 647.4493
254.2114, 651.5200
254.6935, 655.6671
255.1756, 658.9379
255.6578, 660.8532
256.1399, 661.6658
256.6220, 662.1131
257.1041, 662.7670
257.5862, 661.9225
258.0684, 657.7150
258.5505, 653.0294
259.0326, 651.0685
259.5147, 652.7775
259.9968, 655.3315
260.4789, 653.3589
260.9611, 643.8051
261.4432, 638.6294
261.9253, 643.0079
262.4074, 649.1022
262.8895, 652.8365
263.3716, 653.3683
263.8537, 651.3956
264.3358, 646.3466
264.8180, 637.4297
265.3001, 632.1992
265.7822, 634.4905
266.2643, 637.7355
266.7464, 639.6193
267.2285, 639.8129
267.7107, 638.1976
268.1928, 633.1357
268.6749, 625.3237
269.1570, 621.3412
269.6391, 622.4694
270.1212, 626.0069
270.6034, 631.7452
271.0855, 638.4849
271.5676, 643.7617
272.0497, 645.8182
272.5318, 645.7240
273.0139, 646.3720
273.4961, 648.6788
273.9782, 649.1180
274.4603, 642.6342
274.9424, 634.2181
275.4245, 630.7250
275.9066, 635.8903
276.3888, 643.7377
276.8709, 647.4155
277.3530, 646.8085
277.8351, 644.0244
278.3172, 638.3515
278.7993, 631.7759
279.2815, 626.8510
279.7636, 623.9789
280.2457, 621.9541
280.7278, 619.5397
281.2099, 617.0857
281.6920, 616.5723
282.1742, 619.4353
282.6563, 623.1757
283.1384, 624.9958
283.6205, 625.0597
284.1026, 623.0807
284.5847, 616.1502
285.0669, 607.7933
285.5490, 604.7993
286.0311, 609.0208
286.5132, 615.2045
286.9953, 619.0226
287.4774, 620.4808
287.9596, 617.9638
288.4417, 605.1016
288.9238, 592.1448
289.4059, 589.2055
289.8880, 596.3791
290.3701, 606.8613
290.8523, 617.2635
291.3344, 626.8331
291.8165, 630.2976
292.2986, 622.1208
292.7807, 613.9126
293.2628, 609.9261
293.7450, 609.9857
294.2271, 614.3343
294.7092, 624.0435
295.1913, 636.0452
295.6734, 639.7844
296.1555, 627.1258
296.6377, 616.9326
297.1198, 611.9524
297.6019, 610.5026
298.0840, 611.3491
298.5661, 613.9952
299.0482, 617.2143
299.5304, 619.1083
300.0125, 619.6783
300.4946, 618.6710
300.9767, 615.9717
301.4588, 611.9968
301.9409, 605.0358
302.4231, 596.2272
302.9052, 590.4802
303.3873, 593.7747
303.8694, 607.8724
304.3515, 614.4937
304.8336, 604.0659
305.3158, 595.8229
305.7979, 598.8922
306.2800, 608.5985
306.7621, 614.6857
307.2442, 609.9843
307.7263, 597.6096
308.2085, 591.2618
308.6906, 596.0021
309.1727, 598.7607
309.6548, 594.4186
310.1369, 587.8569
310.6190, 584.2762
311.1012, 585.5307
311.5833, 589.5203
312.0654, 593.4664
312.5475, 597.4412
313.0296, 600.9120
313.5117, 603.8884
313.9939, 606.1431
314.4760, 607.9955
314.9581, 609.3189
315.4402, 608.6450
315.9223, 604.1353
316.4044, 596.3234
316.8866, 587.9630
317.3687, 577.6278
317.8508, 569.7471
318.3329, 568.3519
318.8150, 571.9047
319.2971, 576.1130
319.7793, 583.3214
320.2614, 588.5393
320.7435, 580.7795
321.2256, 558.4948
321.7077, 541.5921
322.1898, 545.1229
322.6720, 561.9200
323.1541, 571.9777
323.6362, 570.0125
324.1183, 567.0275
324.6004, 570.7975
325.0826, 578.9859
325.5647, 584.2546
326.0468, 583.4111
326.5289, 579.2711
327.0110, 577.0842
327.4931, 577.2690
327.9753, 577.7115
328.4574, 578.0398
328.9395, 578.4540
329.4216, 580.5400
329.9037, 584.1909
330.3858, 584.8600
330.8680, 576.4509
331.3501, 556.0656
331.8322, 545.6974
332.3143, 552.4755
332.7964, 561.0938
333.2785, 564.0885
333.7606, 562.8212
334.2427, 562.5277
334.7249, 566.8087
335.2070, 574.3280
335.6891, 577.8693
336.1712, 572.5086
336.6533, 569.1179
337.1354, 570.1424
337.6176, 573.0733
338.0997, 575.7340
338.5818, 577.3040
339.0639, 577.5668
339.5460, 576.1618
340.0281, 572.9918
340.5103, 568.4438
340.9924, 558.9702
341.4745, 550.9971
341.9566, 547.2496
342.4387, 548.0058
342.9208, 552.8932
343.4030, 564.3630
343.8851, 580.5727
344.3672, 590.1873
344.8493, 591.9090
345.3314, 589.1542
345.8135, 579.4417
346.2957, 567.5853
346.7778, 561.6393
347.2599, 566.6434
347.7420, 575.0892
348.2241, 577.8815
348.7062, 575.1617
349.1884, 573.1672
349.6705, 575.4544
350.1526, 578.4439
350.6347, 576.2872
351.1168, 567.7274
351.5989, 559.8652
352.0811, 554.4576
352.5632, 552.0649
353.0453, 555.3619
353.5274, 565.4260
354.0095, 575.1086
354.4916, 576.2831
354.9738, 567.4450
355.4559, 563.4842
355.9380, 568.4803
356.4201, 574.8691
356.9022, 578.7993
357.3843, 580.2131
357.8665, 572.3073
358.3486, 584.6003
358.8307, 591.8356
359.3128, 594.2852
359.7949, 577.6146
360.2770, 585.6337
360.7592, 583.7584
361.2413, 581.4773
361.7234, 592.9713
362.2055, 579.0817
362.6876, 589.0360
363.1697, 591.3259
363.6519, 596.5513
364.1340, 597.5466
364.6161, 587.3159
365.0982, 579.2589
365.5803, 581.6102
366.0624, 591.0971
366.5446, 598.2800
367.0267, 596.4733
367.5088, 588.1916
367.9909, 581.0289
368.4730, 573.8844
368.9551, 570.8087
369.4373, 579.3191
369.9194, 589.9270
370.4015, 591.1638
370.8836, 578.2260
371.3657, 565.7810
371.8478, 570.3448
372.3300, 588.6256
372.8121, 599.9215
373.2942, 597.8919
373.7763, 590.6434
374.2584, 585.9778
374.7405, 583.6624
375.2227, 583.7066
375.7048, 588.7112
376.1869, 594.4581
376.6690, 595.7155
377.1511, 592.6384
377.6332, 590.2710
378.1154, 592.3398
378.5975, 597.8580
379.0796, 600.1547
379.5617, 596.7485
380.0438, 593.7414
380.5259, 592.4446
381.0081, 592.4911
381.4902, 593.8701
381.9723, 596.4839
382.4544, 599.0195
382.9365, 599.4280
383.4186, 596.9890
383.9008, 594.3626
384.3829, 591.3847
384.8650, 588.3864
385.3471, 583.9138
385.8292, 579.4009
386.3113, 578.7589
386.7935, 585.6727
387.2756, 597.8250
387.7577, 605.4761
388.2398, 607.6258
388.7219, 607.1107
389.2040, 601.3539
389.6862, 595.3243
390.1683, 594.9996
390.6504, 602.2129
391.1325, 609.6423
391.6146, 608.7606
392.0967, 600.9805
392.5789, 596.9268
393.0610, 599.5519
393.5431, 604.0321
394.0252, 607.1790
394.5073, 608.8548
394.9894, 607.2264
395.4716, 597.1425
395.9537, 586.8405
396.4358, 587.8140
396.9179, 597.8863
397.4000, 599.6084
397.8821, 579.9791
398.3643, 549.2012
398.8464, 541.6772
399.3285, 577.0149
399.8106, 602.2222
400.2927, 603.7169
400.7748, 594.0850
401.2570, 583.9341
401.7391, 576.3835
402.2212, 573.0316
402.7033, 576.8513
403.1854, 589.5666
403.6675, 594.7548
404.1497, 584.1638
404.6317, 574.5585
405.1139, 572.5178
405.5960, 574.4398
406.0781, 573.5139
406.5602, 566.0892
407.0423, 556.3243
407.5244, 551.7651
408.0066, 552.7689
408.4887, 557.7580
408.9708, 572.9272
409.4529, 586.7386
409.9350, 589.0582
410.4171, 580.3162
410.8993, 572.1099
411.3814, 573.8274
411.8635, 580.1038
412.3456, 578.4294
412.8277, 566.9648
413.3098, 557.2065
413.7920, 556.8422
414.2741, 564.3063
414.7562, 571.6666
415.2383, 579.9132
415.7204, 586.8087
416.2025, 593.5776
416.6847, 597.8386
417.1668, 592.7307
417.6489, 576.2151
418.1310, 559.0879
418.6131, 557.1232
419.0952, 576.8898
419.5774, 587.5168
420.0595, 582.4346
420.5416, 575.9966
421.0237, 576.2697
421.5058, 580.5041
421.9879, 581.1479
422.4701, 573.3883
422.9522, 560.7006
423.4343, 552.7557
423.9164, 550.6053
424.3985, 550.7203
424.8806, 555.0184
425.3628, 559.4901
425.8449, 561.1031
426.3270, 559.6915
426.8091, 557.6636
427.2912, 556.6629
427.7733, 556.3954
428.2555, 555.7056
428.7376, 554.1945
429.2197, 553.7131
429.7018, 556.5084
430.1839, 561.0663
430.6660, 563.3705
431.1482, 562.8583
431.6303, 560.4783
432.1124, 553.9689
432.5945, 546.4160
433.0766, 544.8715
433.5587, 551.5376
434.0409, 560.3086
434.5230, 563.1276
435.0051, 558.0024
435.4872, 555.1198
435.9693, 556.5516
436.4514, 557.8657
436.9336, 555.6577
437.4157, 551.8700
437.8978, 551.0626
438.3799, 555.8944
438.8620, 563.6450
439.3441, 567.4256
439.8263, 565.6111
440.3084, 564.3113
440.7905, 564.3978
441.2726, 565.3315
441.7547, 567.0463
442.2368, 569.4320
442.7190, 572.0415
443.2011, 575.0279
443.6832, 577.9449
444.1653, 580.9906
444.6474, 584.8671
445.1295, 583.0585
445.6117, 567.8973
446.0938, 546.4344
446.5759, 535.7039
447.0580, 540.1550
447.5401, 546.4026
448.0222, 549.6251
448.5044, 551.5793
448.9865, 555.9301
449.4686, 563.0166
449.9507, 567.5592
450.4328, 563.2178
450.9149, 549.1093
451.3971, 542.7202
451.8792, 551.7005
452.3613, 559.2106
452.8434, 559.3634
453.3255, 555.9975
453.8076, 554.3702
454.2898, 556.3999
454.7719, 560.2963
455.2540, 563.8117
455.7361, 567.0078
456.2182, 569.3751
456.7003, 571.5333
457.1825, 571.9243
457.6646, 569.4227
458.1467, 564.6022
458.6288, 558.9315
459.1109, 551.2075
459.5930, 544.5377
460.0752, 542.5550
460.5573, 544.9261
461.0394, 550.3593
461.5215, 559.7947
462.0036, 569.1584
462.4857, 570.4578
462.9679, 560.3402
463.4500, 555.7231
463.9321, 563.7031
464.4142, 573.1436
464.8963, 575.5441
465.3784, 572.0543
465.8606, 568.6620
466.3427, 569.1101
466.8248, 572.3548
467.3069, 574.9319
467.7890, 577.3292
468.2711, 578.0573
468.7533, 577.9123
469.2354, 575.5453
469.7175, 566.8099
470.1996, 553.3328
470.6817, 544.8381
471.1638, 553.3649
471.6460, 572.0448
472.1281, 579.3890
472.6102, 573.5782
473.0923, 566.0931
473.5744, 561.3650
474.0565, 559.1276
474.5387, 558.2747
475.0208, 558.4736
475.5029, 560.8996
475.9850, 569.5020
476.4671, 578.9444
476.9492, 581.0938
477.4313, 575.4303
477.9135, 568.8623
478.3956, 567.3617
478.8777, 570.5676
479.3598, 572.2331
479.8419, 572.8590
480.3240, 571.2054
480.8062, 564.7199
481.2883, 557.1284
481.7704, 552.0336
482.2525, 550.2892
482.7346, 550.6935
483.2167, 552.5198
483.6989, 555.6547
484.1810, 558.8984
484.6631, 563.4105
485.1452, 565.5768
485.6273, 558.9011
486.1094, 549.5983
486.5916, 548.7419
487.0737, 563.2292
487.5558, 575.5191
488.0379, 572.5449
488.5200, 559.9937
489.0021, 548.0380
489.4843, 538.8107
489.9664, 534.0573
490.4485, 536.8431
490.9306, 547.9749
491.4127, 551.6495
491.8948, 538.5523
492.3770, 529.9711
492.8591, 537.1124
493.3412, 550.0362
493.8233, 555.2693
494.3054, 548.7913
494.7875, 538.1149
495.2697, 532.7859
495.7518, 533.0622
496.2339, 532.8505
496.7160, 532.9611
497.1981, 530.9695
497.6802, 522.7413
498.1624, 512.2311
498.6445, 506.8375
499.1266, 510.4981
499.6087, 515.4199
500.0908, 514.3627
500.5729, 510.0714
501.0551, 510.6032
501.5372, 518.2665
502.0193, 526.1685
502.5014, 527.0873
502.9835, 520.4391
503.4656, 513.9453
503.9478, 507.1305
504.4299, 500.9915
504.9120, 493.7901
505.3941, 488.2615
505.8762, 489.8826
506.3583, 499.8622
506.8405, 510.4255
507.3226, 510.3742
507.8047, 499.0742
508.2868, 489.6081
508.7689, 481.5362
509.2510, 476.6696
509.7332, 477.3727
510.2153, 481.3942
510.6974, 485.0175
511.1795, 487.2692
511.6616, 489.2416
512.1437, 493.1429
512.6259, 497.1632
513.1080, 496.0270
513.5901, 488.4585
514.0722, 480.3597
514.5543, 477.4176
515.0364, 479.7959
515.5186, 482.1686
516.0007, 488.2514
516.4828, 489.9370
516.9649, 478.6508
517.4470, 464.9633
517.9291, 463.9422
518.4113, 478.3319
518.8934, 494.0153
519.3755, 492.6522
519.8576, 475.1932
520.3397, 467.8699
520.8218, 476.3707
521.3040, 483.2151
521.7861, 473.0926
522.2682, 457.6053
522.7503, 454.7238
523.2324, 471.4433
523.7145, 487.6982
524.1967, 493.0872
524.6788, 491.3333
525.1609, 486.9553
525.6430, 480.9751
526.1251, 475.4575
526.6072, 471.9878
527.0894, 470.4420
527.5715, 469.8219
528.0536, 471.2444
528.5357, 472.1983
529.0178, 474.8861
529.4999, 475.3987
529.9821, 466.3941
530.4642, 449.4663
530.9463, 438.3869
531.4284, 449.7339
531.9105, 474.9014
532.3926, 482.6336
532.8748, 469.2947
533.3569, 458.9670
533.8390, 463.0002
534.3211, 475.0284
534.8032, 484.7081
535.2853, 492.0750
535.7675, 497.1307
536.2496, 500.1654
536.7317, 500.6839
537.2138, 496.7433
537.6959, 489.5519
538.1780, 483.2064
538.6602, 480.0923
539.1423, 479.5456
539.6244, 479.7971
540.1065, 480.9177
540.5886, 482.7009
541.0707, 487.3510
541.5529, 490.6672
542.0350, 488.8934
542.5171, 483.6676
542.9992, 480.4231
543.4813, 482.8831
543.9634, 487.1398
544.4456, 488.2235
544.9277, 486.5244
545.4098, 484.2895
545.8919, 481.9268
546.3740, 480.0191
546.8561, 479.2437
547.3383, 479.7067
547.8204, 480.9441
548.3025, 484.5634
548.7846, 487.1877
549.2667, 487.0859
549.7488, 485.2065
550.2310, 482.7710
550.7131, 480.2606
551.1952, 477.8435
551.6773, 475.2115
552.1594, 472.3438
552.6415, 472.1900
553.1237, 475.1872
553.6058, 480.1695
554.0879, 491.5753
554.5700, 503.0686
555.0521, 503.4770
555.5342, 486.7943
556.0164, 472.2601
556.4985, 470.6400
556.9806, 476.2680
557.4627, 482.5240
557.9448, 488.2100
558.4269, 493.3872
558.9091, 498.4036
559.3912, 502.5296
559.8733, 501.8001
560.3554, 490.4373
560.8375, 483.9779
561.3196, 487.0643
561.8018, 492.3713
562.2839, 495.1631
562.7660, 495.3995
563.2481, 495.4659
563.7302, 498.3470
564.2123, 500.4458
564.6945, 493.9704
565.1766, 479.9266
565.6587, 468.9454
566.1408, 464.2932
566.6229, 464.8088
567.1050, 470.6368
567.5872, 483.8376
568.0693, 489.6634
568.5514, 480.4110
569.0335, 471.9913
569.5156, 471.3076
569.9977, 476.0322
570.4799, 483.1137
570.9620, 491.2664
571.4441, 498.6270
571.9262, 502.5736
572.4083, 503.2039
572.8904, 503.3972
573.3726, 502.9384
573.8547, 502.6492
574.3368, 503.0946
574.8189, 503.9333
575.3010, 504.5954
575.7831, 504.9697
576.2653, 505.4001
576.7474, 504.4255
577.2295, 504.5695
577.7116, 510.9540
578.1937, 522.0158
578.6758, 529.4093
579.1580, 527.5034
579.6401, 519.2458
580.1222, 513.2227
580.6042, 510.1491
581.0864, 507.5342
581.5685, 502.5613
582.0506, 500.4013
582.5327, 506.1603
583.0148, 517.1182
583.4969, 525.3577
583.9791, 526.2875
584.4612, 525.4884
584.9433, 529.4744
585.4254, 536.0093
585.9075, 538.3630
586.3896, 534.8771
586.8718, 528.3058
587.3539, 520.2424
587.8360, 510.7757
588.3181, 508.6946
588.8002, 524.9630
589.2823, 534.9972
589.7645, 529.7192
590.2466, 520.0498
590.7287, 515.4336
591.2108, 517.3800
591.6929, 522.9500
592.1750, 533.4838
592.6572, 544.7325
593.1393, 545.2927
593.6214, 535.2287
594.1035, 527.2281
594.5856, 526.5916
595.0677, 529.2487
595.5499, 528.6432
596.0320, 522.8672
596.5141, 522.7039
596.9962, 534.8782
597.4783, 545.8508
597.9604, 546.6299
598.4426, 542.8742
598.9247, 545.2697
599.4068, 557.0502
599.8889, 568.9987
600.3710, 568.4159
600.8531, 556.8405
601.3353, 551.0505
601.8174, 553.6793
602.2995, 554.3531
602.7816, 544.9283
603.2637, 531.6634
603.7458, 528.0427
604.2280, 537.9500
604.7101, 544.8679
605.1922, 540.3873
605.6743, 535.0383
606.1564, 539.6865
606.6385, 551.1255
607.1207, 557.7679
607.6028, 553.4083
608.0849, 544.8436
608.5670, 545.9639
609.0491, 558.6773
609.5313, 565.5571
610.0134, 562.6097
610.4955, 557.9022
610.9776, 555.1136
611.4597, 554.2571
611.9418, 556.1694
612.4240, 563.5153
612.9061, 568.1893
613.3882, 563.2183
613.8703, 555.4481
614.3524, 554.3755
614.8345, 559.7193
615.3167, 563.6465
615.7988, 560.6523
616.2809, 553.3375
616.7630, 549.2531
617.2451, 548.5047
617.7272, 550.7833
618.2094, 558.6389
618.6915, 566.8740
619.1736, 573.0994
619.6557, 577.2219
620.1378, 579.0396
620.6199, 576.8345
621.1021, 574.8931
621.5842, 576.6656
622.0663, 580.3792
622.5484, 583.0885
623.0305, 584.2951
623.5126, 585.0226
623.9948, 586.1502
624.4769, 587.4706
624.9590, 587.8710
625.4411, 587.4996
625.9232, 585.9069
626.4053, 579.6316
626.8875, 574.9487
627.3696, 577.7694
627.8517, 586.2010
628.3338, 592.1246
628.8159, 592.5375
629.2980, 589.2553
629.7802, 580.3670
630.2623, 569.4731
630.7444, 565.5789
631.2265, 570.4553
631.7086, 576.8309
632.1907, 577.8132
632.6729, 574.0352
633.1550, 572.4048
633.6371, 574.6912
634.1192, 576.0154
634.6013, 573.7779
635.0834, 571.7007
635.5656, 573.9546
636.0477, 579.4989
636.5298, 581.9975
637.0119, 576.0891
637.4940, 568.4127
637.9761, 564.5876
638.4583, 563.9673
638.9404, 566.4044
639.4225, 571.6839
639.9046, 574.1257
640.3867, 566.5445
640.8688, 550.0029
641.3510, 544.3997
641.8331, 561.1888
642.3152, 569.7269
642.7973, 555.3950
643.2794, 537.8896
643.7615, 533.5006
644.2437, 541.5106
644.7258, 548.9724
645.2079, 549.1634
645.6900, 546.9507
646.1721, 545.8416
646.6542, 546.0583
647.1364, 549.5884
647.6185, 556.7673
648.1006, 561.7200
648.5827, 557.5374
649.0648, 545.0093
649.5469, 537.4590
650.0291, 536.6964
650.5112, 537.9362
650.9933, 545.8284
651.4754, 551.0172
651.9575, 542.4653
652.4396, 522.4179
652.9218, 508.5775
653.4039, 512.0422
653.8860, 521.1182
654.3681, 527.7799
654.8502, 532.3372
655.3323, 535.6270
655.8145, 537.8536
656.2966, 538.7002
656.7787, 537.8646
657.2608, 535.3527
657.7429, 530.9789
658.2250, 522.8207
658.7072, 516.8987
659.1893, 515.2104
659.6714, 515.7586
660.1535, 517.9344
660.6356, 521.3507
661.1177, 524.1531
661.5999, 527.0176
662.0820, 527.7848
662.5641, 523.1787
663.0462, 516.0473
663.5283, 510.7343
664.0104, 508.3205
664.4926, 509.0627
664.9747, 514.0566
665.4568, 521.5872
665.9389, 523.0462
666.4210, 516.9828
666.9031, 509.1035
667.3853, 494.4104
667.8674, 484.8588
668.3495, 496.0507
668.8316, 522.1428
669.3137, 536.4155
669.7958, 525.2784
670.2780, 511.1722
670.7601, 503.2439
671.2422, 498.8165
671.7243, 495.1788
672.2064, 491.5732
672.6885, 487.0164
673.1707, 479.8760
673.6528, 473.3426
674.1349, 478.7528
674.6170, 498.1633
675.0991, 508.5909
675.5812, 502.9163
676.0634, 492.9262
676.5455, 485.4965
677.0276, 481.3565
677.5097, 483.1631
677.9918, 498.2028
678.4739, 509.0011
678.9561, 508.5383
679.4382, 504.2422
679.9203, 503.1360
680.4024, 504.3995
680.8845, 502.2577
681.3666, 492.8580
681.8488, 481.4236
682.3309, 476.2923
682.8130, 476.8694
683.2951, 478.7042
683.7772, 481.5923
684.2593, 483.7575
684.7415, 483.4807
685.2236, 481.8958
685.7057, 483.0136
686.1878, 492.0284
686.6699, 494.8298
687.1520, 486.8378
687.6342, 476.7256
688.1163, 465.3638
688.5984, 456.5346
689.0805, 458.3855
689.5626, 475.0558
690.0447, 491.5051
690.5269, 492.2426
691.0090, 482.7024
691.4911, 472.8450
691.9732, 463.9255
692.4553, 461.5103
692.9374, 469.6034
693.4196, 481.6002
693.9017, 484.4576
694.3838, 475.1823
694.8659, 467.8336
695.3480, 464.1373
695.8301, 460.3826
696.3123, 453.5984
696.7944, 447.0643
697.2765, 443.9489
697.7586, 444.7542
698.2407, 451.2279
698.7228, 474.9214
699.2050, 496.2243
699.6871, 488.8860
700.1692, 463.0255
700.6513, 448.2631
701.1334, 454.1476
701.6155, 464.9772
702.0977, 461.6289
702.5798, 445.5225
703.0619, 436.9362
703.5440, 437.7375
704.0261, 440.7276
704.5082, 445.9561
704.9904, 450.4108
705.4725, 449.5225
705.9546, 443.8435
706.4367, 441.0976
706.9188, 443.9168
707.4009, 448.0016
707.8831, 452.6651
708.3652, 456.9945
708.8473, 460.5424
709.3294, 462.8654
709.8115, 462.5611
710.2936, 457.7308
710.7758, 451.3680
711.2579, 449.7507
711.7400, 452.3659
712.2221, 452.7612
712.7042, 448.7272
713.1863, 448.3912
713.6685, 460.1839
714.1506, 480.3326
714.6327, 490.2731
715.1148, 483.7986
715.5969, 476.2399
716.0790, 463.8086
716.5612, 454.3604
717.0433, 455.1665
717.5254, 461.6999
718.0075, 463.6983
718.4896, 456.7831
718.9717, 450.3054
719.4539, 453.9915
719.9360, 461.0422
720.4181, 459.1087
720.9002, 449.6161
721.3823, 444.5748
721.8644, 449.9769
722.3465, 458.7710
722.8286, 458.3183
723.3107, 447.0766
723.7928, 442.9536
724.2750, 449.7920
724.7571, 455.3627
725.2392, 453.2105
725.7213, 448.4023
726.2034, 447.8574
726.6855, 451.9352
727.1677, 455.2017
727.6498, 453.1378
728.1319, 453.9631
728.6140, 465.9414
729.0961, 481.2929
729.5782, 490.5817
730.0604, 491.7267
730.5425, 486.1870
731.0246, 471.8589
731.5067, 455.2144
731.9888, 451.6311
732.4709, 459.1178
732.9531, 459.1669
733.4352, 446.3888
733.9173, 435.8849
734.3994, 441.9012
734.8815, 460.7571
735.3636, 470.7426
735.8458, 467.2949
736.3279, 462.8202
736.8100, 456.7400
737.2921, 451.1550
737.7742, 446.2055
738.2563, 442.8078
738.7385, 443.3847
739.2206, 449.9043
739.7027, 455.5875
740.1848, 454.1828
740.6669, 443.0136
741.1490, 455.2688
741.6312, 462.4666
742.1133, 464.8782
742.5954, 448.1698
743.0775, 456.1510
743.5596, 454.2377
744.0417, 451.9187
744.5239, 463.3750
745.0060, 449.4475
745.4881, 460.6851
745.9702, 461.1326
746.4523, 464.1408
746.9344, 472.3388
747.4166, 486.7323
747.8987, 496.7102
748.3808, 502.2069
748.8629, 503.6932
749.3450, 498.0873
749.8271, 490.8732
750.3093, 487.4877
750.7914, 487.4853
751.2735, 485.8837
751.7556, 477.6416
752.2377, 471.3810
752.7198, 478.6836
753.2020, 492.7259
753.6841, 499.4007
754.1662, 497.7751
754.6483, 496.8960
755.1304, 502.6858
755.6125, 511.3603
756.0947, 513.3870
756.5768, 507.4137
757.0589, 508.0184
757.5410, 518.9335
758.0231, 529.2158
758.5052, 533.0892
758.9874, 533.2061
759.4695, 534.4871
759.9516, 537.3285
760.4337, 539.3743
760.9158, 538.3336
761.3979, 538.8523
761.8801, 544.7853
762.3622, 552.3633
762.8443, 556.2165
763.3264, 556.0162
763.8085, 556.9293
764.2906, 564.8640
764.7728, 573.1931
765.2549, 570.8151
765.7370, 562.3677
766.2191, 561.0282
766.7012, 569.0738
767.1833, 579.3929
767.6655, 586.2520
768.1476, 591.7882
768.6297, 604.3573
769.1118, 626.8564
769.5939, 639.8058
770.0760, 636.4694
770.5582, 633.0907
771.0403, 640.2692
771.5224, 653.7188
772.0045, 662.6036
772.4866, 663.9755
772.9688, 670.0425
773.4509, 688.7825
773.9330, 705.3174
774.4151, 710.8721
774.8972, 710.3695
775.3793, 709.5182
775.8615, 710.1135
776.3436, 714.7431
776.8257, 728.2006
777.3078, 744.4044
777.7899, 755.1271
778.2720, 762.4693
778.7542, 772.3665
779.2363, 786.0070
779.7184, 800.2885
780.2005, 812.7638
780.6826, 823.7096
781.1647, 833.9277
781.6469, 843.1702
782.1290, 853.0553
782.6111, 863.2759
783.0932, 875.1295
783.5753, 888.7419
784.0574, 904.7504
784.5396, 926.1430
785.0217, 958.6967
785.5038, 981.5921
785.9859, 984.8420
786.4680, 988.3860
786.9501, 998.7458
787.4323, 1015.773
787.9144, 1041.162
788.3965, 1074.221
788.8786, 1104.558
789.3607, 1121.389
789.8428, 1137.429
790.3250, 1163.118
790.8071, 1197.855
791.2892, 1242.843
791.7713, 1296.639
792.2534, 1351.514
792.7355, 1401.027
793.2177, 1448.632
793.6998, 1502.096
794.1819, 1561.225
794.6640, 1619.857
795.1461, 1675.414
795.6282, 1739.261
796.1104, 1818.859
796.5925, 1909.927
797.0746, 2004.220
797.5567, 2102.450
798.0388, 2201.349
798.5209, 2292.012
799.0031, 2394.725
799.4852, 2518.884
799.9673, 2655.701
800.4494, 2798.855
800.9315, 2947.161
801.4136, 3089.397
801.8958, 3221.841
802.3779, 3349.256
802.8600, 3481.324
803.3421, 3606.121
803.8242, 3707.509
804.3063, 3785.965
804.7885, 3850.230
805.2706, 3904.457
805.7527, 3950.750
806.2348, 4003.772
806.7169, 4050.247
807.1990, 4039.452
807.6812, 3970.636
808.1633, 3895.469
808.6454, 3838.433
809.1275, 3785.635
809.6096, 3715.721
810.0917, 3628.569
810.5739, 3536.662
811.0560, 3437.385
811.5381, 3341.279
812.0202, 3252.614
812.5023, 3166.489
812.9844, 3075.507
813.4666, 2981.750
813.9487, 2901.146
814.4308, 2853.482
814.9129, 2791.610
815.3950, 2694.485
815.8771, 2593.233
816.3593, 2504.152
816.8414, 2428.367
817.3235, 2367.229
817.8056, 2323.409
818.2877, 2274.126
818.7698, 2194.333
819.2520, 2108.969
819.7341, 2049.075
820.2162, 2005.492
820.6983, 1953.540
821.1804, 1886.797
821.6625, 1817.216
822.1447, 1755.042
822.6268, 1698.524
823.1089, 1643.230
823.5910, 1589.096
824.0731, 1537.326
824.5552, 1488.821
825.0374, 1437.349
825.5195, 1377.290
826.0016, 1314.024
826.4837, 1262.162
826.9658, 1225.876
827.4479, 1187.512
827.9301, 1141.074
828.4122, 1102.196
828.8943, 1084.348
829.3764, 1072.804
829.8585, 1047.847
830.3406, 1008.861
830.8228, 975.5303
831.3049, 954.1896
831.7870, 933.6290
832.2691, 905.5840
832.7512, 880.1555
833.2333, 868.6433
833.7155, 868.1718
834.1976, 867.6688
834.6797, 863.7312
835.1618, 855.1344
835.6439, 837.1597
836.1260, 816.4522
836.6082, 801.7346
837.0903, 792.2965
837.5724, 783.9504
838.0545, 775.2008
838.5366, 767.6350
839.0187, 763.7454
839.5009, 761.9297
839.9830, 756.1899
840.4651, 746.9859
840.9472, 741.0775
841.4293, 740.2427
841.9114, 740.2021
842.3936, 737.8968
842.8757, 733.3677
843.3578, 725.9152
843.8399, 712.9082
844.3220, 706.5712
844.8041, 709.9135
845.2863, 715.4480
845.7684, 723.1600
846.2505, 728.8949
846.7326, 724.5642
847.2147, 708.8970
847.6968, 696.5670
848.1790, 689.2682
848.6611, 683.9800
849.1432, 680.0341
849.6253, 677.7061
850.1074, 679.5767
850.5895, 683.3751
851.0717, 681.2419
851.5538, 667.1309
852.0359, 656.1798
852.5180, 660.0495
853.0001, 668.4531
853.4822, 671.6028
853.9644, 670.8798
854.4465, 671.4247
854.9286, 674.7065
855.4107, 677.7840
855.8928, 678.3758
856.3749, 676.8689
856.8571, 673.1666
857.3392, 667.9438
857.8213, 664.1098
858.3034, 661.9929
858.7855, 657.7032
859.2676, 647.6814
859.7498, 637.4738
860.2319, 643.1681
860.7140, 665.3221
861.1961, 668.7567
861.6782, 648.0154
862.1603, 630.4579
862.6425, 627.7703
863.1245, 632.4807
863.6066, 635.7975
864.0887, 637.7449
864.5709, 635.8411
865.0530, 625.1411
865.5351, 619.9498
866.0172, 630.5535
866.4993, 638.7883
866.9814, 627.7983
867.4636, 606.6462
867.9457, 597.5182
868.4278, 606.4526
868.9099, 614.4030
869.3920, 621.1015
869.8741, 622.7521
870.3563, 612.9439
870.8384, 599.6984
871.3205, 592.8535
871.8026, 593.2822
872.2847, 594.9818
872.7668, 594.8906
873.2490, 595.7190
873.7311, 600.9799
874.2132, 607.1030
874.6953, 608.4174
875.1774, 606.5522
875.6595, 608.7298
876.1417, 618.0219
876.6238, 625.9656
877.1059, 620.9479
877.5880, 610.0270
878.0701, 608.2120
878.5522, 612.7697
879.0344, 611.3503
879.5165, 601.3555
879.9986, 590.7215
880.4807, 585.1660
880.9628, 585.1620
881.4449, 594.5578
881.9271, 612.7158
882.4092, 623.1573
882.8913, 623.9993
883.3734, 621.1701
883.8555, 616.6160
884.3376, 612.4841
884.8198, 612.3427
885.3019, 616.2904
885.7840, 617.2097
886.2661, 612.0522
886.7482, 612.3851
887.2303, 623.1672
887.7125, 636.0994
888.1946, 645.4479
888.6767, 651.9651
889.1588, 658.2556
889.6409, 665.4213
890.1230, 669.9351
890.6052, 667.2744
891.0873, 667.3283
891.5694, 674.3876
892.0515, 685.4047
892.5336, 698.7556
893.0157, 713.5764
893.4979, 724.7706
893.9800, 731.7981
894.4621, 733.9507
894.9442, 726.7571
895.4263, 718.2787
895.9084, 714.9412
896.3906, 715.6674
896.8727, 716.4259
897.3548, 715.9788
897.8369, 718.9334
898.3190, 733.2426
898.8011, 747.3293
899.2833, 749.5764
899.7654, 744.8932
900.2475, 741.3491
900.7296, 739.9926
901.2117, 737.4365
901.6938, 731.3148
902.1760, 725.2206
902.6581, 726.2249
903.1402, 729.2895
903.6223, 722.7234
904.1044, 707.9517
904.5865, 694.3078
905.0687, 684.7351
905.5508, 673.4050
906.0329, 652.7902
906.5150, 628.6662
906.9971, 618.8959
907.4792, 621.8445
907.9614, 621.3133
908.4435, 615.0322
908.9256, 607.3168
909.4077, 600.3242
909.8898, 593.8029
910.3719, 587.9703
910.8541, 582.7764
911.3362, 571.1537
911.8183, 551.3957
912.3004, 532.6810
912.7825, 515.4639
913.2646, 505.4297
913.7468, 509.5674
914.2289, 523.1521
914.7110, 529.4323
915.1931, 527.2936
915.6752, 520.4586
916.1573, 505.8570
916.6395, 491.7438
917.1216, 479.1870
917.6037, 470.3201
918.0858, 469.3564
918.5679, 476.0064
919.0500, 478.6962
919.5322, 476.3327
920.0143, 471.6401
920.4964, 459.0582
920.9785, 450.3080
921.4606, 455.4075
921.9427, 467.0060
922.4249, 472.8631
922.9070, 471.3533
923.3891, 468.4243
923.8712, 467.5427
924.3533, 462.7189
924.8354, 445.8800
925.3176, 428.7798
925.7997, 421.8995
926.2818, 424.1326
926.7639, 430.7804
927.2460, 442.0611
927.7281, 450.2122
928.2103, 449.2838
928.6924, 445.9484
929.1745, 444.9693
929.6566, 445.0109
930.1387, 442.6100
930.6208, 438.3664
931.1030, 438.2593
931.5851, 448.4574
932.0672, 456.1954
932.5493, 445.8415
933.0314, 430.2806
933.5135, 425.4747
933.9957, 429.4837
934.4778, 435.5013
934.9599, 440.9051
935.4420, 443.5695
935.9241, 440.4299
936.4063, 435.3698
936.8884, 434.3341
937.3705, 435.4367
937.8526, 433.9656
938.3347, 430.2204
938.8168, 428.4930
939.2990, 430.7427
939.7811, 433.8331
940.2632, 434.0365
940.7453, 432.2645
941.2274, 430.9292
941.7095, 429.8280
942.1917, 427.6274
942.6738, 424.2473
943.1559, 421.8713
943.6380, 422.0526
944.1201, 423.0705
944.6022, 421.4490
945.0844, 417.7589
945.5665, 416.2165
946.0486, 416.8498
946.5307, 417.8104
947.0128, 418.6675
947.4949, 417.9608
947.9771, 413.6932
948.4592, 408.5844
948.9413, 412.3386
949.4234, 425.6072
949.9055, 430.6915
950.3876, 425.7067
950.8698, 418.9981
951.3519, 412.8708
951.8340, 409.6816
952.3161, 412.9659
952.7982, 421.2130
953.2803, 424.0479
953.7625, 419.6615
954.2446, 418.6264
954.7267, 422.7804
955.2088, 427.9807
955.6909, 433.1411
956.1730, 436.6525
956.6552, 435.4393
957.1373, 429.4431
957.6194, 427.8135
958.1015, 433.2261
958.5836, 435.6144
959.0657, 429.3868
959.5479, 427.7563
960.0300, 443.7696
960.5121, 465.6706
960.9942, 468.6133
961.4763, 447.5907
961.9584, 437.2806
962.4406, 442.1048
962.9227, 450.2806
963.4048, 463.9761
963.8869, 475.2851
964.3690, 476.1194
964.8511, 470.6571
965.3333, 471.3384
965.8154, 482.6185
966.2975, 487.2766
966.7796, 473.1098
967.2617, 468.3913
967.7438, 488.1838
968.2260, 513.4608
968.7081, 531.2054
969.1902, 541.0833
969.6723, 542.1862
970.1544, 526.5139
970.6365, 519.4749
971.1187, 530.0539
971.6008, 541.0980
972.0829, 546.0285
972.5650, 548.4535
973.0471, 552.5752
973.5292, 558.0227
974.0114, 561.1378
974.4935, 558.4187
974.9756, 558.6968
975.4577, 568.1399
975.9398, 575.6281
976.4219, 572.5809
976.9041, 566.2000
977.3862, 565.1159
977.8683, 569.8744
978.3504, 577.0200
978.8325, 590.6170
979.3146, 599.4408
979.7968, 598.1058
980.2789, 593.8193
980.7610, 588.9872
981.2431, 585.2058
981.7252, 583.5034
982.2073, 584.2376
982.6895, 590.2719
983.1716, 610.5940
983.6537, 625.2060
984.1358, 628.6339
984.6179, 622.4874
985.1000, 597.3388
985.5822, 567.9634
986.0643, 562.0468
986.5464, 584.2582
987.0285, 600.7052
987.5106, 593.6691
987.9927, 585.9047
988.4749, 591.9394
988.9570, 596.9218
989.4391, 583.3752
989.9212, 560.4253
990.4033, 548.0917
990.8854, 550.8347
991.3676, 556.5718
991.8497, 561.4899
992.3318, 566.9454
992.8139, 577.9515
993.2960, 586.1845
993.7781, 581.4975
994.2603, 568.1318
994.7424, 555.7994
995.2245, 546.6536
995.7066, 543.0674
996.1887, 551.6142
996.6708, 559.4778
997.1530, 559.2247
997.6351, 555.0295
998.1172, 550.6945
998.5993, 546.2828
999.0814, 539.6530
999.5635, 529.5798
1000.046, 523.4052
1000.528, 528.8942
1001.010, 533.9941
1001.492, 531.1351
1001.974, 524.5541
1002.456, 519.0211
1002.938, 514.0003
1003.420, 506.0167
1003.903, 493.4523
1004.385, 482.0502
1004.867, 474.4384
1005.349, 468.8503
1005.831, 466.7894
1006.313, 464.3564
1006.795, 454.3726
1007.277, 440.4642
1007.759, 435.2841
1008.242, 444.4814
1008.724, 451.6222
1009.206, 446.5656
1009.688, 440.4909
1010.170, 441.9311
1010.652, 444.5797
1011.134, 440.8952
1011.616, 431.7711
1012.099, 421.9057
1012.581, 411.7511
1013.063, 405.0233
1013.545, 405.0027
1014.027, 406.8646
1014.509, 409.7753
1014.991, 411.6375
1015.473, 408.3856
1015.955, 402.2520
1016.438, 401.6341
1016.920, 411.1234
1017.402, 415.8177
1017.884, 409.5426
1018.366, 397.5225
1018.848, 375.1631
1019.330, 354.2650
1019.812, 349.7247
1020.294, 357.1314
1020.777, 358.0779
1021.259, 345.1377
1021.741, 338.4777
1022.223, 350.7070
1022.705, 363.2517
1023.187, 366.8201
1023.669, 366.7149
1024.151, 367.3939
1024.634, 369.3652
1025.116, 373.4615
1025.598, 382.1585
1026.080, 383.8898
1026.562, 366.6638
1027.044, 353.3637
1027.526, 357.8160
1028.008, 366.8239
1028.490, 368.1269
1028.973, 363.6701
1029.455, 361.9544
1029.937, 365.9152
1030.419, 365.9586
1030.901, 353.0891
1031.383, 345.6167
1031.865, 353.8719
1032.347, 366.3147
1032.830, 375.4657
1033.312, 380.6934
1033.794, 381.3795
1034.276, 376.3021
1034.758, 371.1348
1035.240, 364.2009
1035.722, 360.1771
1036.204, 363.1324
1036.687, 366.6364
1037.169, 364.7491
1037.651, 360.0490
1038.133, 359.4482
1038.615, 364.7134
1039.097, 367.3159
1039.579, 363.3656
1040.061, 362.7758
1040.543, 371.7900
1041.026, 379.3649
1041.508, 377.5464
1041.990, 369.6917
1042.472, 361.9343
1042.954, 353.5749
1043.436, 350.1927
1043.918, 353.7100
1044.400, 358.5625
1044.882, 365.8943
1045.365, 370.6194
1045.847, 367.7807
1046.329, 362.4329
1046.811, 364.5092
1047.293, 374.6534
1047.775, 376.3856
1048.257, 365.2670
1048.739, 361.0828
1049.222, 371.4340
1049.704, 374.4815
1050.186, 354.1359
1050.668, 329.1108
1051.150, 329.4691
1051.632, 352.8268
1052.114, 363.5216
1052.596, 359.5298
1053.078, 356.2931
1053.561, 355.5446
1054.043, 356.8755
1054.525, 360.8601
1055.007, 363.2365
1055.489, 357.4382
1055.971, 346.4375
1056.453, 345.8110
1056.935, 355.4348
1057.417, 360.6656
1057.900, 360.0847
1058.382, 360.3492
1058.864, 364.3058
1059.346, 365.9172
1059.828, 357.8924
1060.310, 345.3011
1060.792, 343.8797
1061.274, 350.5491
1061.757, 345.2306
1062.239, 329.1606
1062.721, 324.9820
1063.203, 338.9782
1063.685, 353.7205
1064.167, 354.8682
1064.649, 348.9896
1065.131, 345.5803
1065.614, 344.2867
1066.096, 344.7140
1066.578, 346.4507
1067.060, 349.7505
1067.542, 353.7021
1068.024, 352.0352
1068.506, 339.4412
1068.988, 327.7061
1069.470, 335.3326
1069.953, 348.2747
1070.435, 343.5220
1070.917, 329.5598
1071.399, 322.7952
1071.881, 325.8206
1072.363, 336.4532
1072.845, 355.1413
1073.327, 368.2937
1073.809, 361.4271
1074.292, 349.0294
1074.774, 340.9825
1075.256, 337.1639
1075.738, 340.2373
1076.220, 346.4282
1076.702, 345.1263
1077.184, 332.7172
1077.666, 322.5251
1078.148, 320.9555
1078.631, 322.6449
1079.113, 328.4753
1079.595, 333.1283
1080.077, 329.1842
1080.559, 321.9157
1081.041, 323.7321
1081.523, 336.5784
1082.005, 340.9651
1082.488, 323.8556
1082.970, 311.0782
1083.452, 308.5996
1083.934, 311.2089
1084.416, 320.4934
1084.898, 330.5073
1085.380, 330.3903
1085.862, 321.2225
1086.344, 323.9843
1086.827, 353.4305
1087.309, 365.3145
1087.791, 346.0859
1088.273, 331.5522
1088.755, 337.3159
1089.237, 348.2682
1089.719, 350.4691
1090.201, 345.6721
1090.683, 339.4250
1091.166, 330.0120
1091.648, 329.0699
1092.130, 339.4635
1092.612, 343.6393
1093.094, 335.7228
1093.576, 327.3691
1094.058, 327.4307
1094.540, 330.7484
1095.023, 326.0508
1095.505, 314.7216
1095.987, 312.7228
1096.469, 319.0599
1096.951, 316.8419
1097.433, 304.0367
1097.915, 296.6024
1098.397, 302.9349
1098.880, 313.1500
1099.362, 314.5283
1099.844, 312.3534
1100.326, 322.0368
1100.808, 336.4978
1101.290, 333.6430
1101.772, 317.1146
1102.254, 309.3937
1102.736, 316.9559
1103.219, 325.0535
1103.701, 322.3805
1104.183, 316.6359
1104.665, 315.2882
1105.147, 315.7538
1105.629, 314.1829
1106.111, 312.3468
1106.593, 314.5630
1107.075, 320.5830
1107.558, 325.7812
1108.040, 329.1476
1108.522, 328.6039
1109.004, 318.5487
1109.486, 309.6530
1109.968, 309.6075
1110.450, 312.9481
1110.932, 314.8122
1111.415, 314.8634
1111.897, 313.1491
1112.379, 308.8133
1112.861, 307.2583
1113.343, 314.2934
1113.825, 316.8734
1114.307, 307.7255
1114.789, 298.3877
1115.271, 293.7471
1115.754, 293.7786
1116.236, 299.8677
1116.718, 311.6967
1117.200, 318.3558
1117.682, 318.7464
1118.164, 318.0288
1118.646, 317.3225
1119.128, 311.4466
1119.610, 296.0306
1120.093, 284.3021
1120.575, 290.5629
1121.057, 307.4803
1121.539, 312.4469
1122.021, 306.8850
1122.503, 312.5935
1122.985, 328.4436
1123.467, 332.3816
1123.950, 320.2406
1124.432, 309.5291
1124.914, 311.1226
1125.396, 316.9038
1125.878, 316.1843
1126.360, 312.4422
1126.842, 312.3275
1127.324, 314.3001
1127.807, 315.3966
1128.289, 315.3488
1128.771, 314.4541
1129.253, 312.9714
1129.735, 312.8348
1130.217, 317.4519
1130.699, 320.6202
1131.181, 317.9600
1131.663, 311.7307
1132.146, 299.5238
1132.628, 287.6618
1133.110, 286.9116
1133.592, 296.4299
1134.074, 303.9817
1134.556, 305.8400
1135.038, 307.6863
1135.520, 309.3539
1136.002, 312.8714
1136.485, 323.2705
1136.967, 331.5582
1137.449, 329.5054
1137.931, 320.9929
1138.413, 314.2499
1138.895, 309.3724
1139.377, 305.0237
1139.859, 300.5155
1140.342, 299.3625
1140.824, 303.2247
1141.306, 305.4623
1141.788, 302.4455
1142.270, 298.8112
1142.752, 300.2930
1143.234, 304.8830
1143.716, 305.6626
1144.198, 303.3508
1144.681, 302.4723
1145.163, 303.4411
1145.645, 308.0443
1146.127, 316.0861
1146.609, 322.2153
1147.091, 322.9819
1147.573, 320.9540
1148.055, 318.2173
1148.537, 315.2108
1149.020, 312.7371
1149.502, 310.3066
1149.984, 304.6849
1150.466, 298.8316
1150.948, 303.3382
1151.430, 320.4793
1151.912, 330.6253
1152.394, 319.3979
1152.877, 306.1048
1153.359, 292.6958
1153.841, 286.3676
1154.323, 297.7849
1154.805, 314.9005
1155.287, 324.2579
1155.769, 325.5254
1156.251, 321.2006
1156.734, 307.6219
1157.216, 299.7289
1157.698, 301.1641
1158.180, 299.7674
1158.662, 290.5529
1159.144, 283.7740
1159.626, 286.6401
1160.108, 294.2814
1160.590, 300.2735
1161.073, 303.5138
1161.555, 292.3843
1162.037, 268.8313
1162.519, 265.5485
1163.001, 283.3890
1163.483, 296.6345
1163.965, 296.8556
1164.447, 295.3177
1164.929, 301.4613
1165.412, 306.7061
1165.894, 294.0593
1166.376, 277.7968
1166.858, 281.6617
1167.340, 296.0013
1167.822, 304.0035
1168.304, 304.4098
1168.786, 301.9748
1169.269, 298.0346
1169.751, 295.9581
1170.233, 298.0792
1170.715, 301.3000
1171.197, 307.8210
1171.679, 311.2878
1172.161, 301.8629
1172.643, 290.5129
1173.125, 295.4736
1173.608, 313.4366
1174.090, 320.3801
1174.572, 310.9541
1175.054, 306.9339
1175.536, 312.2566
1176.018, 308.9911
1176.500, 289.3973
1176.982, 275.4747
1177.464, 282.5280
1177.947, 297.6162
1178.429, 300.9509
1178.911, 295.7626
1179.393, 293.7673
1179.875, 294.6976
1180.357, 299.3941
1180.839, 306.0588
1181.321, 306.2574
1181.804, 298.2769
1182.286, 288.7266
1182.768, 280.4901
1183.250, 277.4430
1183.732, 290.1807
1184.214, 302.4012
1184.696, 294.2168
1185.178, 280.2177
1185.661, 278.0432
1186.143, 286.0636
1186.625, 296.4530
1187.107, 308.0779
1187.589, 316.3022
1188.071, 322.3022
1188.553, 321.5386
1189.035, 304.7023
1189.517, 294.3121
1190.000, 303.3785
1190.482, 314.9340
1190.964, 311.7273
1191.446, 299.9314
1191.928, 298.4180
1192.410, 307.4173
1192.892, 308.7712
1193.374, 302.6095
1193.856, 296.1096
1194.339, 290.6444
1194.821, 287.7051
1195.303, 287.9159
1195.785, 289.3150
1196.267, 289.2216
1196.749, 290.9724
1197.231, 303.4120
1197.713, 317.1467
1198.196, 316.7227
1198.678, 308.8755
1199.160, 306.9358
1199.642, 311.0262
1200.124, 312.6507
1200.606, 308.7146
1201.088, 306.0990
1201.570, 310.9903
1202.052, 311.7859
1202.535, 297.6774
1203.017, 287.2763
1203.499, 296.9217
1203.981, 309.2102
1204.463, 300.7301
1204.945, 277.5681
1205.427, 271.2338
1205.909, 284.0112
1206.391, 294.4204
1206.874, 302.3177
1207.356, 301.2991
1207.838, 290.2820
1208.320, 286.1910
1208.802, 298.2935
1209.284, 311.9664
1209.766, 309.4873
1210.248, 300.2599
1210.731, 298.6343
1211.213, 300.1282
1211.695, 297.8432
1212.177, 293.2055
1212.659, 288.2009
1213.141, 284.7123
1213.623, 289.3315
1214.105, 307.8097
1214.588, 318.5805
1215.070, 308.4923
1215.552, 298.8837
1216.034, 297.4245
1216.516, 297.0829
1216.998, 291.2280
1217.480, 287.4488
1217.962, 298.7503
1218.444, 319.6760
1218.927, 316.7285
1219.409, 287.1872
1219.891, 282.4770
1220.373, 303.5764
1220.855, 315.4241
1221.337, 310.7937
1221.819, 302.0204
1222.301, 295.6313
1222.783, 290.1787
1223.266, 282.3418
1223.748, 277.1353
1224.230, 283.5545
1224.712, 294.1256
1225.194, 300.4723
1225.676, 303.3715
1226.158, 304.7472
1226.640, 305.3213
1227.122, 306.5535
1227.605, 309.6379
1228.087, 309.9245
1228.569, 305.4827
1229.051, 299.5511
1229.533, 288.0849
1230.015, 283.8242
1230.497, 296.6824
1230.979, 311.6184
1231.462, 310.6382
1231.944, 299.4414
1232.426, 297.0647
1232.908, 302.0000
1233.390, 299.0006
1233.872, 290.4517
1234.354, 293.9255
1234.836, 308.9553
1235.318, 314.7609
1235.801, 303.3549
1236.283, 292.4063
1236.765, 296.8513
1237.247, 303.3417
1237.729, 301.4453
1238.211, 298.0212
1238.693, 297.7036
1239.175, 299.6504
1239.657, 304.7065
1240.140, 310.5824
1240.622, 308.9823
1241.104, 298.0962
1241.586, 293.9450
1242.068, 296.9966
1242.550, 307.2720
1243.032, 327.9044
1243.514, 337.9363
1243.997, 328.6739
1244.479, 316.8893
1244.961, 316.3370
1245.443, 320.0664
1245.925, 316.8150
1246.407, 309.7095
1246.889, 303.4229
1247.371, 299.0402
1247.854, 299.9616
1248.336, 303.9177
1248.818, 303.9422
1249.300, 299.3795
1249.782, 298.3975
1250.264, 304.7230
1250.746, 312.7679
1251.228, 326.4349
1251.710, 333.9010
1252.193, 329.2698
1252.675, 320.1318
1253.157, 307.9114
1253.639, 298.6380
1254.121, 302.4499
1254.603, 315.4012
1255.085, 318.0851
1255.567, 312.1458
1256.049, 317.0368
1256.532, 330.4268
1257.014, 333.0546
1257.496, 323.1269
1257.978, 314.8008
1258.460, 314.3613
1258.942, 314.6448
1259.424, 307.3432
1259.906, 302.9469
1260.389, 314.0320
1260.871, 324.3219
1261.353, 318.1953
1261.835, 307.4062
1262.317, 307.7401
1262.799, 315.4031
1263.281, 316.7355
1263.763, 310.8989
1264.245, 312.1922
1264.728, 323.0866
1265.210, 323.1413
1265.692, 309.7378
1266.174, 299.5136
1266.656, 297.9701
1267.138, 302.1935
1267.620, 310.9793
##END=



