##NAMES=Uranophane-beta
##RRUFFID=R120075
##IDEAL CHEMISTRY=Ca(U^6+^O_2_)_2_(SiO_3_OH)_2_&#183;5H_2_O
##LOCALITY=Capoeira pegmatite,  Parelhas, Borborema mineral province, Rio Grande do Norte, Brazil
##OWNER=RRUFF
##SOURCE=Donald Doell
##DESCRIPTION=Yellow prismatic crystals on albite, associated with a yellow fibrous unknown mineral
##STATUS=The identification of this mineral has been confirmed by single-crystal X-ray diffraction.
##URL=rruff.info/R120075
9.001007e+001, 0.000000e+000
9.049219e+001, 1.871606e+002
9.097430e+001, 1.867655e+002
9.145642e+001, 1.868645e+002
9.193854e+001, 1.874192e+002
9.242065e+001, 1.881116e+002
9.290277e+001, 1.887605e+002
9.338489e+001, 1.893600e+002
9.386700e+001, 1.899156e+002
9.434912e+001, 1.907933e+002
9.483124e+001, 1.915181e+002
9.531335e+001, 1.906501e+002
9.579547e+001, 1.879696e+002
9.627759e+001, 1.852584e+002
9.675970e+001, 1.847332e+002
9.724182e+001, 1.862704e+002
9.772394e+001, 1.880616e+002
9.820605e+001, 1.892148e+002
9.868817e+001, 1.898284e+002
9.917029e+001, 1.911722e+002
9.965240e+001, 1.935066e+002
1.001345e+002, 1.961941e+002
1.006166e+002, 1.981938e+002
1.010988e+002, 1.996204e+002
1.015809e+002, 1.999288e+002
1.020630e+002, 1.980439e+002
1.025451e+002, 1.929799e+002
1.030272e+002, 1.908421e+002
1.035093e+002, 1.931324e+002
1.039915e+002, 1.985085e+002
1.044736e+002, 2.012922e+002
1.049557e+002, 2.004496e+002
1.054378e+002, 1.984660e+002
1.059199e+002, 1.968830e+002
1.064020e+002, 1.953588e+002
1.068842e+002, 1.948523e+002
1.073663e+002, 1.956113e+002
1.078484e+002, 1.976371e+002
1.083305e+002, 2.001687e+002
1.088126e+002, 2.044062e+002
1.092947e+002, 2.084483e+002
1.097769e+002, 2.105256e+002
1.102590e+002, 2.067525e+002
1.107411e+002, 2.049587e+002
1.112232e+002, 2.076198e+002
1.117053e+002, 2.164874e+002
1.121874e+002, 2.221444e+002
1.126696e+002, 2.219050e+002
1.131517e+002, 2.186177e+002
1.136338e+002, 2.159742e+002
1.141159e+002, 2.136780e+002
1.145980e+002, 2.128114e+002
1.150801e+002, 2.143239e+002
1.155623e+002, 2.199815e+002
1.160444e+002, 2.239491e+002
1.165265e+002, 2.237506e+002
1.170086e+002, 2.207657e+002
1.174907e+002, 2.178667e+002
1.179728e+002, 2.138610e+002
1.184550e+002, 2.115924e+002
1.189371e+002, 2.133840e+002
1.194192e+002, 2.228087e+002
1.199013e+002, 2.315781e+002
1.203834e+002, 2.344333e+002
1.208655e+002, 2.326449e+002
1.213477e+002, 2.311807e+002
1.218298e+002, 2.336761e+002
1.223119e+002, 2.376101e+002
1.227940e+002, 2.402800e+002
1.232761e+002, 2.400615e+002
1.237582e+002, 2.390018e+002
1.242404e+002, 2.383276e+002
1.247225e+002, 2.380936e+002
1.252046e+002, 2.389783e+002
1.256867e+002, 2.428802e+002
1.261688e+002, 2.481923e+002
1.266509e+002, 2.519632e+002
1.271331e+002, 2.518857e+002
1.276152e+002, 2.500063e+002
1.280973e+002, 2.492359e+002
1.285794e+002, 2.496107e+002
1.290615e+002, 2.506562e+002
1.295436e+002, 2.522695e+002
1.300258e+002, 2.542845e+002
1.305079e+002, 2.559357e+002
1.309900e+002, 2.564720e+002
1.314721e+002, 2.563430e+002
1.319542e+002, 2.570156e+002
1.324363e+002, 2.586389e+002
1.329185e+002, 2.607492e+002
1.334006e+002, 2.630793e+002
1.338827e+002, 2.656366e+002
1.343648e+002, 2.672546e+002
1.348469e+002, 2.661332e+002
1.353290e+002, 2.626374e+002
1.358112e+002, 2.626223e+002
1.362933e+002, 2.675733e+002
1.367754e+002, 2.749064e+002
1.372575e+002, 2.779893e+002
1.377396e+002, 2.758179e+002
1.382217e+002, 2.740099e+002
1.387039e+002, 2.770622e+002
1.391860e+002, 2.860454e+002
1.396681e+002, 2.921605e+002
1.401502e+002, 2.935883e+002
1.406323e+002, 2.915857e+002
1.411144e+002, 2.920068e+002
1.415966e+002, 2.960222e+002
1.420787e+002, 3.002373e+002
1.425608e+002, 3.014893e+002
1.430429e+002, 2.978454e+002
1.435250e+002, 2.968151e+002
1.440071e+002, 3.005496e+002
1.444893e+002, 3.087453e+002
1.449714e+002, 3.144181e+002
1.454535e+002, 3.166757e+002
1.459356e+002, 3.172276e+002
1.464177e+002, 3.174024e+002
1.468998e+002, 3.159872e+002
1.473820e+002, 3.161139e+002
1.478641e+002, 3.186718e+002
1.483462e+002, 3.240063e+002
1.488283e+002, 3.292922e+002
1.493104e+002, 3.345042e+002
1.497925e+002, 3.397006e+002
1.502747e+002, 3.450112e+002
1.507568e+002, 3.477356e+002
1.512389e+002, 3.532077e+002
1.517210e+002, 3.625101e+002
1.522031e+002, 3.755925e+002
1.526852e+002, 3.923719e+002
1.531674e+002, 4.123919e+002
1.536495e+002, 4.363081e+002
1.541316e+002, 4.651403e+002
1.546137e+002, 4.971677e+002
1.550958e+002, 5.356657e+002
1.555779e+002, 5.815329e+002
1.560601e+002, 6.344772e+002
1.565422e+002, 6.953022e+002
1.570243e+002, 7.625107e+002
1.575064e+002, 8.374930e+002
1.579885e+002, 9.229396e+002
1.584706e+002, 1.021058e+003
1.589528e+002, 1.128582e+003
1.594349e+002, 1.243439e+003
1.599170e+002, 1.362030e+003
1.603991e+002, 1.493791e+003
1.608812e+002, 1.639838e+003
1.613633e+002, 1.800810e+003
1.618455e+002, 1.978380e+003
1.623276e+002, 2.173267e+003
1.628097e+002, 2.383677e+003
1.632918e+002, 2.612237e+003
1.637739e+002, 2.854999e+003
1.642560e+002, 3.119384e+003
1.647382e+002, 3.413146e+003
1.652203e+002, 3.732736e+003
1.657024e+002, 4.064560e+003
1.661845e+002, 4.410198e+003
1.666666e+002, 4.763071e+003
1.671487e+002, 5.113569e+003
1.676309e+002, 5.467935e+003
1.681130e+002, 5.815547e+003
1.685951e+002, 6.151985e+003
1.690772e+002, 6.476771e+003
1.695593e+002, 6.777353e+003
1.700414e+002, 7.043296e+003
1.705236e+002, 7.282719e+003
1.710057e+002, 7.501828e+003
1.714878e+002, 7.700556e+003
1.719699e+002, 7.884889e+003
1.724520e+002, 8.053867e+003
1.729341e+002, 8.208991e+003
1.734163e+002, 8.359479e+003
1.738984e+002, 8.499467e+003
1.743805e+002, 8.642014e+003
1.748626e+002, 8.803955e+003
1.753447e+002, 8.998555e+003
1.758268e+002, 9.214753e+003
1.763090e+002, 9.440262e+003
1.767911e+002, 9.673090e+003
1.772732e+002, 9.922026e+003
1.777553e+002, 1.015407e+004
1.782374e+002, 1.035995e+004
1.787195e+002, 1.056627e+004
1.792017e+002, 1.078353e+004
1.796838e+002, 1.101137e+004
1.801659e+002, 1.124419e+004
1.806480e+002, 1.148398e+004
1.811301e+002, 1.173105e+004
1.816122e+002, 1.199411e+004
1.820944e+002, 1.227024e+004
1.825765e+002, 1.254292e+004
1.830586e+002, 1.281098e+004
1.835407e+002, 1.307062e+004
1.840228e+002, 1.332744e+004
1.845049e+002, 1.358016e+004
1.849871e+002, 1.382672e+004
1.854692e+002, 1.405778e+004
1.859513e+002, 1.427705e+004
1.864334e+002, 1.449174e+004
1.869155e+002, 1.471817e+004
1.873976e+002, 1.494545e+004
1.878798e+002, 1.513686e+004
1.883619e+002, 1.528668e+004
1.888440e+002, 1.541651e+004
1.893261e+002, 1.555054e+004
1.898082e+002, 1.568939e+004
1.902903e+002, 1.582653e+004
1.907725e+002, 1.596112e+004
1.912546e+002, 1.609366e+004
1.917367e+002, 1.621515e+004
1.922188e+002, 1.632514e+004
1.927009e+002, 1.642632e+004
1.931830e+002, 1.651597e+004
1.936652e+002, 1.659358e+004
1.941473e+002, 1.667711e+004
1.946294e+002, 1.677947e+004
1.951115e+002, 1.689875e+004
1.955936e+002, 1.701025e+004
1.960757e+002, 1.711046e+004
1.965579e+002, 1.720594e+004
1.970400e+002, 1.730989e+004
1.975221e+002, 1.742299e+004
1.980042e+002, 1.753655e+004
1.984863e+002, 1.764721e+004
1.989684e+002, 1.775456e+004
1.994506e+002, 1.786092e+004
1.999327e+002, 1.796426e+004
2.004148e+002, 1.806811e+004
2.008969e+002, 1.817985e+004
2.013790e+002, 1.830188e+004
2.018611e+002, 1.842525e+004
2.023433e+002, 1.854471e+004
2.028254e+002, 1.865990e+004
2.033075e+002, 1.877831e+004
2.037896e+002, 1.890144e+004
2.042717e+002, 1.902586e+004
2.047538e+002, 1.914056e+004
2.052360e+002, 1.924364e+004
2.057181e+002, 1.934314e+004
2.062002e+002, 1.944383e+004
2.066823e+002, 1.954607e+004
2.071644e+002, 1.964559e+004
2.076465e+002, 1.974368e+004
2.081287e+002, 1.983732e+004
2.086108e+002, 1.992018e+004
2.090929e+002, 1.999093e+004
2.095750e+002, 2.005445e+004
2.100571e+002, 2.011233e+004
2.105392e+002, 2.016429e+004
2.110214e+002, 2.021374e+004
2.115035e+002, 2.026140e+004
2.119856e+002, 2.030691e+004
2.124677e+002, 2.035028e+004
2.129498e+002, 2.039219e+004
2.134319e+002, 2.043197e+004
2.139140e+002, 2.046909e+004
2.143962e+002, 2.050257e+004
2.148783e+002, 2.053911e+004
2.153604e+002, 2.058088e+004
2.158425e+002, 2.062611e+004
2.163246e+002, 2.066614e+004
2.168067e+002, 2.070182e+004
2.172889e+002, 2.073111e+004
2.177710e+002, 2.075162e+004
2.182531e+002, 2.075946e+004
2.187352e+002, 2.076882e+004
2.192173e+002, 2.077967e+004
2.196994e+002, 2.079252e+004
2.201816e+002, 2.081084e+004
2.206637e+002, 2.083761e+004
2.211458e+002, 2.086411e+004
2.216279e+002, 2.088274e+004
2.221100e+002, 2.088662e+004
2.225921e+002, 2.090163e+004
2.230743e+002, 2.093542e+004
2.235564e+002, 2.098230e+004
2.240385e+002, 2.101671e+004
2.245206e+002, 2.103509e+004
2.250027e+002, 2.104651e+004
2.254848e+002, 2.105513e+004
2.259670e+002, 2.105748e+004
2.264491e+002, 2.106678e+004
2.269312e+002, 2.108627e+004
2.274133e+002, 2.111401e+004
2.278954e+002, 2.114212e+004
2.283775e+002, 2.117405e+004
2.288597e+002, 2.120092e+004
2.293418e+002, 2.121574e+004
2.298239e+002, 2.121213e+004
2.303060e+002, 2.121045e+004
2.307881e+002, 2.121014e+004
2.312702e+002, 2.121216e+004
2.317524e+002, 2.122276e+004
2.322345e+002, 2.124479e+004
2.327166e+002, 2.126995e+004
2.331987e+002, 2.129418e+004
2.336808e+002, 2.132091e+004
2.341629e+002, 2.133721e+004
2.346451e+002, 2.133743e+004
2.351272e+002, 2.132589e+004
2.356093e+002, 2.132352e+004
2.360914e+002, 2.133853e+004
2.365735e+002, 2.135147e+004
2.370556e+002, 2.134991e+004
2.375378e+002, 2.132267e+004
2.380199e+002, 2.130696e+004
2.385020e+002, 2.131121e+004
2.389841e+002, 2.132919e+004
2.394662e+002, 2.133379e+004
2.399483e+002, 2.131716e+004
2.404305e+002, 2.129922e+004
2.409126e+002, 2.129052e+004
2.413947e+002, 2.129457e+004
2.418768e+002, 2.130125e+004
2.423589e+002, 2.131018e+004
2.428410e+002, 2.132162e+004
2.433232e+002, 2.133684e+004
2.438053e+002, 2.135703e+004
2.442874e+002, 2.137904e+004
2.447695e+002, 2.140069e+004
2.452516e+002, 2.142017e+004
2.457337e+002, 2.144249e+004
2.462159e+002, 2.146878e+004
2.466980e+002, 2.149725e+004
2.471801e+002, 2.152346e+004
2.476622e+002, 2.155201e+004
2.481443e+002, 2.157095e+004
2.486264e+002, 2.157028e+004
2.491086e+002, 2.153081e+004
2.495907e+002, 2.151899e+004
2.500728e+002, 2.154793e+004
2.505549e+002, 2.160191e+004
2.510370e+002, 2.163830e+004
2.515191e+002, 2.164905e+004
2.520013e+002, 2.165591e+004
2.524834e+002, 2.166928e+004
2.529655e+002, 2.169383e+004
2.534476e+002, 2.171253e+004
2.539297e+002, 2.172034e+004
2.544118e+002, 2.172487e+004
2.548940e+002, 2.174504e+004
2.553761e+002, 2.179050e+004
2.558582e+002, 2.183443e+004
2.563403e+002, 2.186311e+004
2.568224e+002, 2.186788e+004
2.573046e+002, 2.188498e+004
2.577867e+002, 2.191761e+004
2.582688e+002, 2.195957e+004
2.587509e+002, 2.200106e+004
2.592330e+002, 2.204605e+004
2.597151e+002, 2.208056e+004
2.601973e+002, 2.209460e+004
2.606794e+002, 2.207921e+004
2.611615e+002, 2.208343e+004
2.616436e+002, 2.211500e+004
2.621257e+002, 2.215965e+004
2.626078e+002, 2.219274e+004
2.630900e+002, 2.220960e+004
2.635721e+002, 2.222693e+004
2.640542e+002, 2.225206e+004
2.645363e+002, 2.228812e+004
2.650184e+002, 2.231527e+004
2.655005e+002, 2.233023e+004
2.659827e+002, 2.234167e+004
2.664648e+002, 2.236254e+004
2.669469e+002, 2.239515e+004
2.674290e+002, 2.243067e+004
2.679111e+002, 2.246798e+004
2.683932e+002, 2.250715e+004
2.688754e+002, 2.254072e+004
2.693575e+002, 2.256628e+004
2.698396e+002, 2.258895e+004
2.703217e+002, 2.261518e+004
2.708038e+002, 2.264575e+004
2.712859e+002, 2.267406e+004
2.717681e+002, 2.269547e+004
2.722502e+002, 2.271011e+004
2.727323e+002, 2.273604e+004
2.732144e+002, 2.277630e+004
2.736965e+002, 2.282037e+004
2.741786e+002, 2.285637e+004
2.746608e+002, 2.288317e+004
2.751429e+002, 2.291008e+004
2.756250e+002, 2.293980e+004
2.761071e+002, 2.297171e+004
2.765892e+002, 2.300260e+004
2.770714e+002, 2.303300e+004
2.775535e+002, 2.305967e+004
2.780356e+002, 2.307611e+004
2.785177e+002, 2.308048e+004
2.789998e+002, 2.309331e+004
2.794819e+002, 2.312245e+004
2.799641e+002, 2.316238e+004
2.804462e+002, 2.318709e+004
2.809283e+002, 2.319444e+004
2.814104e+002, 2.319568e+004
2.818925e+002, 2.320050e+004
2.823746e+002, 2.320911e+004
2.828568e+002, 2.321335e+004
2.833389e+002, 2.321115e+004
2.838210e+002, 2.320522e+004
2.843031e+002, 2.320217e+004
2.847852e+002, 2.320262e+004
2.852673e+002, 2.320585e+004
2.857495e+002, 2.321074e+004
2.862316e+002, 2.321792e+004
2.867137e+002, 2.323205e+004
2.871958e+002, 2.325574e+004
2.876779e+002, 2.328433e+004
2.881600e+002, 2.330774e+004
2.886422e+002, 2.332581e+004
2.891243e+002, 2.334379e+004
2.896064e+002, 2.336290e+004
2.900885e+002, 2.338349e+004
2.905706e+002, 2.340894e+004
2.910527e+002, 2.344039e+004
2.915349e+002, 2.347300e+004
2.920170e+002, 2.349862e+004
2.924991e+002, 2.351718e+004
2.929812e+002, 2.353455e+004
2.934633e+002, 2.354939e+004
2.939454e+002, 2.356480e+004
2.944276e+002, 2.359345e+004
2.949097e+002, 2.363783e+004
2.953918e+002, 2.368629e+004
2.958739e+002, 2.372605e+004
2.963560e+002, 2.375747e+004
2.968381e+002, 2.378352e+004
2.973203e+002, 2.380165e+004
2.978024e+002, 2.381592e+004
2.982845e+002, 2.383614e+004
2.987666e+002, 2.386329e+004
2.992487e+002, 2.389022e+004
2.997308e+002, 2.390702e+004
3.002130e+002, 2.391768e+004
3.006951e+002, 2.393339e+004
3.011772e+002, 2.396140e+004
3.016593e+002, 2.399545e+004
3.021414e+002, 2.402621e+004
3.026235e+002, 2.405345e+004
3.031057e+002, 2.408320e+004
3.035878e+002, 2.412760e+004
3.040699e+002, 2.417721e+004
3.045520e+002, 2.421303e+004
3.050341e+002, 2.421999e+004
3.055162e+002, 2.421894e+004
3.059984e+002, 2.423103e+004
3.064805e+002, 2.425506e+004
3.069626e+002, 2.428335e+004
3.074447e+002, 2.431354e+004
3.079268e+002, 2.434387e+004
3.084089e+002, 2.437130e+004
3.088911e+002, 2.439363e+004
3.093732e+002, 2.441528e+004
3.098553e+002, 2.444194e+004
3.103374e+002, 2.447143e+004
3.108195e+002, 2.449671e+004
3.113016e+002, 2.450911e+004
3.117838e+002, 2.451749e+004
3.122659e+002, 2.452996e+004
3.127480e+002, 2.454879e+004
3.132301e+002, 2.456963e+004
3.137122e+002, 2.458932e+004
3.141943e+002, 2.460924e+004
3.146765e+002, 2.463198e+004
3.151586e+002, 2.466382e+004
3.156407e+002, 2.469526e+004
3.161228e+002, 2.471851e+004
3.166049e+002, 2.472943e+004
3.170870e+002, 2.474581e+004
3.175692e+002, 2.478454e+004
3.180513e+002, 2.483150e+004
3.185334e+002, 2.486663e+004
3.190155e+002, 2.487432e+004
3.194976e+002, 2.487685e+004
3.199797e+002, 2.488159e+004
3.204619e+002, 2.488881e+004
3.209440e+002, 2.490166e+004
3.214261e+002, 2.492564e+004
3.219082e+002, 2.495331e+004
3.223903e+002, 2.497748e+004
3.228724e+002, 2.499547e+004
3.233546e+002, 2.501040e+004
3.238367e+002, 2.501895e+004
3.243188e+002, 2.502166e+004
3.248009e+002, 2.503374e+004
3.252830e+002, 2.507012e+004
3.257651e+002, 2.510916e+004
3.262473e+002, 2.513691e+004
3.267294e+002, 2.514324e+004
3.272115e+002, 2.514957e+004
3.276936e+002, 2.515654e+004
3.281757e+002, 2.516525e+004
3.286578e+002, 2.517978e+004
3.291400e+002, 2.520362e+004
3.296221e+002, 2.523138e+004
3.301042e+002, 2.526184e+004
3.305863e+002, 2.530327e+004
3.310684e+002, 2.533343e+004
3.315505e+002, 2.533852e+004
3.320327e+002, 2.533423e+004
3.325148e+002, 2.535708e+004
3.329969e+002, 2.542811e+004
3.334790e+002, 2.549642e+004
3.339611e+002, 2.554302e+004
3.344432e+002, 2.555922e+004
3.349254e+002, 2.558565e+004
3.354075e+002, 2.562761e+004
3.358896e+002, 2.567361e+004
3.363717e+002, 2.570667e+004
3.368538e+002, 2.571994e+004
3.373359e+002, 2.573523e+004
3.378180e+002, 2.575943e+004
3.383001e+002, 2.579233e+004
3.387823e+002, 2.582205e+004
3.392644e+002, 2.584950e+004
3.397465e+002, 2.587271e+004
3.402286e+002, 2.588933e+004
3.407107e+002, 2.589907e+004
3.411928e+002, 2.590612e+004
3.416750e+002, 2.590961e+004
3.421571e+002, 2.591213e+004
3.426392e+002, 2.592442e+004
3.431213e+002, 2.594865e+004
3.436034e+002, 2.597317e+004
3.440855e+002, 2.598827e+004
3.445677e+002, 2.599444e+004
3.450498e+002, 2.600381e+004
3.455319e+002, 2.601700e+004
3.460140e+002, 2.603539e+004
3.464961e+002, 2.606570e+004
3.469782e+002, 2.610718e+004
3.474604e+002, 2.614461e+004
3.479425e+002, 2.616266e+004
3.484246e+002, 2.616851e+004
3.489067e+002, 2.619038e+004
3.493888e+002, 2.623220e+004
3.498709e+002, 2.627778e+004
3.503531e+002, 2.630228e+004
3.508352e+002, 2.631220e+004
3.513173e+002, 2.633166e+004
3.517994e+002, 2.638303e+004
3.522815e+002, 2.644631e+004
3.527636e+002, 2.648650e+004
3.532458e+002, 2.650335e+004
3.537279e+002, 2.651411e+004
3.542100e+002, 2.652505e+004
3.546921e+002, 2.654070e+004
3.551742e+002, 2.657027e+004
3.556563e+002, 2.662855e+004
3.561385e+002, 2.668907e+004
3.566206e+002, 2.672381e+004
3.571027e+002, 2.673709e+004
3.575848e+002, 2.675018e+004
3.580669e+002, 2.677679e+004
3.585490e+002, 2.680905e+004
3.590312e+002, 2.684033e+004
3.595133e+002, 2.687143e+004
3.599954e+002, 2.689804e+004
3.604775e+002, 2.691582e+004
3.609596e+002, 2.692785e+004
3.614417e+002, 2.694012e+004
3.619239e+002, 2.695401e+004
3.624060e+002, 2.697029e+004
3.628881e+002, 2.699121e+004
3.633702e+002, 2.701881e+004
3.638523e+002, 2.704194e+004
3.643344e+002, 2.704828e+004
3.648166e+002, 2.705132e+004
3.652987e+002, 2.706660e+004
3.657808e+002, 2.710860e+004
3.662629e+002, 2.715198e+004
3.667450e+002, 2.718826e+004
3.672271e+002, 2.721728e+004
3.677093e+002, 2.725242e+004
3.681914e+002, 2.730590e+004
3.686735e+002, 2.735885e+004
3.691556e+002, 2.739914e+004
3.696377e+002, 2.741283e+004
3.701198e+002, 2.742886e+004
3.706020e+002, 2.744623e+004
3.710841e+002, 2.746600e+004
3.715662e+002, 2.749318e+004
3.720483e+002, 2.753282e+004
3.725304e+002, 2.757279e+004
3.730125e+002, 2.760881e+004
3.734947e+002, 2.764179e+004
3.739768e+002, 2.766658e+004
3.744589e+002, 2.768109e+004
3.749410e+002, 2.768936e+004
3.754231e+002, 2.769698e+004
3.759052e+002, 2.770321e+004
3.763874e+002, 2.771251e+004
3.768695e+002, 2.772719e+004
3.773516e+002, 2.774779e+004
3.778337e+002, 2.776772e+004
3.783158e+002, 2.778623e+004
3.787979e+002, 2.780873e+004
3.792801e+002, 2.784407e+004
3.797622e+002, 2.789378e+004
3.802443e+002, 2.793404e+004
3.807264e+002, 2.795727e+004
3.812085e+002, 2.797119e+004
3.816906e+002, 2.799536e+004
3.821728e+002, 2.802938e+004
3.826549e+002, 2.807106e+004
3.831370e+002, 2.812445e+004
3.836191e+002, 2.818476e+004
3.841012e+002, 2.823041e+004
3.845833e+002, 2.825680e+004
3.850655e+002, 2.827555e+004
3.855476e+002, 2.829980e+004
3.860297e+002, 2.832882e+004
3.865118e+002, 2.835963e+004
3.869939e+002, 2.839179e+004
3.874760e+002, 2.842493e+004
3.879582e+002, 2.846067e+004
3.884403e+002, 2.849963e+004
3.889224e+002, 2.853455e+004
3.894045e+002, 2.855657e+004
3.898866e+002, 2.857194e+004
3.903687e+002, 2.858941e+004
3.908509e+002, 2.861188e+004
3.913330e+002, 2.863794e+004
3.918151e+002, 2.867163e+004
3.922972e+002, 2.871005e+004
3.927793e+002, 2.874143e+004
3.932614e+002, 2.875691e+004
3.937436e+002, 2.876496e+004
3.942257e+002, 2.876964e+004
3.947078e+002, 2.876596e+004
3.951899e+002, 2.877231e+004
3.956720e+002, 2.880286e+004
3.961541e+002, 2.884577e+004
3.966363e+002, 2.888222e+004
3.971184e+002, 2.889334e+004
3.976005e+002, 2.891017e+004
3.980826e+002, 2.894970e+004
3.985647e+002, 2.901745e+004
3.990468e+002, 2.906584e+004
3.995290e+002, 2.907705e+004
4.000111e+002, 2.907446e+004
4.004932e+002, 2.907655e+004
4.009753e+002, 2.907660e+004
4.014574e+002, 2.909145e+004
4.019395e+002, 2.913204e+004
4.024217e+002, 2.919078e+004
4.029038e+002, 2.922888e+004
4.033859e+002, 2.923232e+004
4.038680e+002, 2.923601e+004
4.043501e+002, 2.925810e+004
4.048322e+002, 2.930475e+004
4.053144e+002, 2.934865e+004
4.057965e+002, 2.939127e+004
4.062786e+002, 2.942872e+004
4.067607e+002, 2.945131e+004
4.072428e+002, 2.945550e+004
4.077249e+002, 2.946397e+004
4.082071e+002, 2.948609e+004
4.086892e+002, 2.951917e+004
4.091713e+002, 2.954354e+004
4.096534e+002, 2.955714e+004
4.101355e+002, 2.957385e+004
4.106176e+002, 2.961060e+004
4.110998e+002, 2.966350e+004
4.115819e+002, 2.970963e+004
4.120640e+002, 2.974382e+004
4.125461e+002, 2.977022e+004
4.130282e+002, 2.979657e+004
4.135103e+002, 2.982196e+004
4.139925e+002, 2.984207e+004
4.144746e+002, 2.984861e+004
4.149567e+002, 2.985025e+004
4.154388e+002, 2.986292e+004
4.159209e+002, 2.988934e+004
4.164030e+002, 2.991400e+004
4.168852e+002, 2.992246e+004
4.173673e+002, 2.992109e+004
4.178494e+002, 2.992034e+004
4.183315e+002, 2.992610e+004
4.188136e+002, 2.993284e+004
4.192957e+002, 2.993540e+004
4.197779e+002, 2.993524e+004
4.202600e+002, 2.994052e+004
4.207421e+002, 2.995794e+004
4.212242e+002, 2.998110e+004
4.217063e+002, 3.000513e+004
4.221884e+002, 3.002967e+004
4.226706e+002, 3.005551e+004
4.231527e+002, 3.008593e+004
4.236348e+002, 3.011773e+004
4.241169e+002, 3.014496e+004
4.245990e+002, 3.016405e+004
4.250811e+002, 3.018088e+004
4.255633e+002, 3.019128e+004
4.260454e+002, 3.019048e+004
4.265275e+002, 3.021486e+004
4.270096e+002, 3.028534e+004
4.274917e+002, 3.036368e+004
4.279738e+002, 3.041760e+004
4.284560e+002, 3.043370e+004
4.289381e+002, 3.045166e+004
4.294202e+002, 3.047475e+004
4.299023e+002, 3.050221e+004
4.303844e+002, 3.053615e+004
4.308665e+002, 3.058162e+004
4.313487e+002, 3.061847e+004
4.318308e+002, 3.063132e+004
4.323129e+002, 3.061841e+004
4.327950e+002, 3.062192e+004
4.332771e+002, 3.064646e+004
4.337592e+002, 3.067697e+004
4.342414e+002, 3.069232e+004
4.347235e+002, 3.069417e+004
4.352056e+002, 3.070017e+004
4.356877e+002, 3.071552e+004
4.361698e+002, 3.073917e+004
4.366519e+002, 3.077432e+004
4.371341e+002, 3.082025e+004
4.376162e+002, 3.086021e+004
4.380983e+002, 3.088038e+004
4.385804e+002, 3.088724e+004
4.390625e+002, 3.088724e+004
4.395446e+002, 3.087569e+004
4.400268e+002, 3.087727e+004
4.405089e+002, 3.092648e+004
4.409910e+002, 3.100484e+004
4.414731e+002, 3.107374e+004
4.419552e+002, 3.111225e+004
4.424373e+002, 3.113879e+004
4.429195e+002, 3.116373e+004
4.434016e+002, 3.118728e+004
4.438837e+002, 3.120840e+004
4.443658e+002, 3.122691e+004
4.448479e+002, 3.124197e+004
4.453300e+002, 3.125202e+004
4.458122e+002, 3.123697e+004
4.462943e+002, 3.124207e+004
4.467764e+002, 3.128991e+004
4.472585e+002, 3.136363e+004
4.477406e+002, 3.142016e+004
4.482227e+002, 3.143887e+004
4.487049e+002, 3.145798e+004
4.491870e+002, 3.149292e+004
4.496691e+002, 3.154986e+004
4.501512e+002, 3.158389e+004
4.506333e+002, 3.158357e+004
4.511154e+002, 3.157329e+004
4.515976e+002, 3.157600e+004
4.520797e+002, 3.159511e+004
4.525618e+002, 3.161858e+004
4.530439e+002, 3.164802e+004
4.535260e+002, 3.167955e+004
4.540081e+002, 3.169956e+004
4.544903e+002, 3.170615e+004
4.549724e+002, 3.171531e+004
4.554545e+002, 3.173554e+004
4.559366e+002, 3.176592e+004
4.564187e+002, 3.180460e+004
4.569008e+002, 3.185261e+004
4.573830e+002, 3.189958e+004
4.578651e+002, 3.192602e+004
4.583472e+002, 3.193916e+004
4.588293e+002, 3.196283e+004
4.593114e+002, 3.201201e+004
4.597935e+002, 3.206729e+004
4.602757e+002, 3.210418e+004
4.607578e+002, 3.212486e+004
4.612399e+002, 3.214297e+004
4.617220e+002, 3.216311e+004
4.622041e+002, 3.218672e+004
4.626862e+002, 3.221810e+004
4.631684e+002, 3.226136e+004
4.636505e+002, 3.229735e+004
4.641326e+002, 3.231276e+004
4.646147e+002, 3.231643e+004
4.650968e+002, 3.231990e+004
4.655789e+002, 3.232684e+004
4.660611e+002, 3.233474e+004
4.665432e+002, 3.234132e+004
4.670253e+002, 3.234765e+004
4.675074e+002, 3.236163e+004
4.679895e+002, 3.238956e+004
4.684716e+002, 3.242168e+004
4.689538e+002, 3.245318e+004
4.694359e+002, 3.248188e+004
4.699180e+002, 3.251382e+004
4.704001e+002, 3.255110e+004
4.708822e+002, 3.258981e+004
4.713643e+002, 3.262438e+004
4.718465e+002, 3.265389e+004
4.723286e+002, 3.268021e+004
4.728107e+002, 3.270182e+004
4.732928e+002, 3.271983e+004
4.737749e+002, 3.274509e+004
4.742570e+002, 3.277869e+004
4.747392e+002, 3.281188e+004
4.752213e+002, 3.283578e+004
4.757034e+002, 3.285232e+004
4.761855e+002, 3.287757e+004
4.766676e+002, 3.291639e+004
4.771497e+002, 3.295424e+004
4.776319e+002, 3.296786e+004
4.781140e+002, 3.296349e+004
4.785961e+002, 3.296061e+004
4.790782e+002, 3.296238e+004
4.795603e+002, 3.297355e+004
4.800424e+002, 3.300704e+004
4.805246e+002, 3.305974e+004
4.810067e+002, 3.310559e+004
4.814888e+002, 3.312449e+004
4.819709e+002, 3.313107e+004
4.824530e+002, 3.313595e+004
4.829352e+002, 3.313644e+004
4.834173e+002, 3.314654e+004
4.838994e+002, 3.318361e+004
4.843815e+002, 3.323082e+004
4.848636e+002, 3.326226e+004
4.853457e+002, 3.325364e+004
4.858279e+002, 3.324721e+004
4.863100e+002, 3.325578e+004
4.867921e+002, 3.327986e+004
4.872742e+002, 3.330089e+004
4.877563e+002, 3.331754e+004
4.882384e+002, 3.333380e+004
4.887206e+002, 3.335254e+004
4.892027e+002, 3.337688e+004
4.896848e+002, 3.339600e+004
4.901669e+002, 3.340704e+004
4.906490e+002, 3.341660e+004
4.911311e+002, 3.343654e+004
4.916133e+002, 3.346824e+004
4.920954e+002, 3.349964e+004
4.925775e+002, 3.352668e+004
4.930596e+002, 3.355035e+004
4.935417e+002, 3.357410e+004
4.940238e+002, 3.359738e+004
4.945060e+002, 3.362340e+004
4.949881e+002, 3.365554e+004
4.954702e+002, 3.369128e+004
4.959523e+002, 3.372582e+004
4.964344e+002, 3.375771e+004
4.969165e+002, 3.378876e+004
4.973987e+002, 3.382281e+004
4.978808e+002, 3.385718e+004
4.983629e+002, 3.388627e+004
4.988450e+002, 3.390676e+004
4.993271e+002, 3.392259e+004
4.998092e+002, 3.393735e+004
5.002914e+002, 3.395062e+004
5.007735e+002, 3.395766e+004
5.012556e+002, 3.394725e+004
5.017377e+002, 3.393811e+004
5.022198e+002, 3.394421e+004
5.027019e+002, 3.397859e+004
5.031841e+002, 3.399975e+004
5.036662e+002, 3.398715e+004
5.041483e+002, 3.396577e+004
5.046304e+002, 3.396498e+004
5.051125e+002, 3.399796e+004
5.055946e+002, 3.403039e+004
5.060768e+002, 3.405894e+004
5.065589e+002, 3.408288e+004
5.070410e+002, 3.409592e+004
5.075231e+002, 3.408987e+004
5.080052e+002, 3.409474e+004
5.084873e+002, 3.413556e+004
5.089695e+002, 3.421207e+004
5.094516e+002, 3.425864e+004
5.099337e+002, 3.427022e+004
5.104158e+002, 3.426991e+004
5.108979e+002, 3.428043e+004
5.113800e+002, 3.430095e+004
5.118622e+002, 3.432927e+004
5.123443e+002, 3.436941e+004
5.128264e+002, 3.441028e+004
5.133085e+002, 3.443550e+004
5.137906e+002, 3.444874e+004
5.142728e+002, 3.446296e+004
5.147549e+002, 3.449773e+004
5.152370e+002, 3.452911e+004
5.157191e+002, 3.453078e+004
5.162012e+002, 3.449943e+004
5.166833e+002, 3.447373e+004
5.171655e+002, 3.447009e+004
5.176476e+002, 3.448115e+004
5.181297e+002, 3.450078e+004
5.186118e+002, 3.453535e+004
5.190939e+002, 3.456932e+004
5.195760e+002, 3.460326e+004
5.200582e+002, 3.463473e+004
5.205403e+002, 3.465830e+004
5.210224e+002, 3.466002e+004
5.215045e+002, 3.467271e+004
5.219866e+002, 3.470753e+004
5.224688e+002, 3.476439e+004
5.229509e+002, 3.481932e+004
5.234330e+002, 3.487432e+004
5.239151e+002, 3.492242e+004
5.243972e+002, 3.495209e+004
5.248793e+002, 3.496222e+004
5.253615e+002, 3.499138e+004
5.258436e+002, 3.504674e+004
5.263257e+002, 3.511106e+004
5.268078e+002, 3.516381e+004
5.272899e+002, 3.520427e+004
5.277720e+002, 3.522751e+004
5.282542e+002, 3.522004e+004
5.287363e+002, 3.520279e+004
5.292184e+002, 3.520323e+004
5.297005e+002, 3.521941e+004
5.301826e+002, 3.524077e+004
5.306647e+002, 3.526930e+004
5.311469e+002, 3.529540e+004
5.316290e+002, 3.530723e+004
5.321111e+002, 3.529846e+004
5.325932e+002, 3.530070e+004
5.330753e+002, 3.534259e+004
5.335574e+002, 3.539549e+004
5.340396e+002, 3.542901e+004
5.345217e+002, 3.541835e+004
5.350038e+002, 3.541216e+004
5.354859e+002, 3.541679e+004
5.359680e+002, 3.543109e+004
5.364501e+002, 3.545180e+004
5.369323e+002, 3.548137e+004
5.374144e+002, 3.551329e+004
5.378965e+002, 3.554546e+004
5.383786e+002, 3.557762e+004
5.388607e+002, 3.560877e+004
5.393428e+002, 3.563866e+004
5.398250e+002, 3.566613e+004
5.403071e+002, 3.568703e+004
5.407892e+002, 3.570205e+004
5.412713e+002, 3.572446e+004
5.417534e+002, 3.575854e+004
5.422355e+002, 3.579306e+004
5.427177e+002, 3.581143e+004
5.431998e+002, 3.581709e+004
5.436819e+002, 3.582056e+004
5.441640e+002, 3.582831e+004
5.446461e+002, 3.583508e+004
5.451282e+002, 3.583009e+004
5.456104e+002, 3.581685e+004
5.460925e+002, 3.581621e+004
5.465746e+002, 3.584945e+004
5.470567e+002, 3.589182e+004
5.475388e+002, 3.592823e+004
5.480209e+002, 3.595650e+004
5.485031e+002, 3.597873e+004
5.489852e+002, 3.598984e+004
5.494673e+002, 3.599780e+004
5.499494e+002, 3.601150e+004
5.504315e+002, 3.604076e+004
5.509136e+002, 3.605909e+004
5.513958e+002, 3.605582e+004
5.518779e+002, 3.604138e+004
5.523600e+002, 3.605062e+004
5.528421e+002, 3.609157e+004
5.533242e+002, 3.612745e+004
5.538063e+002, 3.614159e+004
5.542885e+002, 3.613652e+004
5.547706e+002, 3.613125e+004
5.552527e+002, 3.612576e+004
5.557348e+002, 3.612139e+004
5.562169e+002, 3.611860e+004
5.566990e+002, 3.611815e+004
5.571812e+002, 3.612199e+004
5.576633e+002, 3.613119e+004
5.581454e+002, 3.614319e+004
5.586275e+002, 3.616152e+004
5.591096e+002, 3.618034e+004
5.595917e+002, 3.618950e+004
5.600739e+002, 3.617030e+004
5.605560e+002, 3.615441e+004
5.610381e+002, 3.616263e+004
5.615202e+002, 3.618915e+004
5.620023e+002, 3.620830e+004
5.624844e+002, 3.620097e+004
5.629666e+002, 3.619524e+004
5.634487e+002, 3.620510e+004
5.639308e+002, 3.623429e+004
5.644129e+002, 3.625929e+004
5.648950e+002, 3.628004e+004
5.653771e+002, 3.629600e+004
5.658593e+002, 3.630573e+004
5.663414e+002, 3.630701e+004
5.668235e+002, 3.631120e+004
5.673056e+002, 3.632137e+004
5.677877e+002, 3.633179e+004
5.682698e+002, 3.632751e+004
5.687520e+002, 3.631002e+004
5.692341e+002, 3.630404e+004
5.697162e+002, 3.632963e+004
5.701983e+002, 3.636610e+004
5.706804e+002, 3.637231e+004
5.711625e+002, 3.635233e+004
5.716447e+002, 3.633207e+004
5.721268e+002, 3.632385e+004
5.726089e+002, 3.632685e+004
5.730910e+002, 3.634249e+004
5.735731e+002, 3.637244e+004
5.740552e+002, 3.640523e+004
5.745374e+002, 3.644231e+004
5.750195e+002, 3.647665e+004
5.755016e+002, 3.650167e+004
5.759837e+002, 3.650259e+004
5.764658e+002, 3.650955e+004
5.769479e+002, 3.652614e+004
5.774301e+002, 3.654890e+004
5.779122e+002, 3.657131e+004
5.783943e+002, 3.658949e+004
5.788764e+002, 3.661316e+004
5.793585e+002, 3.664665e+004
5.798406e+002, 3.668749e+004
5.803228e+002, 3.672222e+004
5.808049e+002, 3.675109e+004
5.812870e+002, 3.677148e+004
5.817691e+002, 3.677898e+004
5.822512e+002, 3.677673e+004
5.827333e+002, 3.677756e+004
5.832155e+002, 3.678324e+004
5.836975e+002, 3.678809e+004
5.841796e+002, 3.678553e+004
5.846617e+002, 3.677974e+004
5.851439e+002, 3.677552e+004
5.856260e+002, 3.676727e+004
5.861081e+002, 3.677490e+004
5.865902e+002, 3.683272e+004
5.870723e+002, 3.691316e+004
5.875544e+002, 3.696189e+004
5.880366e+002, 3.692765e+004
5.885187e+002, 3.689594e+004
5.890008e+002, 3.689453e+004
5.894829e+002, 3.692238e+004
5.899650e+002, 3.695014e+004
5.904471e+002, 3.697855e+004
5.909293e+002, 3.700389e+004
5.914114e+002, 3.702369e+004
5.918935e+002, 3.703721e+004
5.923756e+002, 3.704662e+004
5.928577e+002, 3.705015e+004
5.933398e+002, 3.705370e+004
5.938220e+002, 3.706901e+004
5.943041e+002, 3.709316e+004
5.947862e+002, 3.709818e+004
5.952683e+002, 3.707269e+004
5.957504e+002, 3.704480e+004
5.962325e+002, 3.705930e+004
5.967147e+002, 3.710161e+004
5.971968e+002, 3.713283e+004
5.976789e+002, 3.712709e+004
5.981610e+002, 3.711248e+004
5.986431e+002, 3.710695e+004
5.991252e+002, 3.710977e+004
5.996074e+002, 3.711595e+004
6.000895e+002, 3.713060e+004
6.005716e+002, 3.714220e+004
6.010537e+002, 3.714289e+004
6.015358e+002, 3.712822e+004
6.020179e+002, 3.712129e+004
6.025001e+002, 3.712516e+004
6.029822e+002, 3.713401e+004
6.034643e+002, 3.714469e+004
6.039464e+002, 3.715906e+004
6.044285e+002, 3.716703e+004
6.049106e+002, 3.716466e+004
6.053928e+002, 3.716202e+004
6.058749e+002, 3.717663e+004
6.063570e+002, 3.720726e+004
6.068391e+002, 3.723764e+004
6.073212e+002, 3.726413e+004
6.078033e+002, 3.728566e+004
6.082855e+002, 3.729700e+004
6.087676e+002, 3.730080e+004
6.092497e+002, 3.730795e+004
6.097318e+002, 3.733186e+004
6.102139e+002, 3.735532e+004
6.106960e+002, 3.735910e+004
6.111782e+002, 3.734329e+004
6.116603e+002, 3.733833e+004
6.121424e+002, 3.736858e+004
6.126245e+002, 3.740310e+004
6.131066e+002, 3.742271e+004
6.135887e+002, 3.742082e+004
6.140709e+002, 3.741723e+004
6.145530e+002, 3.741129e+004
6.150351e+002, 3.740527e+004
6.155172e+002, 3.739878e+004
6.159993e+002, 3.738834e+004
6.164814e+002, 3.739753e+004
6.169636e+002, 3.743673e+004
6.174457e+002, 3.748655e+004
6.179278e+002, 3.750985e+004
6.184099e+002, 3.750802e+004
6.188920e+002, 3.749821e+004
6.193741e+002, 3.747965e+004
6.198563e+002, 3.746204e+004
6.203384e+002, 3.746376e+004
6.208205e+002, 3.748101e+004
6.213026e+002, 3.749619e+004
6.217847e+002, 3.749604e+004
6.222668e+002, 3.749188e+004
6.227490e+002, 3.749337e+004
6.232311e+002, 3.750236e+004
6.237132e+002, 3.750682e+004
6.241953e+002, 3.749602e+004
6.246774e+002, 3.748588e+004
6.251595e+002, 3.748929e+004
6.256417e+002, 3.752634e+004
6.261238e+002, 3.753859e+004
6.266059e+002, 3.751638e+004
6.270880e+002, 3.748143e+004
6.275701e+002, 3.745887e+004
6.280522e+002, 3.744845e+004
6.285344e+002, 3.745786e+004
6.290165e+002, 3.749381e+004
6.294986e+002, 3.754277e+004
6.299807e+002, 3.758286e+004
6.304628e+002, 3.761358e+004
6.309449e+002, 3.763260e+004
6.314271e+002, 3.762522e+004
6.319092e+002, 3.761371e+004
6.323913e+002, 3.762407e+004
6.328734e+002, 3.765316e+004
6.333555e+002, 3.768273e+004
6.338376e+002, 3.770410e+004
6.343198e+002, 3.772204e+004
6.348019e+002, 3.773989e+004
6.352840e+002, 3.775870e+004
6.357661e+002, 3.777263e+004
6.362482e+002, 3.777499e+004
6.367303e+002, 3.777768e+004
6.372125e+002, 3.779121e+004
6.376946e+002, 3.782564e+004
6.381767e+002, 3.784174e+004
6.386588e+002, 3.783473e+004
6.391409e+002, 3.781598e+004
6.396230e+002, 3.779621e+004
6.401052e+002, 3.777654e+004
6.405873e+002, 3.777436e+004
6.410694e+002, 3.780112e+004
6.415515e+002, 3.783590e+004
6.420336e+002, 3.784202e+004
6.425157e+002, 3.782890e+004
6.429979e+002, 3.782413e+004
6.434800e+002, 3.784850e+004
6.439621e+002, 3.787976e+004
6.444442e+002, 3.790621e+004
6.449263e+002, 3.792691e+004
6.454084e+002, 3.793834e+004
6.458906e+002, 3.793016e+004
6.463727e+002, 3.792034e+004
6.468548e+002, 3.791750e+004
6.473369e+002, 3.792262e+004
6.478190e+002, 3.792876e+004
6.483011e+002, 3.793830e+004
6.487833e+002, 3.794534e+004
6.492654e+002, 3.794182e+004
6.497475e+002, 3.792574e+004
6.502296e+002, 3.792473e+004
6.507117e+002, 3.794162e+004
6.511938e+002, 3.796816e+004
6.516760e+002, 3.799549e+004
6.521581e+002, 3.802405e+004
6.526402e+002, 3.805532e+004
6.531223e+002, 3.809222e+004
6.536044e+002, 3.812602e+004
6.540865e+002, 3.814830e+004
6.545687e+002, 3.816224e+004
6.550508e+002, 3.817437e+004
6.555329e+002, 3.819280e+004
6.560150e+002, 3.820409e+004
6.564971e+002, 3.819655e+004
6.569792e+002, 3.817532e+004
6.574614e+002, 3.816728e+004
6.579435e+002, 3.817998e+004
6.584256e+002, 3.819675e+004
6.589077e+002, 3.821478e+004
6.593898e+002, 3.823353e+004
6.598719e+002, 3.823829e+004
6.603541e+002, 3.822512e+004
6.608362e+002, 3.821600e+004
6.613183e+002, 3.823463e+004
6.618004e+002, 3.827120e+004
6.622825e+002, 3.828481e+004
6.627646e+002, 3.827230e+004
6.632468e+002, 3.825447e+004
6.637289e+002, 3.825240e+004
6.642110e+002, 3.825533e+004
6.646931e+002, 3.824813e+004
6.651752e+002, 3.822355e+004
6.656573e+002, 3.820019e+004
6.661395e+002, 3.817880e+004
6.666216e+002, 3.816628e+004
6.671037e+002, 3.817102e+004
6.675858e+002, 3.821819e+004
6.680679e+002, 3.825225e+004
6.685500e+002, 3.826421e+004
6.690322e+002, 3.826261e+004
6.695143e+002, 3.826616e+004
6.699964e+002, 3.827647e+004
6.704785e+002, 3.828324e+004
6.709606e+002, 3.828289e+004
6.714427e+002, 3.827674e+004
6.719249e+002, 3.826316e+004
6.724070e+002, 3.824401e+004
6.728891e+002, 3.823645e+004
6.733712e+002, 3.826130e+004
6.738533e+002, 3.829684e+004
6.743354e+002, 3.831578e+004
6.748176e+002, 3.831930e+004
6.752997e+002, 3.832621e+004
6.757818e+002, 3.834862e+004
6.762639e+002, 3.837549e+004
6.767460e+002, 3.840392e+004
6.772281e+002, 3.843868e+004
6.777103e+002, 3.845013e+004
6.781924e+002, 3.841163e+004
6.786745e+002, 3.837598e+004
6.791566e+002, 3.838822e+004
6.796387e+002, 3.846409e+004
6.801208e+002, 3.850891e+004
6.806030e+002, 3.851088e+004
6.810851e+002, 3.850021e+004
6.815672e+002, 3.852060e+004
6.820493e+002, 3.856287e+004
6.825314e+002, 3.858666e+004
6.830135e+002, 3.857538e+004
6.834957e+002, 3.855762e+004
6.839778e+002, 3.856580e+004
6.844599e+002, 3.858885e+004
6.849420e+002, 3.860574e+004
6.854241e+002, 3.860823e+004
6.859063e+002, 3.860402e+004
6.863884e+002, 3.858647e+004
6.868705e+002, 3.856352e+004
6.873526e+002, 3.856279e+004
6.878347e+002, 3.860579e+004
6.883168e+002, 3.864228e+004
6.887990e+002, 3.865748e+004
6.892811e+002, 3.865509e+004
6.897632e+002, 3.865650e+004
6.902453e+002, 3.866247e+004
6.907274e+002, 3.866841e+004
6.912095e+002, 3.866831e+004
6.916917e+002, 3.866619e+004
6.921738e+002, 3.867669e+004
6.926559e+002, 3.869905e+004
6.931380e+002, 3.872055e+004
6.936201e+002, 3.873495e+004
6.941022e+002, 3.874125e+004
6.945844e+002, 3.873452e+004
6.950665e+002, 3.871066e+004
6.955486e+002, 3.869466e+004
6.960307e+002, 3.869666e+004
6.965128e+002, 3.870826e+004
6.969949e+002, 3.872437e+004
6.974771e+002, 3.875635e+004
6.979592e+002, 3.876735e+004
6.984413e+002, 3.875009e+004
6.989234e+002, 3.872207e+004
6.994055e+002, 3.870569e+004
6.998876e+002, 3.870183e+004
7.003698e+002, 3.869205e+004
7.008519e+002, 3.867223e+004
7.013340e+002, 3.865085e+004
7.018161e+002, 3.864028e+004
7.022982e+002, 3.863804e+004
7.027803e+002, 3.863710e+004
7.032625e+002, 3.863480e+004
7.037446e+002, 3.863359e+004
7.042267e+002, 3.863554e+004
7.047088e+002, 3.863963e+004
7.051909e+002, 3.864366e+004
7.056730e+002, 3.864038e+004
7.061552e+002, 3.864349e+004
7.066373e+002, 3.865693e+004
7.071194e+002, 3.867839e+004
7.076015e+002, 3.869964e+004
7.080836e+002, 3.872035e+004
7.085657e+002, 3.873868e+004
7.090479e+002, 3.875285e+004
7.095300e+002, 3.876346e+004
7.100121e+002, 3.877297e+004
7.104942e+002, 3.878129e+004
7.109763e+002, 3.879321e+004
7.114584e+002, 3.882075e+004
7.119406e+002, 3.884912e+004
7.124227e+002, 3.885842e+004
7.129048e+002, 3.884828e+004
7.133869e+002, 3.883434e+004
7.138690e+002, 3.882717e+004
7.143511e+002, 3.881760e+004
7.148333e+002, 3.879773e+004
7.153154e+002, 3.876107e+004
7.157975e+002, 3.873720e+004
7.162796e+002, 3.873450e+004
7.167617e+002, 3.873607e+004
7.172438e+002, 3.872864e+004
7.177260e+002, 3.871198e+004
7.182081e+002, 3.869500e+004
7.186902e+002, 3.867784e+004
7.191723e+002, 3.866416e+004
7.196544e+002, 3.865800e+004
7.201365e+002, 3.865875e+004
7.206187e+002, 3.866510e+004
7.211008e+002, 3.867734e+004
7.215829e+002, 3.869224e+004
7.220650e+002, 3.870742e+004
7.225471e+002, 3.872316e+004
7.230292e+002, 3.874032e+004
7.235114e+002, 3.875299e+004
7.239935e+002, 3.877298e+004
7.244756e+002, 3.880584e+004
7.249577e+002, 3.884487e+004
7.254398e+002, 3.888173e+004
7.259219e+002, 3.891919e+004
7.264041e+002, 3.894154e+004
7.268862e+002, 3.893849e+004
7.273683e+002, 3.892524e+004
7.278504e+002, 3.894840e+004
7.283325e+002, 3.900073e+004
7.288146e+002, 3.903209e+004
7.292968e+002, 3.900214e+004
7.297789e+002, 3.895466e+004
7.302610e+002, 3.893782e+004
7.307431e+002, 3.894530e+004
7.312252e+002, 3.895621e+004
7.317073e+002, 3.897118e+004
7.321895e+002, 3.897840e+004
7.326716e+002, 3.896824e+004
7.331537e+002, 3.894232e+004
7.336358e+002, 3.892563e+004
7.341179e+002, 3.892184e+004
7.346000e+002, 3.892192e+004
7.350822e+002, 3.892475e+004
7.355643e+002, 3.892961e+004
7.360464e+002, 3.892384e+004
7.365285e+002, 3.890711e+004
7.370106e+002, 3.889154e+004
7.374927e+002, 3.888347e+004
7.379749e+002, 3.888338e+004
7.384570e+002, 3.889459e+004
7.389391e+002, 3.891686e+004
7.394212e+002, 3.893976e+004
7.399033e+002, 3.897182e+004
7.403854e+002, 3.899139e+004
7.408676e+002, 3.897258e+004
7.413497e+002, 3.889186e+004
7.418318e+002, 3.885912e+004
7.423139e+002, 3.891710e+004
7.427960e+002, 3.898199e+004
7.432781e+002, 3.899022e+004
7.437603e+002, 3.892900e+004
7.442424e+002, 3.890630e+004
7.447245e+002, 3.893092e+004
7.452066e+002, 3.897027e+004
7.456887e+002, 3.899823e+004
7.461708e+002, 3.901433e+004
7.466530e+002, 3.901103e+004
7.471351e+002, 3.898218e+004
7.476172e+002, 3.896187e+004
7.480993e+002, 3.898332e+004
7.485814e+002, 3.902402e+004
7.490635e+002, 3.905826e+004
7.495457e+002, 3.907332e+004
7.500278e+002, 3.909312e+004
7.505099e+002, 3.911829e+004
7.509920e+002, 3.914977e+004
7.514741e+002, 3.919153e+004
7.519562e+002, 3.924758e+004
7.524384e+002, 3.929056e+004
7.529205e+002, 3.931332e+004
7.534026e+002, 3.932572e+004
7.538847e+002, 3.933968e+004
7.543668e+002, 3.935571e+004
7.548489e+002, 3.937899e+004
7.553311e+002, 3.941642e+004
7.558132e+002, 3.945087e+004
7.562953e+002, 3.946348e+004
7.567774e+002, 3.946313e+004
7.572595e+002, 3.946526e+004
7.577416e+002, 3.947666e+004
7.582238e+002, 3.948969e+004
7.587059e+002, 3.950314e+004
7.591880e+002, 3.951820e+004
7.596701e+002, 3.953846e+004
7.601522e+002, 3.956867e+004
7.606343e+002, 3.959053e+004
7.611165e+002, 3.959504e+004
7.615986e+002, 3.959412e+004
7.620807e+002, 3.961832e+004
7.625628e+002, 3.966472e+004
7.630449e+002, 3.971532e+004
7.635270e+002, 3.976638e+004
7.640092e+002, 3.981349e+004
7.644913e+002, 3.985069e+004
7.649734e+002, 3.988029e+004
7.654555e+002, 3.991046e+004
7.659376e+002, 3.993661e+004
7.664197e+002, 3.997065e+004
7.669019e+002, 4.001798e+004
7.673840e+002, 4.007621e+004
7.678661e+002, 4.013970e+004
7.683482e+002, 4.021477e+004
7.688303e+002, 4.027441e+004
7.693124e+002, 4.030080e+004
7.697946e+002, 4.030517e+004
7.702767e+002, 4.032561e+004
7.707588e+002, 4.036160e+004
7.712409e+002, 4.040887e+004
7.717230e+002, 4.047276e+004
7.722051e+002, 4.054137e+004
7.726873e+002, 4.060470e+004
7.731694e+002, 4.066280e+004
7.736515e+002, 4.071589e+004
7.741336e+002, 4.076055e+004
7.746157e+002, 4.080467e+004
7.750978e+002, 4.085166e+004
7.755800e+002, 4.090167e+004
7.760621e+002, 4.095397e+004
7.765442e+002, 4.101013e+004
7.770263e+002, 4.106453e+004
7.775084e+002, 4.110181e+004
7.779905e+002, 4.113291e+004
7.784727e+002, 4.122147e+004
7.789548e+002, 4.136402e+004
7.794369e+002, 4.150276e+004
7.799190e+002, 4.158401e+004
7.804011e+002, 4.164863e+004
7.808832e+002, 4.173305e+004
7.813654e+002, 4.183924e+004
7.818475e+002, 4.196704e+004
7.823296e+002, 4.213742e+004
7.828117e+002, 4.231025e+004
7.832938e+002, 4.246682e+004
7.837759e+002, 4.260567e+004
7.842581e+002, 4.274161e+004
7.847402e+002, 4.286657e+004
7.852223e+002, 4.301332e+004
7.857044e+002, 4.322434e+004
7.861865e+002, 4.347854e+004
7.866686e+002, 4.369382e+004
7.871508e+002, 4.386955e+004
7.876329e+002, 4.404180e+004
7.881150e+002, 4.422851e+004
7.885971e+002, 4.443468e+004
7.890792e+002, 4.466599e+004
7.895613e+002, 4.492918e+004
7.900435e+002, 4.518428e+004
7.905256e+002, 4.543096e+004
7.910077e+002, 4.565927e+004
7.914898e+002, 4.586702e+004
7.919719e+002, 4.605234e+004
7.924540e+002, 4.621443e+004
7.929362e+002, 4.635169e+004
7.934183e+002, 4.645770e+004
7.939004e+002, 4.653276e+004
7.943825e+002, 4.656999e+004
7.948646e+002, 4.654565e+004
7.953467e+002, 4.645780e+004
7.958289e+002, 4.632654e+004
7.963110e+002, 4.616072e+004
7.967931e+002, 4.596431e+004
7.972752e+002, 4.574386e+004
7.977573e+002, 4.549959e+004
7.982394e+002, 4.522684e+004
7.987216e+002, 4.491731e+004
7.992037e+002, 4.459080e+004
7.996858e+002, 4.425618e+004
8.001679e+002, 4.390802e+004
8.006500e+002, 4.359504e+004
8.011321e+002, 4.331769e+004
8.016143e+002, 4.304707e+004
8.020964e+002, 4.274711e+004
8.025785e+002, 4.243777e+004
8.030606e+002, 4.215143e+004
8.035427e+002, 4.189214e+004
8.040248e+002, 4.165498e+004
8.045070e+002, 4.143348e+004
8.049891e+002, 4.123136e+004
8.054712e+002, 4.105553e+004
8.059533e+002, 4.091560e+004
8.064354e+002, 4.076553e+004
8.069175e+002, 4.059175e+004
8.073997e+002, 4.042678e+004
8.078818e+002, 4.029889e+004
8.083639e+002, 4.020804e+004
8.088460e+002, 4.011163e+004
8.093281e+002, 4.000850e+004
8.098102e+002, 3.989669e+004
8.102924e+002, 3.975273e+004
8.107745e+002, 3.960910e+004
8.112566e+002, 3.951823e+004
8.117387e+002, 3.949350e+004
8.122208e+002, 3.946476e+004
8.127029e+002, 3.939641e+004
8.131851e+002, 3.931982e+004
8.136672e+002, 3.925659e+004
8.141493e+002, 3.920975e+004
8.146314e+002, 3.916631e+004
8.151135e+002, 3.912807e+004
8.155956e+002, 3.908956e+004
8.160778e+002, 3.904143e+004
8.165599e+002, 3.898824e+004
8.170420e+002, 3.895546e+004
8.175241e+002, 3.894429e+004
8.180062e+002, 3.893765e+004
8.184883e+002, 3.892660e+004
8.189705e+002, 3.890957e+004
8.194526e+002, 3.888134e+004
8.199347e+002, 3.883832e+004
8.204168e+002, 3.880586e+004
8.208989e+002, 3.880595e+004
8.213810e+002, 3.880208e+004
8.218632e+002, 3.877220e+004
8.223453e+002, 3.871232e+004
8.228274e+002, 3.867146e+004
8.233095e+002, 3.865397e+004
8.237916e+002, 3.863739e+004
8.242737e+002, 3.860418e+004
8.247559e+002, 3.856038e+004
8.252380e+002, 3.851235e+004
8.257201e+002, 3.846196e+004
8.262022e+002, 3.842594e+004
8.266843e+002, 3.843686e+004
8.271664e+002, 3.844892e+004
8.276486e+002, 3.842301e+004
8.281307e+002, 3.834591e+004
8.286128e+002, 3.830775e+004
8.290949e+002, 3.832871e+004
8.295770e+002, 3.835277e+004
8.300591e+002, 3.834627e+004
8.305413e+002, 3.831240e+004
8.310234e+002, 3.829018e+004
8.315055e+002, 3.827921e+004
8.319876e+002, 3.827224e+004
8.324697e+002, 3.826961e+004
8.329518e+002, 3.826446e+004
8.334340e+002, 3.824457e+004
8.339161e+002, 3.821109e+004
8.343982e+002, 3.818686e+004
8.348803e+002, 3.819598e+004
8.353624e+002, 3.820007e+004
8.358445e+002, 3.817832e+004
8.363267e+002, 3.813261e+004
8.368088e+002, 3.810652e+004
8.372909e+002, 3.810476e+004
8.377730e+002, 3.810243e+004
8.382551e+002, 3.808004e+004
8.387372e+002, 3.804915e+004
8.392194e+002, 3.803947e+004
8.397015e+002, 3.804888e+004
8.401836e+002, 3.806454e+004
8.406657e+002, 3.808916e+004
8.411478e+002, 3.810852e+004
8.416299e+002, 3.811232e+004
8.421121e+002, 3.810116e+004
8.425942e+002, 3.808566e+004
8.430763e+002, 3.806193e+004
8.435584e+002, 3.804147e+004
8.440405e+002, 3.802798e+004
8.445226e+002, 3.802001e+004
8.450048e+002, 3.801451e+004
8.454869e+002, 3.801084e+004
8.459690e+002, 3.800257e+004
8.464511e+002, 3.798022e+004
8.469332e+002, 3.795699e+004
8.474153e+002, 3.795068e+004
8.478975e+002, 3.795589e+004
8.483796e+002, 3.795704e+004
8.488617e+002, 3.795114e+004
8.493438e+002, 3.793838e+004
8.498259e+002, 3.791821e+004
8.503080e+002, 3.789248e+004
8.507902e+002, 3.786240e+004
8.512723e+002, 3.782582e+004
8.517544e+002, 3.780230e+004
8.522365e+002, 3.780136e+004
8.527186e+002, 3.781057e+004
8.532007e+002, 3.780919e+004
8.536829e+002, 3.779971e+004
8.541650e+002, 3.778859e+004
8.546471e+002, 3.776718e+004
8.551292e+002, 3.775818e+004
8.556113e+002, 3.778926e+004
8.560934e+002, 3.783535e+004
8.565756e+002, 3.784985e+004
8.570577e+002, 3.781427e+004
8.575398e+002, 3.777948e+004
8.580219e+002, 3.774613e+004
8.585040e+002, 3.772207e+004
8.589861e+002, 3.773027e+004
8.594683e+002, 3.776270e+004
8.599504e+002, 3.777375e+004
8.604325e+002, 3.774779e+004
8.609146e+002, 3.771360e+004
8.613967e+002, 3.769772e+004
8.618788e+002, 3.768906e+004
8.623610e+002, 3.767291e+004
8.628431e+002, 3.763296e+004
8.633252e+002, 3.761076e+004
8.638073e+002, 3.762757e+004
8.642894e+002, 3.764514e+004
8.647715e+002, 3.761723e+004
8.652537e+002, 3.754044e+004
8.657358e+002, 3.750512e+004
8.662179e+002, 3.752395e+004
8.667000e+002, 3.754599e+004
8.671821e+002, 3.751174e+004
8.676642e+002, 3.745181e+004
8.681464e+002, 3.741059e+004
8.686285e+002, 3.739635e+004
8.691106e+002, 3.738960e+004
8.695927e+002, 3.738347e+004
8.700748e+002, 3.738176e+004
8.705569e+002, 3.738699e+004
8.710391e+002, 3.739959e+004
8.715212e+002, 3.741032e+004
8.720033e+002, 3.741763e+004
8.724854e+002, 3.742360e+004
8.729675e+002, 3.742841e+004
8.734496e+002, 3.743181e+004
8.739318e+002, 3.743723e+004
8.744139e+002, 3.744310e+004
8.748960e+002, 3.743834e+004
8.753781e+002, 3.740363e+004
8.758602e+002, 3.736707e+004
8.763423e+002, 3.734843e+004
8.768245e+002, 3.734925e+004
8.773066e+002, 3.734564e+004
8.777887e+002, 3.734109e+004
8.782708e+002, 3.732784e+004
8.787529e+002, 3.730126e+004
8.792350e+002, 3.726676e+004
8.797172e+002, 3.723830e+004
8.801993e+002, 3.721682e+004
8.806814e+002, 3.720059e+004
8.811635e+002, 3.718643e+004
8.816456e+002, 3.717978e+004
8.821277e+002, 3.718979e+004
8.826099e+002, 3.721046e+004
8.830920e+002, 3.722427e+004
8.835741e+002, 3.722021e+004
8.840562e+002, 3.721674e+004
8.845383e+002, 3.721423e+004
8.850204e+002, 3.721370e+004
8.855026e+002, 3.721987e+004
8.859847e+002, 3.723144e+004
8.864668e+002, 3.723907e+004
8.869489e+002, 3.723637e+004
8.874310e+002, 3.723591e+004
8.879131e+002, 3.725910e+004
8.883953e+002, 3.729168e+004
8.888774e+002, 3.731273e+004
8.893595e+002, 3.731925e+004
8.898416e+002, 3.731009e+004
8.903237e+002, 3.727642e+004
8.908058e+002, 3.723626e+004
8.912880e+002, 3.720946e+004
8.917701e+002, 3.719807e+004
8.922522e+002, 3.717625e+004
8.927343e+002, 3.713996e+004
8.932164e+002, 3.710441e+004
8.936985e+002, 3.708688e+004
8.941807e+002, 3.707952e+004
8.946628e+002, 3.707215e+004
8.951449e+002, 3.706377e+004
8.956270e+002, 3.705021e+004
8.961091e+002, 3.702245e+004
8.965912e+002, 3.699559e+004
8.970734e+002, 3.697900e+004
8.975555e+002, 3.697391e+004
8.980376e+002, 3.697028e+004
8.985197e+002, 3.696963e+004
8.990018e+002, 3.696509e+004
8.994839e+002, 3.694732e+004
8.999661e+002, 3.692500e+004
9.004482e+002, 3.691359e+004
9.009303e+002, 3.691273e+004
9.014124e+002, 3.691742e+004
9.018945e+002, 3.693303e+004
9.023766e+002, 3.694556e+004
9.028588e+002, 3.694438e+004
9.033409e+002, 3.693302e+004
9.038230e+002, 3.692912e+004
9.043051e+002, 3.693350e+004
9.047872e+002, 3.693907e+004
9.052693e+002, 3.694280e+004
9.057515e+002, 3.694608e+004
9.062336e+002, 3.695521e+004
9.067157e+002, 3.696652e+004
9.071978e+002, 3.696966e+004
9.076799e+002, 3.694777e+004
9.081620e+002, 3.693265e+004
9.086442e+002, 3.694560e+004
9.091263e+002, 3.697279e+004
9.096084e+002, 3.699279e+004
9.100905e+002, 3.701140e+004
9.105726e+002, 3.700427e+004
9.110547e+002, 3.696185e+004
9.115369e+002, 3.691212e+004
9.120190e+002, 3.689150e+004
9.125011e+002, 3.689358e+004
9.129832e+002, 3.690217e+004
9.134653e+002, 3.691602e+004
9.139474e+002, 3.692614e+004
9.144296e+002, 3.692066e+004
9.149117e+002, 3.691273e+004
9.153938e+002, 3.691545e+004
9.158759e+002, 3.693433e+004
9.163580e+002, 3.693857e+004
9.168401e+002, 3.692179e+004
9.173223e+002, 3.690454e+004
9.178044e+002, 3.690601e+004
9.182865e+002, 3.691854e+004
9.187686e+002, 3.690757e+004
9.192507e+002, 3.687638e+004
9.197328e+002, 3.685577e+004
9.202150e+002, 3.688422e+004
9.206971e+002, 3.691276e+004
9.211792e+002, 3.690564e+004
9.216613e+002, 3.686765e+004
9.221434e+002, 3.684452e+004
9.226255e+002, 3.684404e+004
9.231077e+002, 3.684301e+004
9.235898e+002, 3.683261e+004
9.240719e+002, 3.681993e+004
9.245540e+002, 3.682054e+004
9.250361e+002, 3.683294e+004
9.255182e+002, 3.685261e+004
9.260004e+002, 3.688397e+004
9.264825e+002, 3.691041e+004
9.269646e+002, 3.691448e+004
9.274467e+002, 3.690879e+004
9.279288e+002, 3.691401e+004
9.284109e+002, 3.694730e+004
9.288931e+002, 3.695504e+004
9.293752e+002, 3.692543e+004
9.298573e+002, 3.688892e+004
9.303394e+002, 3.688394e+004
9.308215e+002, 3.690166e+004
9.313036e+002, 3.690872e+004
9.317858e+002, 3.690112e+004
9.322679e+002, 3.689277e+004
9.327500e+002, 3.689243e+004
9.332321e+002, 3.689718e+004
9.337142e+002, 3.690848e+004
9.341964e+002, 3.692921e+004
9.346785e+002, 3.693137e+004
9.351606e+002, 3.690211e+004
9.356427e+002, 3.688793e+004
9.361248e+002, 3.692363e+004
9.366069e+002, 3.699033e+004
9.370891e+002, 3.701600e+004
9.375712e+002, 3.700929e+004
9.380533e+002, 3.701268e+004
9.385354e+002, 3.705662e+004
9.390175e+002, 3.710913e+004
9.394996e+002, 3.716091e+004
9.399818e+002, 3.720559e+004
9.404639e+002, 3.722494e+004
9.409460e+002, 3.720444e+004
9.414281e+002, 3.719471e+004
9.419102e+002, 3.720757e+004
9.423923e+002, 3.722799e+004
9.428745e+002, 3.723055e+004
9.433566e+002, 3.722079e+004
9.438387e+002, 3.721597e+004
9.443208e+002, 3.722282e+004
9.448029e+002, 3.722629e+004
9.452850e+002, 3.721755e+004
9.457672e+002, 3.720226e+004
9.462493e+002, 3.718651e+004
9.467314e+002, 3.717373e+004
9.472135e+002, 3.714973e+004
9.476956e+002, 3.711285e+004
9.481777e+002, 3.707198e+004
9.486599e+002, 3.703338e+004
9.491420e+002, 3.699689e+004
9.496241e+002, 3.696084e+004
9.501062e+002, 3.692575e+004
9.505883e+002, 3.689657e+004
9.510704e+002, 3.688018e+004
9.515526e+002, 3.686558e+004
9.520347e+002, 3.684650e+004
9.525168e+002, 3.682428e+004
9.529989e+002, 3.680600e+004
9.534810e+002, 3.679307e+004
9.539631e+002, 3.677663e+004
9.544453e+002, 3.675340e+004
9.549274e+002, 3.672667e+004
9.554095e+002, 3.670068e+004
9.558916e+002, 3.667584e+004
9.563737e+002, 3.665263e+004
9.568558e+002, 3.663373e+004
9.573380e+002, 3.661255e+004
9.578201e+002, 3.658898e+004
9.583022e+002, 3.656098e+004
9.587843e+002, 3.652296e+004
9.592664e+002, 3.646922e+004
9.597485e+002, 3.644397e+004
9.602307e+002, 3.645235e+004
9.607128e+002, 3.646137e+004
9.611949e+002, 3.643136e+004
9.616770e+002, 3.638898e+004
9.621591e+002, 3.637486e+004
9.626412e+002, 3.638998e+004
9.631234e+002, 3.640521e+004
9.636055e+002, 3.640735e+004
9.640876e+002, 3.641091e+004
9.645697e+002, 3.642485e+004
9.650518e+002, 3.644323e+004
9.655339e+002, 3.643711e+004
9.660161e+002, 3.640607e+004
9.664982e+002, 3.637824e+004
9.669803e+002, 3.636190e+004
9.674624e+002, 3.635688e+004
9.679445e+002, 3.637690e+004
9.684266e+002, 3.640469e+004
9.689088e+002, 3.641143e+004
9.693909e+002, 3.637709e+004
9.698730e+002, 3.633797e+004
9.703551e+002, 3.629448e+004
9.708372e+002, 3.625075e+004
9.713193e+002, 3.620594e+004
9.718015e+002, 3.616255e+004
9.722836e+002, 3.614260e+004
9.727657e+002, 3.614899e+004
9.732478e+002, 3.615495e+004
9.737299e+002, 3.613895e+004
9.742120e+002, 3.611445e+004
9.746942e+002, 3.609030e+004
9.751763e+002, 3.606754e+004
9.756584e+002, 3.605082e+004
9.761405e+002, 3.603970e+004
9.766226e+002, 3.603524e+004
9.771047e+002, 3.603997e+004
9.775869e+002, 3.604923e+004
9.780690e+002, 3.604744e+004
9.785511e+002, 3.603826e+004
9.790332e+002, 3.603733e+004
9.795153e+002, 3.606563e+004
9.799974e+002, 3.608145e+004
9.804796e+002, 3.605263e+004
9.809617e+002, 3.600166e+004
9.814438e+002, 3.596028e+004
9.819259e+002, 3.592980e+004
9.824080e+002, 3.590914e+004
9.828901e+002, 3.590174e+004
9.833723e+002, 3.589161e+004
9.838544e+002, 3.585602e+004
9.843365e+002, 3.580918e+004
9.848186e+002, 3.578093e+004
9.853007e+002, 3.577331e+004
9.857828e+002, 3.576023e+004
9.862650e+002, 3.571405e+004
9.867471e+002, 3.567741e+004
9.872292e+002, 3.567027e+004
9.877113e+002, 3.568755e+004
9.881934e+002, 3.570621e+004
9.886755e+002, 3.572629e+004
9.891577e+002, 3.573811e+004
9.896398e+002, 3.573532e+004
9.901219e+002, 3.572565e+004
9.906040e+002, 3.571721e+004
9.910861e+002, 3.570835e+004
9.915682e+002, 3.569652e+004
9.920504e+002, 3.567664e+004
9.925325e+002, 3.565989e+004
9.930146e+002, 3.564648e+004
9.934967e+002, 3.563713e+004
9.939788e+002, 3.563788e+004
9.944609e+002, 3.564591e+004
9.949431e+002, 3.562896e+004
9.954252e+002, 3.558573e+004
9.959073e+002, 3.554816e+004
9.963894e+002, 3.555053e+004
9.968715e+002, 3.555842e+004
9.973536e+002, 3.554523e+004
9.978358e+002, 3.551105e+004
9.983179e+002, 3.547736e+004
9.988000e+002, 3.543866e+004
9.992821e+002, 3.541818e+004
9.997642e+002, 3.542860e+004
1.000246e+003, 3.545225e+004
1.000728e+003, 3.545352e+004
1.001211e+003, 3.543887e+004
1.001693e+003, 3.542452e+004
1.002175e+003, 3.541654e+004
1.002657e+003, 3.540754e+004
1.003139e+003, 3.538761e+004
1.003621e+003, 3.537053e+004
1.004103e+003, 3.537213e+004
1.004585e+003, 3.539955e+004
1.005068e+003, 3.539791e+004
1.005550e+003, 3.536346e+004
1.006032e+003, 3.533321e+004
1.006514e+003, 3.534077e+004
1.006996e+003, 3.536409e+004
1.007478e+003, 3.537931e+004
1.007960e+003, 3.538518e+004
1.008442e+003, 3.538354e+004
1.008924e+003, 3.536612e+004
1.009407e+003, 3.535170e+004
1.009889e+003, 3.534536e+004
1.010371e+003, 3.534235e+004
1.010853e+003, 3.533546e+004
1.011335e+003, 3.532400e+004
1.011817e+003, 3.529995e+004
1.012299e+003, 3.525746e+004
1.012781e+003, 3.522221e+004
1.013263e+003, 3.522647e+004
1.013746e+003, 3.524013e+004
1.014228e+003, 3.523030e+004
1.014710e+003, 3.518776e+004
1.015192e+003, 3.516831e+004
1.015674e+003, 3.517832e+004
1.016156e+003, 3.519273e+004
1.016638e+003, 3.519513e+004
1.017120e+003, 3.519155e+004
1.017603e+003, 3.519620e+004
1.018085e+003, 3.520621e+004
1.018567e+003, 3.521239e+004
1.019049e+003, 3.519397e+004
1.019531e+003, 3.518964e+004
1.020013e+003, 3.521750e+004
1.020495e+003, 3.525889e+004
1.020977e+003, 3.528988e+004
1.021459e+003, 3.530990e+004
1.021942e+003, 3.531735e+004
1.022424e+003, 3.531108e+004
1.022906e+003, 3.529785e+004
1.023388e+003, 3.528864e+004
1.023870e+003, 3.527320e+004
1.024352e+003, 3.523386e+004
1.024834e+003, 3.516676e+004
1.025316e+003, 3.512954e+004
1.025799e+003, 3.514043e+004
1.026281e+003, 3.515184e+004
1.026763e+003, 3.514247e+004
1.027245e+003, 3.512423e+004
1.027727e+003, 3.513423e+004
1.028209e+003, 3.516247e+004
1.028691e+003, 3.517354e+004
1.029173e+003, 3.513882e+004
1.029656e+003, 3.510771e+004
1.030138e+003, 3.510907e+004
1.030620e+003, 3.512134e+004
1.031102e+003, 3.511954e+004
1.031584e+003, 3.509829e+004
1.032066e+003, 3.509096e+004
1.032548e+003, 3.509846e+004
1.033030e+003, 3.511213e+004
1.033512e+003, 3.512485e+004
1.033995e+003, 3.513920e+004
1.034477e+003, 3.516359e+004
1.034959e+003, 3.519448e+004
1.035441e+003, 3.521024e+004
1.035923e+003, 3.520177e+004
1.036405e+003, 3.518238e+004
1.036887e+003, 3.514982e+004
1.037369e+003, 3.511354e+004
1.037851e+003, 3.509355e+004
1.038334e+003, 3.508621e+004
1.038816e+003, 3.507575e+004
1.039298e+003, 3.505871e+004
1.039780e+003, 3.503916e+004
1.040262e+003, 3.501423e+004
1.040744e+003, 3.499234e+004
1.041226e+003, 3.498046e+004
1.041708e+003, 3.497891e+004
1.042191e+003, 3.498364e+004
1.042673e+003, 3.499588e+004
1.043155e+003, 3.500597e+004
1.043637e+003, 3.501414e+004
1.044119e+003, 3.501258e+004
1.044601e+003, 3.497471e+004
1.045083e+003, 3.491991e+004
1.045565e+003, 3.489385e+004
1.046047e+003, 3.494643e+004
1.046530e+003, 3.497352e+004
1.047012e+003, 3.495421e+004
1.047494e+003, 3.492481e+004
1.047976e+003, 3.493163e+004
1.048458e+003, 3.496500e+004
1.048940e+003, 3.497347e+004
1.049422e+003, 3.495390e+004
1.049904e+003, 3.494093e+004
1.050386e+003, 3.497174e+004
1.050869e+003, 3.500116e+004
1.051351e+003, 3.499103e+004
1.051833e+003, 3.495458e+004
1.052315e+003, 3.495101e+004
1.052797e+003, 3.498554e+004
1.053279e+003, 3.501216e+004
1.053761e+003, 3.501916e+004
1.054243e+003, 3.501220e+004
1.054726e+003, 3.498259e+004
1.055208e+003, 3.495059e+004
1.055690e+003, 3.494917e+004
1.056172e+003, 3.500172e+004
1.056654e+003, 3.503004e+004
1.057136e+003, 3.502347e+004
1.057618e+003, 3.500122e+004
1.058100e+003, 3.496693e+004
1.058583e+003, 3.492768e+004
1.059065e+003, 3.491717e+004
1.059547e+003, 3.492916e+004
1.060029e+003, 3.493449e+004
1.060511e+003, 3.490812e+004
1.060993e+003, 3.488373e+004
1.061475e+003, 3.487161e+004
1.061957e+003, 3.487213e+004
1.062439e+003, 3.489062e+004
1.062922e+003, 3.493123e+004
1.063404e+003, 3.495215e+004
1.063886e+003, 3.494906e+004
1.064368e+003, 3.493675e+004
1.064850e+003, 3.492597e+004
1.065332e+003, 3.491435e+004
1.065814e+003, 3.489611e+004
1.066296e+003, 3.487227e+004
1.066778e+003, 3.486009e+004
1.067261e+003, 3.486879e+004
1.067743e+003, 3.486862e+004
1.068225e+003, 3.484755e+004
1.068707e+003, 3.482048e+004
1.069189e+003, 3.481979e+004
1.069671e+003, 3.483429e+004
1.070153e+003, 3.483757e+004
1.070635e+003, 3.482076e+004
1.071118e+003, 3.480105e+004
1.071600e+003, 3.478202e+004
1.072082e+003, 3.476646e+004
1.072564e+003, 3.476065e+004
1.073046e+003, 3.476270e+004
1.073528e+003, 3.473437e+004
1.074010e+003, 3.467946e+004
1.074492e+003, 3.464354e+004
1.074974e+003, 3.467016e+004
1.075457e+003, 3.470398e+004
1.075939e+003, 3.469902e+004
1.076421e+003, 3.467533e+004
1.076903e+003, 3.466721e+004
1.077385e+003, 3.468068e+004
1.077867e+003, 3.469775e+004
1.078349e+003, 3.472018e+004
1.078831e+003, 3.473313e+004
1.079313e+003, 3.470957e+004
1.079796e+003, 3.467433e+004
1.080278e+003, 3.467370e+004
1.080760e+003, 3.470215e+004
1.081242e+003, 3.470909e+004
1.081724e+003, 3.464262e+004
1.082206e+003, 3.460269e+004
1.082688e+003, 3.462005e+004
1.083170e+003, 3.466135e+004
1.083652e+003, 3.466300e+004
1.084135e+003, 3.463552e+004
1.084617e+003, 3.461879e+004
1.085099e+003, 3.462180e+004
1.085581e+003, 3.462648e+004
1.086063e+003, 3.462687e+004
1.086545e+003, 3.462142e+004
1.087027e+003, 3.460566e+004
1.087509e+003, 3.458203e+004
1.087992e+003, 3.457648e+004
1.088474e+003, 3.458932e+004
1.088956e+003, 3.460040e+004
1.089438e+003, 3.460352e+004
1.089920e+003, 3.459796e+004
1.090402e+003, 3.456910e+004
1.090884e+003, 3.453721e+004
1.091366e+003, 3.453278e+004
1.091849e+003, 3.457494e+004
1.092331e+003, 3.460306e+004
1.092813e+003, 3.461566e+004
1.093295e+003, 3.461923e+004
1.093777e+003, 3.461422e+004
1.094259e+003, 3.460524e+004
1.094741e+003, 3.459813e+004
1.095223e+003, 3.459399e+004
1.095705e+003, 3.459695e+004
1.096188e+003, 3.461454e+004
1.096670e+003, 3.463045e+004
1.097152e+003, 3.464284e+004
1.097634e+003, 3.465040e+004
1.098116e+003, 3.464813e+004
1.098598e+003, 3.463898e+004
1.099080e+003, 3.463715e+004
1.099562e+003, 3.464389e+004
1.100044e+003, 3.465704e+004
1.100527e+003, 3.469841e+004
1.101009e+003, 3.472260e+004
1.101491e+003, 3.469588e+004
1.101973e+003, 3.463558e+004
1.102455e+003, 3.459093e+004
1.102937e+003, 3.456216e+004
1.103419e+003, 3.454725e+004
1.103901e+003, 3.454790e+004
1.104384e+003, 3.455563e+004
1.104866e+003, 3.456492e+004
1.105348e+003, 3.457561e+004
1.105830e+003, 3.459082e+004
1.106312e+003, 3.461280e+004
1.106794e+003, 3.461211e+004
1.107276e+003, 3.458052e+004
1.107758e+003, 3.455894e+004
1.108240e+003, 3.457290e+004
1.108723e+003, 3.459821e+004
1.109205e+003, 3.459216e+004
1.109687e+003, 3.456930e+004
1.110169e+003, 3.455772e+004
1.110651e+003, 3.456532e+004
1.111133e+003, 3.458687e+004
1.111615e+003, 3.463357e+004
1.112097e+003, 3.467165e+004
1.112579e+003, 3.466493e+004
1.113062e+003, 3.462920e+004
1.113544e+003, 3.462389e+004
1.114026e+003, 3.464322e+004
1.114508e+003, 3.465759e+004
1.114990e+003, 3.465145e+004
1.115472e+003, 3.463943e+004
1.115954e+003, 3.462542e+004
1.116436e+003, 3.460949e+004
1.116919e+003, 3.458978e+004
1.117401e+003, 3.456722e+004
1.117883e+003, 3.455232e+004
1.118365e+003, 3.454635e+004
1.118847e+003, 3.454744e+004
1.119329e+003, 3.456662e+004
1.119811e+003, 3.458127e+004
1.120293e+003, 3.457202e+004
1.120776e+003, 3.454552e+004
1.121258e+003, 3.451961e+004
1.121740e+003, 3.449117e+004
1.122222e+003, 3.449779e+004
1.122704e+003, 3.455619e+004
1.123186e+003, 3.460998e+004
1.123668e+003, 3.459138e+004
1.124150e+003, 3.454386e+004
1.124632e+003, 3.451009e+004
1.125115e+003, 3.449599e+004
1.125597e+003, 3.449379e+004
1.126079e+003, 3.450769e+004
1.126561e+003, 3.451929e+004
1.127043e+003, 3.452426e+004
1.127525e+003, 3.452016e+004
1.128007e+003, 3.449662e+004
1.128489e+003, 3.446398e+004
1.128971e+003, 3.444115e+004
1.129454e+003, 3.444117e+004
1.129936e+003, 3.442961e+004
1.130418e+003, 3.439794e+004
1.130900e+003, 3.436674e+004
1.131382e+003, 3.434621e+004
1.131864e+003, 3.433656e+004
1.132346e+003, 3.434214e+004
1.132828e+003, 3.435858e+004
1.133311e+003, 3.437161e+004
1.133793e+003, 3.436316e+004
1.134275e+003, 3.436549e+004
1.134757e+003, 3.438860e+004
1.135239e+003, 3.441998e+004
1.135721e+003, 3.445141e+004
1.136203e+003, 3.448095e+004
1.136685e+003, 3.449828e+004
1.137167e+003, 3.450324e+004
1.137650e+003, 3.450212e+004
1.138132e+003, 3.448968e+004
1.138614e+003, 3.448176e+004
1.139096e+003, 3.449883e+004
1.139578e+003, 3.451963e+004
1.140060e+003, 3.450276e+004
1.140542e+003, 3.444728e+004
1.141024e+003, 3.442322e+004
1.141506e+003, 3.443995e+004
1.141989e+003, 3.445991e+004
1.142471e+003, 3.445423e+004
1.142953e+003, 3.444030e+004
1.143435e+003, 3.443096e+004
1.143917e+003, 3.442574e+004
1.144399e+003, 3.441443e+004
1.144881e+003, 3.439373e+004
1.145363e+003, 3.439307e+004
1.145846e+003, 3.442250e+004
1.146328e+003, 3.445627e+004
1.146810e+003, 3.446995e+004
1.147292e+003, 3.446936e+004
1.147774e+003, 3.445354e+004
1.148256e+003, 3.442032e+004
1.148738e+003, 3.441867e+004
1.149220e+003, 3.446265e+004
1.149703e+003, 3.448497e+004
1.150185e+003, 3.445136e+004
1.150667e+003, 3.440584e+004
1.151149e+003, 3.442128e+004
1.151631e+003, 3.446661e+004
1.152113e+003, 3.449257e+004
1.152595e+003, 3.448443e+004
1.153077e+003, 3.447095e+004
1.153559e+003, 3.445207e+004
1.154042e+003, 3.443477e+004
1.154524e+003, 3.441970e+004
1.155006e+003, 3.441167e+004
1.155488e+003, 3.443887e+004
1.155970e+003, 3.448013e+004
1.156452e+003, 3.448082e+004
1.156934e+003, 3.438199e+004
1.157416e+003, 3.431993e+004
1.157898e+003, 3.432266e+004
1.158381e+003, 3.434412e+004
1.158863e+003, 3.435395e+004
1.159345e+003, 3.435372e+004
1.159827e+003, 3.434520e+004
1.160309e+003, 3.433111e+004
1.160791e+003, 3.432287e+004
1.161273e+003, 3.432282e+004
1.161755e+003, 3.433302e+004
1.162238e+003, 3.435764e+004
1.162720e+003, 3.438685e+004
1.163202e+003, 3.441724e+004
1.163684e+003, 3.444449e+004
1.164166e+003, 3.443456e+004
1.164648e+003, 3.439020e+004
1.165130e+003, 3.435271e+004
1.165612e+003, 3.435216e+004
1.166094e+003, 3.435612e+004
1.166577e+003, 3.435355e+004
1.167059e+003, 3.434589e+004
1.167541e+003, 3.433336e+004
1.168023e+003, 3.431695e+004
1.168505e+003, 3.430672e+004
1.168987e+003, 3.430398e+004
1.169469e+003, 3.430542e+004
1.169951e+003, 3.430771e+004
1.170433e+003, 3.431497e+004
1.170916e+003, 3.433826e+004
1.171398e+003, 3.436632e+004
1.171880e+003, 3.436592e+004
1.172362e+003, 3.433746e+004
1.172844e+003, 3.432207e+004
1.173326e+003, 3.432830e+004
1.173808e+003, 3.433993e+004
1.174290e+003, 3.434710e+004
1.174773e+003, 3.435065e+004
1.175255e+003, 3.434818e+004
1.175737e+003, 3.434170e+004
1.176219e+003, 3.434229e+004
1.176701e+003, 3.435011e+004
1.177183e+003, 3.436491e+004
1.177665e+003, 3.439127e+004
1.178147e+003, 3.440931e+004
1.178630e+003, 3.440129e+004
1.179112e+003, 3.437534e+004
1.179594e+003, 3.432595e+004
1.180076e+003, 3.425451e+004
1.180558e+003, 3.424573e+004
1.181040e+003, 3.430743e+004
1.181522e+003, 3.435701e+004
1.182004e+003, 3.436025e+004
1.182486e+003, 3.434433e+004
1.182969e+003, 3.432708e+004
1.183451e+003, 3.431371e+004
1.183933e+003, 3.431050e+004
1.184415e+003, 3.431773e+004
1.184897e+003, 3.433704e+004
1.185379e+003, 3.437168e+004
1.185861e+003, 3.439534e+004
1.186343e+003, 3.438729e+004
1.186825e+003, 3.437068e+004
1.187308e+003, 3.437457e+004
1.187790e+003, 3.438785e+004
1.188272e+003, 3.439389e+004
1.188754e+003, 3.439287e+004
1.189236e+003, 3.437301e+004
1.189718e+003, 3.432959e+004
1.190200e+003, 3.429386e+004
1.190682e+003, 3.429250e+004
1.191165e+003, 3.430548e+004
1.191647e+003, 3.430929e+004
1.192129e+003, 3.430751e+004
1.192611e+003, 3.430756e+004
1.193093e+003, 3.431697e+004
1.193575e+003, 3.431357e+004
1.194057e+003, 3.429429e+004
1.194539e+003, 3.427407e+004
1.195021e+003, 3.426387e+004
1.195504e+003, 3.425983e+004
1.195986e+003, 3.425613e+004
1.196468e+003, 3.425384e+004
1.196950e+003, 3.425730e+004
1.197432e+003, 3.427189e+004
1.197914e+003, 3.427893e+004
1.198396e+003, 3.427469e+004
1.198878e+003, 3.427095e+004
1.199360e+003, 3.428546e+004
1.199843e+003, 3.430336e+004
1.200325e+003, 3.429976e+004
1.200807e+003, 3.427966e+004
1.201289e+003, 3.426618e+004
1.201771e+003, 3.426624e+004
1.202253e+003, 3.426816e+004
1.202735e+003, 3.427098e+004
1.203217e+003, 3.427686e+004
1.203700e+003, 3.428954e+004
1.204182e+003, 3.430611e+004
1.204664e+003, 3.432186e+004
1.205146e+003, 3.433674e+004
1.205628e+003, 3.435517e+004
1.206110e+003, 3.438397e+004
1.206592e+003, 3.439776e+004
1.207074e+003, 3.438687e+004
1.207557e+003, 3.437370e+004
1.208039e+003, 3.439343e+004
1.208521e+003, 3.442426e+004
1.209003e+003, 3.443195e+004
1.209485e+003, 3.441492e+004
1.209967e+003, 3.440486e+004
1.210449e+003, 3.440851e+004
1.210931e+003, 3.441304e+004
1.211413e+003, 3.441720e+004
1.211896e+003, 3.441848e+004
1.212378e+003, 3.440981e+004
1.212860e+003, 3.439871e+004
1.213342e+003, 3.440495e+004
1.213824e+003, 3.443076e+004
1.214306e+003, 3.441462e+004
1.214788e+003, 3.432777e+004
1.215270e+003, 3.426840e+004
1.215752e+003, 3.426882e+004
1.216235e+003, 3.429222e+004
1.216717e+003, 3.429625e+004
1.217199e+003, 3.428407e+004
1.217681e+003, 3.425275e+004
1.218163e+003, 3.419942e+004
1.218645e+003, 3.417676e+004
1.219127e+003, 3.419935e+004
1.219609e+003, 3.421527e+004
1.220092e+003, 3.420347e+004
1.220574e+003, 3.418800e+004
1.221056e+003, 3.421224e+004
1.221538e+003, 3.425203e+004
1.222020e+003, 3.427057e+004
1.222502e+003, 3.425771e+004
1.222984e+003, 3.425393e+004
1.223466e+003, 3.426297e+004
1.223948e+003, 3.427131e+004
1.224431e+003, 3.427194e+004
1.224913e+003, 3.427267e+004
1.225395e+003, 3.429213e+004
1.225877e+003, 3.431540e+004
1.226359e+003, 3.432165e+004
1.226841e+003, 3.430406e+004
1.227323e+003, 3.428062e+004
1.227805e+003, 3.424788e+004
1.228287e+003, 3.422502e+004
1.228770e+003, 3.422304e+004
1.229252e+003, 3.422927e+004
1.229734e+003, 3.422998e+004
1.230216e+003, 3.422629e+004
1.230698e+003, 3.422026e+004
1.231180e+003, 3.421303e+004
1.231662e+003, 3.419415e+004
1.232144e+003, 3.415914e+004
1.232627e+003, 3.414107e+004
1.233109e+003, 3.416821e+004
1.233591e+003, 3.419799e+004
1.234073e+003, 3.417332e+004
1.234555e+003, 3.412345e+004
1.235037e+003, 3.408686e+004
1.235519e+003, 3.406889e+004
1.236001e+003, 3.405854e+004
1.236484e+003, 3.405658e+004
1.236966e+003, 3.406116e+004
1.237448e+003, 3.407727e+004
1.237930e+003, 3.409059e+004
1.238412e+003, 3.407321e+004
1.238894e+003, 3.405069e+004
1.239376e+003, 3.406107e+004
1.239858e+003, 3.410919e+004
1.240340e+003, 3.415341e+004
1.240823e+003, 3.419261e+004
1.241305e+003, 3.422167e+004
1.241787e+003, 3.423448e+004
1.242269e+003, 3.423837e+004
1.242751e+003, 3.422939e+004
1.243233e+003, 3.422022e+004
1.243715e+003, 3.422991e+004
1.244197e+003, 3.426196e+004
1.244679e+003, 3.427459e+004
1.245162e+003, 3.426818e+004
1.245644e+003, 3.425038e+004
1.246126e+003, 3.421104e+004
1.246608e+003, 3.418180e+004
1.247090e+003, 3.420308e+004
1.247572e+003, 3.423409e+004
1.248054e+003, 3.422373e+004
1.248536e+003, 3.417015e+004
1.249019e+003, 3.415361e+004
1.249501e+003, 3.417130e+004
1.249983e+003, 3.418680e+004
1.250465e+003, 3.415997e+004
1.250947e+003, 3.415137e+004
1.251429e+003, 3.422517e+004
1.251911e+003, 3.430516e+004
1.252393e+003, 3.431098e+004
1.252875e+003, 3.424769e+004
1.253358e+003, 3.422715e+004
1.253840e+003, 3.424326e+004
1.254322e+003, 3.425840e+004
1.254804e+003, 3.424447e+004
1.255286e+003, 3.423604e+004
1.255768e+003, 3.425339e+004
1.256250e+003, 3.427144e+004
1.256732e+003, 3.426426e+004
1.257214e+003, 3.423845e+004
1.257697e+003, 3.423648e+004
1.258179e+003, 3.425421e+004
1.258661e+003, 3.427003e+004
1.259143e+003, 3.427932e+004
1.259625e+003, 3.427887e+004
1.260107e+003, 3.426195e+004
1.260589e+003, 3.424757e+004
1.261071e+003, 3.425515e+004
1.261554e+003, 3.427749e+004
1.262036e+003, 3.429448e+004
1.262518e+003, 3.430550e+004
1.263000e+003, 3.431030e+004
1.263482e+003, 3.430066e+004
1.263964e+003, 3.429616e+004
1.264446e+003, 3.430079e+004
1.264928e+003, 3.430339e+004
1.265411e+003, 3.429470e+004
1.265893e+003, 3.427737e+004
1.266375e+003, 3.424861e+004
1.266857e+003, 3.421621e+004
1.267339e+003, 3.420111e+004
1.267821e+003, 3.421730e+004
1.268303e+003, 3.424069e+004
1.268785e+003, 3.427507e+004
1.269267e+003, 3.430358e+004
1.269750e+003, 3.430998e+004
1.270232e+003, 3.430532e+004
1.270714e+003, 3.429801e+004
1.271196e+003, 3.429191e+004
1.271678e+003, 3.429688e+004
1.272160e+003, 3.431985e+004
1.272642e+003, 3.433009e+004
1.273124e+003, 3.432498e+004
1.273606e+003, 3.431818e+004
1.274089e+003, 3.431530e+004
1.274571e+003, 3.431800e+004
1.275053e+003, 3.433981e+004
1.275535e+003, 3.436240e+004
1.276017e+003, 3.435018e+004
1.276499e+003, 3.429254e+004
1.276981e+003, 3.427453e+004
1.277463e+003, 3.429747e+004
1.277946e+003, 3.432155e+004
1.278428e+003, 3.432448e+004
1.278910e+003, 3.431741e+004
1.279392e+003, 3.430657e+004
1.279874e+003, 3.429040e+004
1.280356e+003, 3.426099e+004
1.280838e+003, 3.421998e+004
1.281320e+003, 3.421329e+004
1.281802e+003, 3.423782e+004
1.282285e+003, 3.425959e+004
1.282767e+003, 3.425188e+004
1.283249e+003, 3.424895e+004
1.283731e+003, 3.427171e+004
1.284213e+003, 3.429399e+004
1.284695e+003, 3.428425e+004
1.285177e+003, 3.425319e+004
1.285659e+003, 3.425782e+004
1.286141e+003, 3.429052e+004
1.286624e+003, 3.431929e+004
1.287106e+003, 3.432784e+004
1.287588e+003, 3.433497e+004
1.288070e+003, 3.434609e+004
1.288552e+003, 3.435128e+004
1.289034e+003, 3.433505e+004
1.289516e+003, 3.431036e+004
1.289998e+003, 3.430646e+004
1.290481e+003, 3.431871e+004
1.290963e+003, 3.433486e+004
1.291445e+003, 3.435961e+004
1.291927e+003, 3.437216e+004
1.292409e+003, 3.436935e+004
1.292891e+003, 3.436677e+004
1.293373e+003, 3.438667e+004
1.293855e+003, 3.440443e+004
1.294338e+003, 3.437280e+004
1.294820e+003, 3.432066e+004
1.295302e+003, 3.430689e+004
1.295784e+003, 3.434601e+004
1.296266e+003, 3.437448e+004
1.296748e+003, 3.439216e+004
1.297230e+003, 3.440078e+004
1.297712e+003, 3.439227e+004
1.298194e+003, 3.438511e+004
1.298677e+003, 3.439848e+004
1.299159e+003, 3.441727e+004
1.299641e+003, 3.442336e+004
1.300123e+003, 3.441630e+004
1.300605e+003, 3.438354e+004
1.301087e+003, 3.432880e+004
1.301569e+003, 3.428903e+004
1.302051e+003, 3.430316e+004
1.302533e+003, 3.429625e+004
1.303016e+003, 3.424154e+004
##END=



