##NAMES=Uranophane-alpha
##RRUFFID=R070038
##IDEAL CHEMISTRY=Ca(U^6+^O_2_)_2_(SiO_3_OH)_2_&#183;5H_2_O
##LOCALITY=Kyzulsai Mo-U deposit, south Kazakhstan
##OWNER=RRUFF
##SOURCE=Michael Scott
##DESCRIPTION=Lemon-yellow granular coating
##STATUS=The identification of this mineral has been confirmed by X-ray diffraction.
##URL=rruff.info/R070038
175.3068, 45310.54
175.7889, 45442.29
176.2710, 45540.43
176.7531, 45640.50
177.2353, 45803.04
177.7174, 46081.15
178.1995, 46336.42
178.6816, 46571.09
179.1637, 46782.24
179.6458, 46954.72
180.1280, 47086.75
180.6101, 47211.16
181.0922, 47378.10
181.5743, 47618.01
182.0564, 47842.05
182.5385, 48047.45
183.0207, 48239.35
183.5028, 48419.91
183.9849, 48590.20
184.4670, 48755.93
184.9491, 48925.68
185.4312, 49105.72
185.9134, 49271.46
186.3955, 49408.13
186.8776, 49538.29
187.3597, 49691.57
187.8418, 49872.11
188.3239, 50046.33
188.8061, 50170.27
189.2882, 50223.95
189.7703, 50294.98
190.2524, 50413.21
190.7345, 50533.66
191.2166, 50608.02
191.6988, 50630.68
192.1809, 50644.85
192.6630, 50699.00
193.1451, 50803.98
193.6272, 50887.95
194.1093, 50920.77
194.5915, 50949.77
195.0736, 51035.17
195.5557, 51178.86
196.0378, 51298.54
196.5199, 51297.05
197.0020, 51159.73
197.4842, 51111.18
197.9663, 51237.44
198.4484, 51397.57
198.9305, 51474.30
199.4126, 51462.38
199.8947, 51431.72
200.3769, 51437.10
200.8590, 51479.49
201.3411, 51513.29
201.8232, 51539.41
202.3053, 51555.95
202.7874, 51549.12
203.2696, 51522.93
203.7517, 51517.89
204.2338, 51578.68
204.7159, 51690.02
205.1980, 51734.37
205.6801, 51648.52
206.1623, 51549.94
206.6444, 51512.90
207.1265, 51532.75
207.6086, 51568.80
208.0907, 51601.46
208.5728, 51630.07
209.0550, 51653.92
209.5371, 51667.59
210.0192, 51682.21
210.5013, 51717.22
210.9834, 51763.26
211.4656, 51774.99
211.9477, 51713.71
212.4298, 51613.24
212.9119, 51576.58
213.3940, 51637.03
213.8761, 51704.70
214.3583, 51730.34
214.8404, 51727.79
215.3225, 51742.26
215.8046, 51798.30
216.2867, 51875.28
216.7688, 51925.75
217.2510, 51938.64
217.7331, 51955.95
218.2152, 52002.77
218.6973, 52066.18
219.1794, 52114.73
219.6615, 52135.08
220.1437, 52142.25
220.6258, 52162.78
221.1079, 52198.33
221.5900, 52234.32
222.0721, 52267.87
222.5542, 52298.68
223.0364, 52327.09
223.5185, 52353.83
224.0006, 52375.85
224.4827, 52389.64
224.9648, 52396.93
225.4469, 52390.34
225.9291, 52349.48
226.4112, 52300.62
226.8933, 52282.61
227.3754, 52304.32
227.8575, 52337.96
228.3396, 52349.19
228.8218, 52337.81
229.3039, 52351.18
229.7860, 52417.83
230.2681, 52499.78
230.7502, 52561.64
231.2323, 52599.54
231.7145, 52617.80
232.1966, 52606.58
232.6787, 52570.75
233.1608, 52580.36
233.6429, 52687.98
234.1250, 52805.42
234.6072, 52855.64
235.0893, 52842.53
235.5714, 52827.50
236.0535, 52848.85
236.5356, 52905.40
237.0177, 52971.45
237.4999, 53077.95
237.9820, 53165.05
238.4641, 53173.59
238.9462, 53127.48
239.4283, 53123.15
239.9104, 53229.30
240.3926, 53399.50
240.8747, 53468.44
241.3568, 53355.00
241.8389, 53265.52
242.3210, 53293.05
242.8031, 53396.91
243.2853, 53494.53
243.7674, 53555.21
244.2495, 53586.39
244.7316, 53599.86
245.2137, 53587.30
245.6958, 53579.05
246.1780, 53583.80
246.6601, 53595.81
247.1422, 53604.70
247.6243, 53606.99
248.1064, 53613.73
248.5885, 53648.44
249.0707, 53735.50
249.5528, 53770.55
250.0349, 53696.03
250.5170, 53594.44
250.9991, 53552.10
251.4812, 53580.40
251.9634, 53620.04
252.4455, 53603.77
252.9276, 53513.97
253.4097, 53467.49
253.8918, 53504.88
254.3739, 53550.57
254.8561, 53544.54
255.3382, 53494.82
255.8203, 53461.05
256.3024, 53496.64
256.7845, 53601.54
257.2667, 53658.81
257.7488, 53647.41
258.2309, 53620.41
258.7130, 53580.83
259.1951, 53541.30
259.6772, 53530.23
260.1594, 53567.50
260.6415, 53639.76
261.1236, 53680.16
261.6057, 53658.38
262.0878, 53642.13
262.5699, 53649.36
263.0521, 53665.93
263.5342, 53669.29
264.0163, 53650.14
264.4984, 53623.02
264.9805, 53619.91
265.4626, 53667.10
265.9448, 53703.19
266.4269, 53722.23
266.9090, 53734.34
267.3911, 53751.14
267.8732, 53773.88
268.3553, 53791.03
268.8375, 53784.98
269.3196, 53742.27
269.8017, 53715.57
270.2838, 53713.14
270.7659, 53716.27
271.2480, 53711.42
271.7302, 53701.05
272.2123, 53701.66
272.6944, 53735.07
273.1765, 53805.65
273.6586, 53819.06
274.1407, 53680.29
274.6229, 53579.40
275.1050, 53597.68
275.5871, 53690.98
276.0692, 53772.96
276.5513, 53789.27
277.0334, 53756.72
277.5156, 53754.10
277.9977, 53817.11
278.4798, 53858.84
278.9619, 53850.84
279.4440, 53821.23
279.9261, 53798.78
280.4083, 53794.75
280.8904, 53802.09
281.3725, 53809.99
281.8546, 53822.02
282.3367, 53824.42
282.8188, 53807.19
283.3010, 53785.89
283.7831, 53774.97
284.2652, 53774.81
284.7473, 53767.85
285.2294, 53721.65
285.7115, 53629.66
286.1937, 53586.89
286.6758, 53641.08
287.1579, 53706.09
287.6400, 53752.94
288.1221, 53776.03
288.6042, 53764.15
289.0864, 53682.86
289.5685, 53557.75
290.0506, 53504.55
290.5327, 53561.98
291.0148, 53615.35
291.4969, 53593.38
291.9791, 53532.96
292.4612, 53491.63
292.9433, 53501.23
293.4254, 53524.68
293.9075, 53506.26
294.3896, 53441.56
294.8718, 53369.07
295.3539, 53283.51
295.8360, 53211.07
296.3181, 53190.67
296.8002, 53238.14
297.2823, 53291.51
297.7645, 53304.21
298.2466, 53282.87
298.7287, 53258.70
299.2108, 53237.20
299.6929, 53219.37
300.1750, 53205.34
300.6572, 53194.69
301.1393, 53190.68
301.6214, 53198.17
302.1035, 53211.86
302.5856, 53224.48
303.0677, 53235.28
303.5499, 53242.96
304.0320, 53240.89
304.5141, 53232.17
304.9962, 53243.27
305.4783, 53296.16
305.9604, 53352.98
306.4426, 53387.84
306.9247, 53402.24
307.4068, 53410.69
307.8889, 53423.55
308.3710, 53435.00
308.8531, 53419.84
309.3353, 53343.22
309.8174, 53289.29
310.2995, 53307.49
310.7816, 53355.31
311.2637, 53358.18
311.7458, 53289.23
312.2280, 53202.07
312.7101, 53188.77
313.1922, 53304.41
313.6743, 53381.93
314.1564, 53432.20
314.6385, 53437.89
315.1207, 53347.25
315.6028, 53179.55
316.0849, 53041.88
316.5670, 53047.20
317.0491, 53212.60
317.5313, 53286.87
318.0134, 53173.79
318.4955, 53076.92
318.9776, 53077.49
319.4597, 53136.90
319.9418, 53178.77
320.4240, 53158.27
320.9061, 53097.26
321.3882, 53069.30
321.8703, 53093.13
322.3524, 53121.30
322.8345, 53164.82
323.3167, 53199.65
323.7988, 53190.24
324.2809, 53132.52
324.7630, 53078.04
325.2451, 53112.34
325.7272, 53262.60
326.2094, 53337.20
326.6915, 53239.77
327.1736, 53137.28
327.6557, 53120.66
328.1378, 53172.20
328.6199, 53217.07
329.1021, 53201.32
329.5842, 53139.70
330.0663, 53081.80
330.5484, 53017.69
331.0305, 52981.01
331.5126, 53017.52
331.9948, 53082.87
332.4769, 53117.73
332.9590, 53101.58
333.4411, 53059.85
333.9232, 53013.17
334.4053, 52961.86
334.8875, 52912.87
335.3696, 52852.86
335.8517, 52814.64
336.3338, 52857.62
336.8159, 52996.07
337.2980, 53091.44
337.7802, 53053.20
338.2623, 52941.57
338.7444, 52854.23
339.2265, 52805.95
339.7086, 52784.65
340.1907, 52786.35
340.6729, 52810.92
341.1550, 52827.00
341.6371, 52831.06
342.1192, 52828.57
342.6013, 52818.72
343.0834, 52804.46
343.5656, 52794.56
344.0477, 52793.99
344.5298, 52800.96
345.0119, 52809.45
345.4940, 52825.63
345.9761, 52835.31
346.4583, 52813.18
346.9404, 52795.34
347.4225, 52840.73
347.9046, 52956.44
348.3867, 53068.93
348.8688, 53076.60
349.3510, 52939.68
349.8331, 52846.54
350.3152, 52817.91
350.7973, 52806.67
351.2794, 52787.86
351.7615, 52769.04
352.2437, 52778.22
352.7258, 52841.32
353.2079, 52938.23
353.6900, 52971.83
354.1721, 52887.15
354.6542, 52831.72
355.1364, 52865.84
355.6185, 52924.46
356.1006, 52938.20
356.5827, 52887.94
357.0648, 52825.91
357.5469, 52823.18
358.0291, 52883.46
358.5112, 52913.17
358.9933, 52875.06
359.4754, 52831.21
359.9575, 52826.52
360.4396, 52853.70
360.9218, 52879.82
361.4039, 52887.80
361.8860, 52884.70
362.3681, 52884.53
362.8502, 52888.55
363.3323, 52886.43
363.8145, 52868.54
364.2966, 52841.52
364.7787, 52819.59
365.2608, 52799.04
365.7430, 52791.13
366.2251, 52814.56
366.7072, 52854.80
367.1893, 52873.05
367.6714, 52854.38
368.1535, 52828.86
368.6357, 52843.73
369.1178, 52916.53
369.5999, 52952.18
370.0820, 52902.82
370.5641, 52848.16
371.0462, 52855.31
371.5284, 52916.02
372.0105, 52974.23
372.4926, 52989.21
372.9747, 52968.67
373.4568, 52968.27
373.9389, 53014.41
374.4211, 53049.66
374.9032, 53047.47
375.3853, 53039.99
375.8674, 53074.09
376.3495, 53159.79
376.8316, 53249.02
377.3138, 53265.33
377.7959, 53182.14
378.2780, 53125.41
378.7601, 53104.10
379.2422, 53103.29
379.7243, 53138.57
380.2065, 53191.23
380.6886, 53215.59
381.1707, 53171.58
381.6528, 53090.71
382.1349, 53056.40
382.6170, 53076.11
383.0992, 53116.80
383.5813, 53179.87
384.0634, 53251.17
384.5455, 53317.57
385.0276, 53377.39
385.5097, 53431.89
385.9919, 53482.53
386.4740, 53528.51
386.9561, 53561.57
387.4382, 53572.69
387.9203, 53595.89
388.4024, 53671.89
388.8846, 53795.36
389.3667, 53915.01
389.8488, 54039.44
390.3309, 54145.16
390.8130, 54203.66
391.2951, 54226.50
391.7773, 54248.70
392.2594, 54285.22
392.7415, 54339.60
393.2236, 54422.65
393.7057, 54575.18
394.1878, 54696.17
394.6700, 54786.09
395.1521, 54840.63
395.6342, 54842.79
396.1163, 54799.10
396.5984, 54747.30
397.0805, 54727.17
397.5627, 54739.75
398.0448, 54715.43
398.5269, 54637.45
399.0090, 54538.32
399.4911, 54415.61
399.9732, 54279.99
400.4554, 54142.47
400.9375, 54006.96
401.4196, 53873.17
401.9017, 53737.80
402.3838, 53599.64
402.8659, 53471.22
403.3481, 53363.45
403.8302, 53257.77
404.3123, 53129.13
404.7944, 52985.67
405.2765, 52872.36
405.7586, 52839.48
406.2408, 52838.11
406.7229, 52790.22
407.2050, 52693.70
407.6871, 52583.27
408.1692, 52472.66
408.6513, 52364.14
409.1335, 52260.39
409.6156, 52152.34
410.0977, 52067.28
410.5798, 52011.00
411.0619, 51985.11
411.5440, 52012.79
412.0262, 52094.18
412.5083, 52160.14
412.9904, 52131.29
413.4725, 51992.60
413.9546, 51891.78
414.4367, 51839.30
414.9189, 51806.47
415.4010, 51790.11
415.8831, 51785.14
416.3652, 51790.34
416.8473, 51805.47
417.3294, 51816.33
417.8116, 51789.96
418.2937, 51706.52
418.7758, 51643.20
419.2579, 51619.93
419.7400, 51607.61
420.2221, 51589.59
420.7043, 51568.46
421.1864, 51559.66
421.6685, 51587.28
422.1506, 51628.60
422.6327, 51618.53
423.1148, 51544.93
423.5970, 51484.09
424.0791, 51478.56
424.5612, 51502.21
425.0433, 51518.06
425.5254, 51526.55
426.0075, 51520.01
426.4897, 51472.59
426.9718, 51414.04
427.4539, 51410.57
427.9360, 51474.59
428.4181, 51525.38
428.9002, 51481.26
429.3824, 51341.24
429.8645, 51255.36
430.3466, 51253.68
430.8287, 51265.65
431.3108, 51276.13
431.7929, 51281.78
432.2751, 51275.63
432.7572, 51255.79
433.2393, 51235.70
433.7214, 51243.68
434.2035, 51304.52
434.6856, 51316.44
435.1678, 51205.75
435.6499, 51116.64
436.1320, 51131.06
436.6141, 51214.25
437.0962, 51280.77
437.5783, 51282.70
438.0605, 51244.63
438.5426, 51210.13
439.0247, 51178.48
439.5068, 51157.61
439.9889, 51161.92
440.4710, 51167.75
440.9532, 51150.42
441.4353, 51109.30
441.9174, 51060.81
442.3995, 50998.45
442.8816, 50939.52
443.3637, 50913.25
443.8459, 50919.77
444.3280, 50927.66
444.8101, 50915.92
445.2922, 50890.42
445.7743, 50878.36
446.2564, 50896.25
446.7386, 50903.63
447.2207, 50903.93
447.7028, 50885.22
448.1849, 50817.71
448.6670, 50706.34
449.1491, 50606.22
449.6313, 50578.23
450.1134, 50624.08
450.5955, 50643.29
451.0776, 50620.84
451.5597, 50588.94
452.0418, 50554.37
452.5240, 50515.68
453.0061, 50465.69
453.4882, 50401.28
453.9703, 50343.99
454.4524, 50318.05
454.9345, 50321.94
455.4167, 50348.19
455.8988, 50422.02
456.3809, 50468.38
456.8630, 50386.01
457.3451, 50223.29
457.8272, 50116.40
458.3094, 50137.79
458.7915, 50180.97
459.2736, 50177.60
459.7557, 50137.75
460.2378, 50081.43
460.7199, 50012.71
461.2021, 49950.08
461.6842, 49920.71
462.1663, 49931.24
462.6484, 49958.16
463.1305, 50072.87
463.6126, 50134.26
464.0948, 50012.29
464.5769, 49786.82
465.0590, 49629.45
465.5411, 49635.04
466.0232, 49737.28
466.5053, 49793.98
466.9875, 49798.02
467.4696, 49780.27
467.9517, 49721.77
468.4338, 49661.19
468.9159, 49621.64
469.3980, 49600.40
469.8802, 49581.02
470.3623, 49559.34
470.8444, 49531.82
471.3265, 49482.85
471.8086, 49413.46
472.2907, 49374.22
472.7729, 49402.20
473.2550, 49453.16
473.7371, 49439.24
474.2192, 49352.98
474.7013, 49255.13
475.1834, 49130.04
475.6656, 49017.10
476.1477, 48951.65
476.6298, 48931.67
477.1119, 48940.20
477.5940, 48969.99
478.0761, 49010.62
478.5583, 49020.77
479.0404, 48974.70
479.5225, 48941.23
480.0046, 48938.22
480.4867, 48939.30
480.9688, 48928.58
481.4510, 48903.75
481.9331, 48867.33
482.4152, 48810.28
482.8973, 48745.95
483.3794, 48713.96
483.8615, 48715.92
484.3437, 48744.51
484.8258, 48827.50
485.3079, 48914.77
485.7900, 48923.32
486.2721, 48834.16
486.7542, 48756.88
487.2364, 48751.54
487.7185, 48768.95
488.2006, 48746.62
488.6827, 48683.79
489.1649, 48624.31
489.6470, 48599.37
490.1291, 48600.06
490.6112, 48585.24
491.0933, 48555.16
491.5754, 48507.14
492.0576, 48395.87
492.5397, 48299.28
493.0218, 48301.70
493.5039, 48391.96
493.9860, 48475.28
494.4681, 48470.03
494.9503, 48396.20
495.4324, 48333.61
495.9145, 48279.31
496.3966, 48245.98
496.8787, 48263.70
497.3608, 48289.17
497.8430, 48269.52
498.3251, 48196.63
498.8072, 48128.46
499.2893, 48098.04
499.7714, 48084.50
500.2535, 48058.04
500.7357, 48017.77
501.2178, 47979.82
501.6999, 47952.16
502.1820, 47936.34
502.6641, 47937.86
503.1462, 47987.35
503.6284, 48013.05
504.1105, 47991.96
504.5926, 47962.38
505.0747, 47959.71
505.5568, 47979.56
506.0389, 47988.28
506.5211, 47957.43
507.0032, 47899.71
507.4853, 47861.27
507.9674, 47845.91
508.4495, 47837.73
508.9316, 47847.64
509.4138, 47850.98
509.8959, 47818.77
510.3780, 47750.83
510.8601, 47690.05
511.3422, 47655.65
511.8243, 47638.13
512.3065, 47637.43
512.7886, 47648.09
513.2707, 47634.39
513.7528, 47572.63
514.2349, 47488.94
514.7170, 47444.48
515.1992, 47473.40
515.6813, 47479.89
516.1634, 47458.60
516.6455, 47420.16
517.1276, 47351.03
517.6097, 47270.04
518.0919, 47224.97
518.5740, 47249.36
519.0561, 47305.01
519.5382, 47304.59
520.0203, 47237.76
520.5024, 47178.81
520.9846, 47146.88
521.4667, 47121.82
521.9488, 47081.63
522.4309, 47031.36
522.9130, 46997.36
523.3951, 47009.13
523.8773, 47022.45
524.3594, 46993.02
524.8415, 46933.91
525.3236, 46880.75
525.8057, 46845.61
526.2878, 46828.36
526.7700, 46832.63
527.2521, 46868.98
527.7342, 46879.47
528.2163, 46840.19
528.6984, 46804.42
529.1805, 46794.11
529.6627, 46798.92
530.1448, 46801.58
530.6269, 46795.71
531.1090, 46789.85
531.5911, 46801.50
532.0732, 46828.39
532.5554, 46830.87
533.0375, 46802.50
533.5196, 46756.17
534.0017, 46684.84
534.4838, 46603.48
534.9659, 46547.85
535.4481, 46530.39
535.9302, 46523.04
536.4123, 46515.96
536.8944, 46509.80
537.3765, 46510.07
537.8586, 46515.53
538.3408, 46509.89
538.8229, 46476.34
539.3050, 46419.15
539.7871, 46378.43
540.2692, 46357.12
540.7513, 46349.54
541.2335, 46379.25
541.7156, 46404.35
542.1977, 46377.70
542.6798, 46303.21
543.1619, 46239.63
543.6440, 46241.26
544.1262, 46278.34
544.6083, 46288.05
545.0904, 46269.98
545.5725, 46242.53
546.0546, 46211.45
546.5367, 46176.70
547.0189, 46135.61
547.5010, 46084.41
547.9831, 46044.61
548.4652, 46037.19
548.9473, 46024.32
549.4294, 45956.76
549.9116, 45866.74
550.3937, 45837.53
550.8758, 45909.71
551.3579, 46015.17
551.8400, 46023.26
552.3221, 45910.51
552.8043, 45833.03
553.2864, 45816.51
553.7685, 45814.40
554.2506, 45811.73
554.7327, 45803.32
555.2148, 45776.70
555.6970, 45719.99
556.1791, 45664.33
556.6612, 45637.03
557.1433, 45626.27
557.6254, 45598.29
558.1075, 45548.45
558.5897, 45524.25
559.0718, 45575.04
559.5539, 45688.45
560.0360, 45746.99
560.5181, 45701.46
561.0002, 45661.80
561.4824, 45643.43
561.9645, 45630.27
562.4466, 45611.10
562.9287, 45583.79
563.4108, 45547.77
563.8929, 45491.20
564.3751, 45434.10
564.8572, 45440.13
565.3393, 45515.23
565.8214, 45555.23
566.3035, 45514.88
566.7856, 45441.16
567.2678, 45390.64
567.7499, 45362.41
568.2320, 45346.27
568.7141, 45355.41
569.1962, 45361.86
569.6783, 45359.55
570.1605, 45340.46
570.6426, 45280.35
571.1247, 45174.13
571.6068, 45064.76
572.0889, 45014.41
572.5710, 45027.29
573.0532, 45038.14
573.5353, 45051.84
574.0174, 45055.23
574.4995, 45044.70
574.9816, 45020.75
575.4637, 44975.98
575.9459, 44903.91
576.4280, 44849.63
576.9101, 44843.98
577.3922, 44868.93
577.8743, 44911.06
578.3564, 44963.79
578.8386, 44997.24
579.3207, 44993.17
579.8028, 44962.02
580.2849, 44930.01
580.7670, 44892.64
581.2491, 44863.28
581.7313, 44851.45
582.2134, 44837.28
582.6955, 44808.94
583.1776, 44770.78
583.6597, 44734.25
584.1418, 44706.05
584.6240, 44674.08
585.1061, 44614.28
585.5882, 44535.39
586.0703, 44480.31
586.5524, 44455.67
587.0345, 44458.09
587.5167, 44497.61
587.9988, 44564.00
588.4809, 44588.95
588.9630, 44537.11
589.4451, 44496.56
589.9272, 44499.79
590.4094, 44507.65
590.8915, 44487.36
591.3736, 44437.14
591.8557, 44366.84
592.3378, 44275.25
592.8199, 44183.23
593.3021, 44149.55
593.7842, 44181.97
594.2663, 44203.37
594.7484, 44188.80
595.2305, 44169.54
595.7126, 44178.23
596.1948, 44209.29
596.6769, 44236.17
597.1590, 44269.30
597.6411, 44281.72
598.1232, 44243.64
598.6053, 44183.45
599.0875, 44144.96
599.5696, 44135.68
600.0517, 44128.04
600.5338, 44094.20
601.0159, 44038.94
601.4980, 43997.17
601.9802, 43968.52
602.4623, 43954.05
602.9444, 43962.95
603.4265, 43980.07
603.9086, 43994.75
604.3907, 44006.70
604.8729, 44017.78
605.3550, 44039.61
605.8371, 44051.58
606.3192, 44032.41
606.8013, 43989.19
607.2834, 43936.71
607.7656, 43880.11
608.2477, 43825.60
608.7298, 43780.75
609.2119, 43745.81
609.6940, 43717.42
610.1761, 43697.57
610.6583, 43682.11
611.1404, 43674.19
611.6225, 43667.23
612.1046, 43657.67
612.5867, 43644.23
613.0688, 43620.18
613.5510, 43564.02
614.0331, 43505.90
614.5152, 43493.05
614.9973, 43517.56
615.4794, 43538.96
615.9615, 43543.23
616.4437, 43528.98
616.9258, 43491.40
617.4079, 43424.03
617.8900, 43369.81
618.3721, 43323.77
618.8542, 43296.65
619.3364, 43311.44
619.8185, 43335.76
620.3006, 43325.61
620.7827, 43275.01
621.2648, 43232.58
621.7469, 43249.62
622.2291, 43293.22
622.7112, 43301.00
623.1933, 43272.93
623.6754, 43228.93
624.1575, 43173.85
624.6396, 43116.48
625.1218, 43067.30
625.6039, 43020.85
626.0860, 43008.41
626.5681, 43050.95
627.0502, 43099.55
627.5323, 43147.99
628.0145, 43188.19
628.4966, 43213.59
628.9787, 43221.94
629.4608, 43210.50
629.9429, 43168.66
630.4250, 43106.85
630.9072, 43052.38
631.3893, 43005.55
631.8714, 42947.39
632.3535, 42859.05
632.8356, 42779.25
633.3177, 42780.04
633.7999, 42898.33
634.2820, 42947.61
634.7641, 42884.34
635.2462, 42804.83
635.7283, 42723.95
636.2104, 42658.48
636.6926, 42637.12
637.1747, 42662.80
637.6568, 42689.46
638.1389, 42671.68
638.6210, 42622.68
639.1031, 42572.38
639.5853, 42520.34
640.0674, 42500.07
640.5495, 42537.66
641.0316, 42588.68
641.5137, 42584.24
641.9958, 42508.89
642.4780, 42446.23
642.9601, 42381.00
643.4422, 42344.94
643.9243, 42374.01
644.4064, 42427.26
644.8885, 42453.77
645.3707, 42442.63
645.8528, 42418.28
646.3349, 42400.26
646.8170, 42385.66
647.2991, 42372.36
647.7813, 42360.50
648.2634, 42318.43
648.7455, 42221.41
649.2276, 42119.48
649.7097, 42083.45
650.1918, 42126.87
650.6740, 42146.29
651.1561, 42130.57
651.6382, 42105.56
652.1203, 42069.29
652.6024, 42033.55
653.0845, 42010.10
653.5667, 42001.15
654.0488, 42002.48
654.5309, 42014.88
655.0130, 42032.95
655.4951, 42050.14
655.9772, 42065.45
656.4594, 42059.91
656.9415, 42022.90
657.4236, 41980.41
657.9057, 41963.47
658.3878, 41974.06
658.8699, 41971.44
659.3521, 41953.86
659.8342, 41926.61
660.3163, 41887.06
660.7984, 41840.70
661.2805, 41778.36
661.7626, 41709.70
662.2448, 41678.12
662.7269, 41732.32
663.2090, 41812.10
663.6911, 41823.05
664.1732, 41776.27
664.6553, 41727.48
665.1375, 41688.89
665.6196, 41656.05
666.1017, 41622.11
666.5838, 41589.46
667.0659, 41585.01
667.5480, 41652.41
668.0302, 41686.75
668.5123, 41643.51
668.9944, 41595.41
669.4765, 41611.45
669.9586, 41669.30
670.4407, 41686.34
670.9229, 41613.20
671.4050, 41512.45
671.8871, 41435.01
672.3692, 41381.86
672.8513, 41364.82
673.3334, 41383.91
673.8156, 41404.07
674.2977, 41399.57
674.7798, 41377.90
675.2620, 41366.54
675.7441, 41380.21
676.2262, 41373.07
676.7083, 41320.89
677.1904, 41269.70
677.6725, 41244.89
678.1547, 41235.09
678.6368, 41217.43
679.1189, 41184.85
679.6010, 41147.54
680.0831, 41112.98
680.5652, 41076.92
681.0474, 41022.35
681.5295, 40957.21
682.0116, 40925.39
682.4937, 40951.82
682.9758, 41000.68
683.4579, 41004.81
683.9401, 40955.14
684.4222, 40909.47
684.9043, 40866.77
685.3864, 40829.94
685.8685, 40796.46
686.3506, 40771.46
686.8328, 40767.69
687.3149, 40789.79
687.7970, 40796.30
688.2791, 40752.32
688.7612, 40706.68
689.2433, 40710.29
689.7255, 40738.33
690.2076, 40732.63
690.6897, 40677.81
691.1718, 40615.43
691.6539, 40592.55
692.1360, 40603.20
692.6182, 40612.78
693.1003, 40623.63
693.5824, 40620.09
694.0645, 40588.09
694.5466, 40551.68
695.0287, 40537.19
695.5109, 40544.02
695.9930, 40559.21
696.4751, 40609.57
696.9572, 40634.34
697.4393, 40588.39
697.9214, 40523.71
698.4036, 40501.77
698.8857, 40519.30
699.3678, 40522.50
699.8499, 40470.39
700.3320, 40399.52
700.8141, 40373.52
701.2963, 40385.92
701.7784, 40393.87
702.2605, 40391.39
702.7426, 40371.95
703.2247, 40324.48
703.7068, 40259.57
704.1890, 40218.26
704.6711, 40219.29
705.1532, 40214.62
705.6353, 40210.82
706.1174, 40194.89
706.5995, 40137.08
707.0817, 40068.55
707.5638, 40053.91
708.0459, 40119.89
708.5280, 40181.08
709.0101, 40165.43
709.4922, 40110.56
709.9744, 40076.04
710.4565, 40058.73
710.9386, 40016.04
711.4207, 39927.43
711.9028, 39837.73
712.3849, 39818.18
712.8671, 39874.86
713.3492, 39908.41
713.8313, 39915.18
714.3134, 39904.93
714.7955, 39862.29
715.2776, 39817.14
715.7598, 39804.90
716.2419, 39824.50
716.7240, 39831.53
717.2061, 39809.01
717.6882, 39778.27
718.1703, 39748.82
718.6525, 39718.91
719.1346, 39684.31
719.6167, 39645.41
720.0988, 39607.74
720.5809, 39574.62
721.0630, 39546.71
721.5452, 39520.26
722.0273, 39496.29
722.5094, 39510.36
722.9915, 39579.56
723.4736, 39641.56
723.9557, 39650.40
724.4379, 39616.65
724.9200, 39578.58
725.4021, 39531.75
725.8842, 39488.02
726.3663, 39452.75
726.8484, 39415.51
727.3306, 39364.12
727.8127, 39309.57
728.2948, 39266.70
728.7769, 39239.54
729.2590, 39233.80
729.7411, 39287.74
730.2233, 39345.58
730.7054, 39307.36
731.1875, 39193.84
731.6696, 39104.62
732.1517, 39076.26
732.6339, 39072.02
733.1160, 39042.76
733.5981, 38991.40
734.0802, 38996.31
734.5623, 39090.49
735.0444, 39155.57
735.5266, 39160.80
736.0087, 39126.54
736.4908, 39049.43
736.9729, 38942.44
737.4550, 38880.48
737.9371, 38926.57
738.4193, 38952.34
738.9014, 38887.68
739.3835, 38802.41
739.8656, 38755.07
740.3477, 38750.59
740.8298, 38786.96
741.3120, 38872.02
741.7941, 38941.64
742.2762, 38882.20
742.7583, 38733.38
743.2404, 38652.07
743.7225, 38651.67
744.2047, 38677.26
744.6868, 38707.06
745.1689, 38731.70
745.6510, 38732.61
746.1331, 38703.33
746.6152, 38681.70
747.0974, 38680.73
747.5795, 38670.11
748.0616, 38628.18
748.5437, 38582.45
749.0258, 38570.33
749.5079, 38589.11
749.9901, 38582.09
750.4722, 38492.27
750.9543, 38408.91
751.4364, 38408.05
751.9185, 38442.51
752.4006, 38437.44
752.8828, 38389.45
753.3649, 38354.29
753.8470, 38375.00
754.3291, 38411.74
754.8112, 38373.89
755.2933, 38266.96
755.7755, 38186.12
756.2576, 38141.57
756.7397, 38130.26
757.2218, 38165.14
757.7039, 38216.04
758.1860, 38212.09
758.6682, 38127.36
759.1503, 38060.98
759.6324, 38004.54
760.1145, 37975.17
760.5966, 38007.10
761.0787, 38052.81
761.5609, 38050.59
762.0430, 37996.20
762.5251, 37950.65
763.0072, 37954.76
763.4893, 37968.93
763.9714, 37959.20
764.4536, 37934.98
764.9357, 37917.88
765.4178, 37908.62
765.8999, 37880.93
766.3820, 37809.78
766.8641, 37725.07
767.3463, 37702.02
767.8284, 37741.68
768.3105, 37777.19
768.7926, 37802.28
769.2747, 37818.52
769.7568, 37827.88
770.2390, 37828.02
770.7211, 37813.36
771.2032, 37781.90
771.6853, 37740.43
772.1674, 37664.32
772.6495, 37607.48
773.1317, 37612.83
773.6138, 37632.98
774.0959, 37604.66
774.5780, 37525.14
775.0601, 37458.91
775.5422, 37444.20
776.0244, 37449.54
776.5065, 37453.76
776.9886, 37457.04
777.4707, 37462.33
777.9528, 37468.27
778.4349, 37466.02
778.9171, 37449.05
779.3992, 37422.37
779.8813, 37396.02
780.3634, 37369.89
780.8455, 37341.79
781.3276, 37312.10
781.8098, 37275.94
782.2919, 37223.88
782.7740, 37173.03
783.2561, 37155.19
783.7382, 37175.84
784.2203, 37207.89
784.7025, 37290.84
785.1846, 37335.24
785.6667, 37285.98
786.1488, 37211.30
786.6309, 37175.46
787.1130, 37179.96
787.5952, 37189.35
788.0773, 37184.35
788.5594, 37188.07
789.0415, 37244.29
789.5236, 37301.19
790.0057, 37262.26
790.4879, 37151.09
790.9700, 37095.65
791.4521, 37167.05
791.9342, 37280.88
792.4163, 37315.97
792.8984, 37285.22
793.3806, 37254.05
793.8627, 37225.77
794.3448, 37183.37
794.8269, 37114.61
795.3090, 37048.01
795.7911, 37024.55
796.2733, 37045.58
796.7554, 37058.22
797.2375, 37056.72
797.7196, 37056.82
798.2017, 37071.06
798.6838, 37079.28
799.1660, 37063.35
799.6481, 37030.26
800.1302, 37002.27
800.6123, 36984.28
801.0944, 36969.80
801.5765, 36944.11
802.0587, 36932.25
802.5408, 36965.60
803.0229, 37025.79
803.5050, 37075.97
803.9871, 37104.29
804.4692, 37121.53
804.9514, 37147.09
805.4335, 37163.12
805.9156, 37108.32
806.3977, 37009.96
806.8798, 36996.52
807.3619, 37097.93
807.8441, 37212.94
808.3262, 37250.90
808.8083, 37238.53
809.2904, 37286.68
809.7725, 37422.28
810.2546, 37455.49
810.7368, 37316.11
811.2189, 37186.09
811.7010, 37168.30
812.1831, 37224.59
812.6652, 37285.73
813.1473, 37362.93
813.6295, 37401.55
814.1116, 37364.20
814.5937, 37332.15
815.0758, 37343.09
815.5579, 37364.83
816.0400, 37364.88
816.5222, 37341.41
817.0043, 37308.50
817.4864, 37262.48
817.9685, 37223.81
818.4506, 37213.10
818.9327, 37214.38
819.4149, 37212.72
819.8970, 37203.04
820.3791, 37174.41
820.8612, 37121.57
821.3433, 37066.80
821.8254, 37033.78
822.3076, 37022.86
822.7897, 37038.19
823.2718, 37079.21
823.7539, 37137.93
824.2360, 37214.03
824.7181, 37289.07
825.2003, 37342.46
825.6824, 37378.70
826.1645, 37432.85
826.6466, 37518.20
827.1287, 37580.62
827.6108, 37585.72
828.0930, 37607.24
828.5751, 37694.58
829.0572, 37828.22
829.5393, 37967.70
830.0214, 38115.90
830.5035, 38260.81
830.9857, 38377.82
831.4678, 38517.54
831.9499, 38711.87
832.4320, 38933.90
832.9141, 39151.63
833.3962, 39361.80
833.8784, 39578.46
834.3605, 39798.59
834.8426, 40041.06
835.3247, 40330.01
835.8068, 40644.37
836.2889, 40943.77
836.7711, 41235.72
837.2532, 41567.43
837.7353, 41960.68
838.2174, 42374.56
838.6995, 42762.21
839.1816, 43129.57
839.6638, 43513.49
840.1459, 43911.47
840.6280, 44256.58
841.1101, 44537.52
841.5922, 44699.09
842.0743, 44689.52
842.5565, 44519.72
843.0386, 44238.43
843.5207, 43840.39
844.0028, 43347.02
844.4849, 42722.43
844.9670, 42059.10
845.4492, 41384.09
845.9313, 40711.69
846.4134, 40062.96
846.8955, 39422.99
847.3776, 38854.05
847.8597, 38368.91
848.3419, 37942.04
848.8240, 37569.93
849.3061, 37247.20
849.7882, 36988.49
850.2703, 36778.42
850.7524, 36563.53
851.2346, 36310.14
851.7167, 36085.09
852.1988, 35934.41
852.6809, 35825.60
853.1630, 35736.29
853.6451, 35660.88
854.1273, 35599.10
854.6094, 35549.23
855.0915, 35491.39
855.5736, 35396.90
856.0557, 35291.79
856.5378, 35220.59
857.0200, 35177.84
857.5021, 35150.19
857.9842, 35133.70
858.4663, 35118.76
858.9484, 35099.71
859.4305, 35074.93
859.9127, 35038.45
860.3948, 34990.27
860.8769, 34946.54
861.3590, 34904.27
861.8411, 34891.36
862.3232, 34930.79
862.8054, 34973.82
863.2875, 34960.48
863.7696, 34894.92
864.2517, 34845.50
864.7338, 34811.14
865.2159, 34796.60
865.6981, 34831.66
866.1802, 34853.61
866.6623, 34805.82
867.1444, 34729.22
867.6265, 34710.66
868.1086, 34778.88
868.5908, 34786.30
869.0729, 34633.95
869.5550, 34506.85
870.0371, 34495.15
870.5192, 34538.19
871.0013, 34592.22
871.4835, 34639.54
871.9656, 34643.98
872.4477, 34572.36
872.9298, 34501.27
873.4119, 34485.40
873.8940, 34492.70
874.3762, 34502.01
874.8583, 34502.16
875.3404, 34470.61
875.8225, 34403.39
876.3046, 34332.14
876.7867, 34280.07
877.2689, 34245.87
877.7510, 34233.69
878.2331, 34237.07
878.7152, 34235.68
879.1973, 34226.88
879.6794, 34220.88
880.1616, 34224.32
880.6437, 34228.67
881.1258, 34216.25
881.6079, 34188.68
882.0900, 34173.08
882.5721, 34170.86
883.0543, 34165.39
883.5364, 34151.85
884.0185, 34131.55
884.5006, 34102.99
884.9827, 34070.18
885.4648, 34057.42
885.9470, 34081.30
886.4291, 34071.35
886.9112, 33997.87
887.3933, 33935.72
887.8754, 33927.17
888.3575, 33944.71
888.8397, 33948.98
889.3218, 33938.73
889.8039, 33925.42
890.2860, 33898.20
890.7681, 33882.97
891.2502, 33907.58
891.7324, 33924.24
892.2145, 33889.40
892.6966, 33822.64
893.1787, 33768.60
893.6608, 33731.55
894.1429, 33723.32
894.6251, 33777.92
895.1072, 33829.02
895.5893, 33846.19
896.0714, 33831.84
896.5535, 33778.96
897.0356, 33697.53
897.5178, 33623.96
897.9999, 33568.20
898.4820, 33541.75
898.9641, 33579.03
899.4462, 33632.91
899.9283, 33651.27
900.4105, 33634.51
900.8926, 33586.34
901.3747, 33512.58
901.8568, 33447.17
902.3389, 33414.59
902.8210, 33413.91
903.3032, 33474.12
903.7853, 33561.36
904.2674, 33567.82
904.7495, 33489.21
905.2316, 33403.24
905.7137, 33348.97
906.1959, 33317.57
906.6780, 33296.39
907.1601, 33286.30
907.6422, 33304.06
908.1243, 33348.39
908.6064, 33347.65
909.0886, 33280.17
909.5707, 33216.23
910.0528, 33213.91
910.5349, 33244.58
911.0170, 33227.10
911.4991, 33152.41
911.9813, 33091.14
912.4634, 33035.62
912.9455, 33032.00
913.4276, 33123.21
913.9097, 33222.19
914.3918, 33229.87
914.8740, 33157.43
915.3561, 33103.82
915.8382, 33073.24
916.3203, 33053.23
916.8024, 33048.08
917.2845, 33046.90
917.7667, 33055.98
918.2488, 33059.56
918.7309, 33024.21
919.2130, 32945.02
919.6951, 32902.39
920.1772, 32942.78
920.6594, 32958.52
921.1415, 32906.51
921.6237, 32846.32
922.1058, 32811.35
922.5879, 32799.05
923.0700, 32803.64
923.5521, 32827.41
924.0342, 32846.94
924.5164, 32861.39
924.9985, 32863.66
925.4806, 32847.46
925.9627, 32819.68
926.4448, 32786.32
926.9269, 32748.01
927.4091, 32699.09
927.8912, 32629.96
928.3733, 32581.23
928.8554, 32589.92
929.3375, 32613.69
929.8196, 32615.14
930.3018, 32608.07
930.7839, 32621.42
931.2660, 32655.15
931.7481, 32682.17
932.2302, 32689.55
932.7123, 32680.73
933.1945, 32663.01
933.6766, 32628.35
934.1587, 32537.17
934.6408, 32424.01
935.1229, 32391.44
935.6050, 32459.32
936.0872, 32527.42
936.5693, 32510.81
937.0514, 32458.86
937.5335, 32446.27
938.0156, 32456.31
938.4977, 32443.96
938.9799, 32412.32
939.4620, 32401.17
939.9441, 32427.04
940.4262, 32460.89
940.9083, 32470.86
941.3904, 32464.81
941.8726, 32469.25
942.3547, 32477.93
942.8368, 32447.54
943.3189, 32375.49
943.8010, 32325.49
944.2831, 32334.88
944.7653, 32359.03
945.2474, 32324.57
945.7295, 32242.46
946.2116, 32183.47
946.6937, 32147.23
947.1758, 32140.54
947.6580, 32166.13
948.1401, 32211.38
948.6222, 32275.91
949.1043, 32326.87
949.5864, 32273.08
950.0685, 32106.33
950.5507, 32035.74
951.0328, 32075.38
951.5149, 32125.37
951.9970, 32165.29
952.4791, 32181.99
952.9612, 32161.61
953.4434, 32113.10
953.9255, 32059.13
954.4076, 31992.27
954.8897, 31958.92
955.3718, 31970.97
955.8539, 31983.05
956.3361, 31981.88
956.8182, 31970.90
957.3003, 31946.82
957.7824, 31917.08
958.2645, 31927.04
958.7466, 32017.08
959.2288, 32036.01
959.7109, 31933.82
960.1930, 31844.82
960.6751, 31821.61
961.1572, 31835.28
961.6393, 31864.15
962.1215, 31904.65
962.6036, 31910.99
963.0857, 31853.91
963.5678, 31816.79
964.0499, 31824.75
964.5320, 31825.03
965.0142, 31792.79
965.4963, 31742.03
965.9784, 31679.83
966.4605, 31606.47
966.9426, 31570.15
967.4247, 31594.82
967.9069, 31621.46
968.3890, 31656.34
968.8711, 31680.06
969.3532, 31669.66
969.8353, 31649.16
970.3174, 31667.24
970.7996, 31728.78
971.2817, 31730.68
971.7638, 31583.03
972.2459, 31489.96
972.7280, 31533.12
973.2101, 31595.67
973.6923, 31606.11
974.1744, 31587.41
974.6565, 31587.31
975.1386, 31612.78
975.6207, 31611.41
976.1028, 31520.16
976.5850, 31474.50
977.0671, 31560.84
977.5492, 31658.36
978.0313, 31695.40
978.5134, 31675.56
978.9955, 31598.86
979.4777, 31457.70
979.9598, 31369.20
980.4419, 31411.06
980.9240, 31448.14
981.4061, 31413.11
981.8882, 31370.45
982.3704, 31373.42
982.8525, 31409.78
983.3346, 31454.78
983.8167, 31508.42
984.2988, 31517.98
984.7809, 31427.33
985.2631, 31338.54
985.7452, 31286.33
986.2273, 31265.13
986.7094, 31290.51
987.1915, 31337.01
987.6736, 31347.82
988.1558, 31306.68
988.6379, 31264.83
989.1200, 31229.78
989.6021, 31213.01
990.0842, 31237.83
990.5663, 31269.49
991.0485, 31261.95
991.5306, 31235.30
992.0127, 31246.59
992.4948, 31313.17
992.9769, 31391.24
993.4590, 31511.13
993.9412, 31579.77
994.4233, 31507.04
994.9054, 31388.75
995.3875, 31317.93
995.8696, 31287.71
996.3517, 31248.60
996.8339, 31183.26
997.3160, 31144.11
997.7981, 31178.27
998.2802, 31216.77
998.7623, 31200.95
999.2444, 31184.66
999.7266, 31235.55
1000.209, 31334.34
1000.691, 31418.76
1001.173, 31471.90
1001.655, 31509.17
1002.137, 31544.73
1002.619, 31557.30
1003.101, 31500.64
1003.583, 31441.25
1004.066, 31446.05
1004.548, 31508.65
1005.030, 31598.30
1005.512, 31710.36
1005.994, 31815.69
1006.476, 31911.69
1006.958, 31986.44
1007.440, 32016.43
1007.923, 32035.51
1008.405, 32064.64
1008.887, 32114.64
1009.369, 32207.50
1009.851, 32353.03
1010.333, 32493.57
1010.815, 32638.47
1011.297, 32730.73
1011.779, 32731.56
1012.262, 32670.98
1012.744, 32564.84
1013.226, 32426.02
1013.708, 32266.13
1014.190, 32085.93
1014.672, 31924.59
1015.154, 31815.74
1015.636, 31707.46
1016.119, 31558.25
1016.601, 31412.87
1017.083, 31329.20
1017.565, 31277.63
1018.047, 31179.09
1018.529, 31013.19
1019.011, 30883.88
1019.493, 30838.87
1019.975, 30821.54
1020.458, 30835.91
1020.940, 30843.09
1021.422, 30800.28
1021.904, 30730.91
1022.386, 30688.54
1022.868, 30683.12
1023.350, 30659.09
1023.832, 30566.77
1024.314, 30500.12
1024.797, 30514.23
1025.279, 30541.08
1025.761, 30525.85
1026.243, 30491.82
1026.725, 30487.73
1027.207, 30519.46
1027.689, 30538.96
1028.171, 30534.43
1028.654, 30519.33
1029.136, 30477.19
1029.618, 30446.35
1030.100, 30467.56
1030.582, 30505.51
1031.064, 30503.10
1031.546, 30457.23
1032.028, 30422.13
1032.510, 30405.08
1032.993, 30398.43
1033.475, 30412.76
1033.957, 30424.03
1034.439, 30422.12
1034.921, 30409.42
1035.403, 30380.57
1035.885, 30338.43
1036.367, 30323.90
1036.849, 30380.64
1037.332, 30398.58
1037.814, 30327.97
1038.296, 30273.93
1038.778, 30292.53
1039.260, 30332.76
1039.742, 30342.83
1040.224, 30326.72
1040.706, 30310.43
1041.189, 30282.14
1041.671, 30279.02
1042.153, 30319.15
1042.635, 30355.32
1043.117, 30385.17
1043.599, 30388.21
1044.081, 30332.93
1044.563, 30238.80
1045.046, 30179.88
1045.528, 30155.27
1046.010, 30174.53
1046.492, 30267.74
1046.974, 30327.25
1047.456, 30316.91
1047.938, 30278.36
1048.420, 30239.69
1048.902, 30200.28
1049.385, 30155.11
1049.867, 30100.50
1050.349, 30078.41
1050.831, 30095.17
1051.313, 30116.07
1051.795, 30134.90
1052.277, 30153.52
1052.759, 30174.59
1053.242, 30191.98
1053.724, 30192.69
1054.206, 30178.35
1054.688, 30176.67
1055.170, 30188.43
1055.652, 30202.83
1056.134, 30219.65
1056.616, 30211.33
1057.099, 30159.25
1057.581, 30107.47
1058.063, 30117.31
1058.545, 30172.93
1059.027, 30222.01
1059.509, 30261.24
1059.991, 30255.30
1060.473, 30203.49
1060.955, 30138.70
1061.438, 30074.45
1061.920, 30041.00
1062.402, 30074.49
1062.884, 30144.76
1063.366, 30201.94
1063.848, 30240.28
1064.330, 30230.04
1064.812, 30180.57
1065.294, 30132.31
1065.777, 30099.11
1066.259, 30087.93
1066.741, 30106.16
1067.223, 30139.37
1067.705, 30174.98
1068.187, 30208.74
1068.669, 30230.10
1069.151, 30244.29
1069.634, 30267.02
1070.116, 30297.37
1070.598, 30317.26
1071.080, 30316.82
1071.562, 30310.11
1072.044, 30310.26
1072.526, 30308.89
1073.008, 30288.30
1073.490, 30266.56
1073.973, 30276.09
1074.455, 30307.88
1074.937, 30329.65
1075.419, 30331.35
1075.901, 30316.37
1076.383, 30259.50
1076.865, 30220.43
1077.347, 30246.22
1077.829, 30294.10
1078.312, 30331.08
1078.794, 30357.96
1079.276, 30382.93
1079.758, 30407.28
1080.240, 30426.50
1080.722, 30453.48
1081.204, 30454.38
1081.686, 30381.77
1082.169, 30324.91
1082.651, 30355.28
1083.133, 30414.25
1083.615, 30418.82
1084.097, 30377.22
1084.579, 30376.54
1085.061, 30455.91
1085.543, 30509.87
1086.026, 30536.30
1086.508, 30537.86
1086.990, 30488.23
1087.472, 30448.51
1087.954, 30477.72
1088.436, 30548.78
1088.918, 30586.57
1089.400, 30584.14
1089.882, 30597.59
1090.365, 30638.64
1090.847, 30650.41
1091.329, 30613.15
1091.811, 30575.14
1092.293, 30562.18
1092.775, 30573.59
1093.257, 30617.29
1093.739, 30682.21
1094.221, 30681.31
1094.704, 30615.13
1095.186, 30574.14
1095.668, 30568.17
1096.150, 30567.48
1096.632, 30560.29
1097.114, 30558.63
1097.596, 30576.36
1098.078, 30601.33
1098.561, 30611.82
1099.043, 30607.63
1099.525, 30576.46
1100.007, 30529.68
1100.489, 30515.71
1100.971, 30540.40
1101.453, 30561.50
1101.935, 30553.34
1102.417, 30537.84
1102.900, 30545.98
1103.382, 30553.88
1103.864, 30523.29
1104.346, 30474.90
1104.828, 30443.82
1105.310, 30428.70
1105.792, 30402.30
1106.274, 30356.40
1106.756, 30344.47
1107.239, 30442.08
1107.721, 30525.41
1108.203, 30511.90
1108.685, 30465.09
1109.167, 30420.48
1109.649, 30390.52
1110.131, 30387.85
1110.613, 30412.80
1111.096, 30454.66
1111.578, 30538.80
1112.060, 30588.97
1112.542, 30572.10
1113.024, 30544.68
1113.506, 30522.58
1113.988, 30505.24
1114.470, 30492.89
1114.953, 30484.27
1115.435, 30475.48
1115.917, 30465.79
1116.399, 30459.71
1116.881, 30456.83
1117.363, 30458.05
1117.845, 30461.45
1118.327, 30478.64
1118.809, 30524.78
1119.292, 30563.78
1119.774, 30536.57
1120.256, 30460.34
1120.738, 30439.45
1121.220, 30472.44
1121.702, 30498.93
1122.184, 30515.31
1122.666, 30581.08
1123.148, 30713.59
1123.631, 30811.69
1124.113, 30786.79
1124.595, 30712.61
1125.077, 30712.02
1125.559, 30751.68
1126.041, 30756.51
1126.523, 30738.28
1127.005, 30731.53
1127.488, 30741.75
1127.970, 30762.46
1128.452, 30790.94
1128.934, 30820.98
1129.416, 30844.99
1129.898, 30871.64
1130.380, 30911.88
1130.862, 30954.96
1131.344, 30991.88
1131.827, 31022.11
1132.309, 31040.88
1132.791, 31051.32
1133.273, 31083.13
1133.755, 31172.21
1134.237, 31229.48
1134.719, 31197.78
1135.201, 31174.01
1135.683, 31196.39
1136.166, 31247.95
1136.648, 31327.80
1137.130, 31419.87
1137.612, 31485.77
1138.094, 31525.74
1138.576, 31532.68
1139.058, 31482.58
1139.540, 31475.11
1140.023, 31543.84
1140.505, 31590.98
1140.987, 31560.28
1141.469, 31514.50
1141.951, 31528.17
1142.433, 31591.45
1142.915, 31692.24
1143.397, 31819.20
1143.880, 31819.54
1144.362, 31709.14
1144.844, 31705.35
1145.326, 31849.62
1145.808, 31964.37
1146.290, 31935.21
1146.772, 31872.09
1147.254, 31911.95
1147.736, 31994.32
1148.219, 32037.24
1148.701, 32054.96
1149.183, 32067.81
1149.665, 32080.11
1150.147, 32097.50
1150.629, 32119.46
1151.111, 32124.24
1151.593, 32080.23
1152.075, 32054.40
1152.558, 32101.24
1153.040, 32149.35
1153.522, 32127.39
1154.004, 32102.59
1154.486, 32179.90
1154.968, 32322.40
1155.450, 32374.56
1155.932, 32294.29
1156.415, 32252.76
1156.897, 32281.18
1157.379, 32281.90
1157.861, 32223.74
1158.343, 32169.52
1158.825, 32145.10
1159.307, 32157.35
1159.789, 32228.96
1160.271, 32330.73
1160.754, 32324.51
1161.236, 32217.00
1161.718, 32170.36
1162.200, 32186.88
1162.682, 32184.63
1163.164, 32145.69
1163.646, 32118.04
1164.128, 32131.81
1164.610, 32154.18
1165.093, 32147.09
1165.575, 32123.14
1166.057, 32086.44
1166.539, 32054.83
1167.021, 32073.40
1167.503, 32117.33
1167.985, 32116.96
1168.467, 32062.94
1168.950, 32019.71
1169.432, 32033.43
1169.914, 32020.29
1170.396, 31894.25
1170.878, 31795.41
1171.360, 31836.71
1171.842, 31905.79
1172.324, 31891.97
1172.807, 31822.47
1173.289, 31777.76
1173.771, 31762.35
1174.253, 31724.71
1174.735, 31642.80
1175.217, 31608.34
1175.699, 31645.31
1176.181, 31682.17
1176.663, 31698.11
1177.146, 31663.37
1177.628, 31536.79
1178.110, 31379.71
1178.592, 31351.27
1179.074, 31417.61
1179.556, 31410.88
1180.038, 31350.22
1180.520, 31332.29
1181.002, 31360.16
1181.485, 31359.33
1181.967, 31302.43
1182.449, 31254.92
1182.931, 31286.94
1183.413, 31315.95
1183.895, 31241.01
1184.377, 31157.72
1184.859, 31176.17
1185.342, 31232.26
1185.824, 31225.28
1186.306, 31162.91
1186.788, 31122.97
1187.270, 31131.95
1187.752, 31105.47
1188.234, 30997.49
1188.716, 30906.12
1189.198, 30835.23
1189.681, 30803.50
1190.163, 30839.24
1190.645, 30884.65
1191.127, 30866.61
1191.609, 30808.39
1192.091, 30800.96
1192.573, 30843.61
1193.055, 30874.42
1193.537, 30891.62
1194.020, 30886.67
1194.502, 30861.43
1194.984, 30855.76
1195.466, 30889.32
1195.948, 30917.70
1196.430, 30895.33
1196.912, 30847.23
1197.394, 30781.26
1197.877, 30727.12
1198.359, 30741.65
1198.841, 30785.63
1199.323, 30790.71
1199.805, 30753.68
1200.287, 30706.89
1200.769, 30651.98
1201.251, 30620.72
1201.734, 30653.97
1202.216, 30664.50
1202.698, 30592.00
1203.180, 30539.04
1203.662, 30566.98
1204.144, 30623.77
1204.626, 30646.68
1205.108, 30646.38
1205.590, 30675.22
1206.073, 30736.88
1206.555, 30737.96
1207.037, 30678.83
1207.519, 30632.50
1208.001, 30615.16
1208.483, 30644.75
1208.965, 30729.31
1209.447, 30804.74
1209.929, 30796.63
1210.412, 30766.42
1210.894, 30806.87
1211.376, 30860.22
1211.858, 30842.38
1212.340, 30789.53
1212.822, 30768.71
1213.304, 30779.01
1213.786, 30776.73
1214.269, 30747.42
1214.751, 30731.99
1215.233, 30738.87
1215.715, 30762.57
1216.197, 30815.42
1216.679, 30866.86
1217.161, 30917.50
1217.643, 30937.12
1218.125, 30878.85
1218.608, 30785.52
1219.090, 30798.96
1219.572, 30914.84
1220.054, 30942.77
1220.536, 30894.25
1221.018, 30891.00
1221.500, 30944.61
1221.982, 30996.74
1222.464, 31023.54
1222.947, 31026.73
1223.429, 30993.43
1223.911, 30976.45
1224.393, 31066.38
1224.875, 31157.60
1225.357, 31118.29
1225.839, 31043.45
1226.321, 31063.51
1226.804, 31147.77
1227.286, 31186.90
1227.768, 31162.93
1228.250, 31166.73
1228.732, 31237.52
1229.214, 31272.55
1229.696, 31243.56
1230.178, 31238.96
1230.661, 31293.44
1231.143, 31354.39
1231.625, 31383.52
1232.107, 31394.60
1232.589, 31407.79
1233.071, 31423.81
1233.553, 31448.03
1234.035, 31476.67
1234.517, 31498.58
1235.000, 31513.90
1235.482, 31529.83
1235.964, 31545.25
1236.446, 31538.56
1236.928, 31490.25
1237.410, 31479.32
1237.892, 31586.34
##END=



