##NAMES=Uranophane-beta
##RRUFFID=R060962
##IDEAL CHEMISTRY=Ca(U^6+^O_2_)_2_(SiO_3_OH)_2_&#183;5H_2_O
##LOCALITY=Teofilo Otoni, Minas Gerais, Brazil
##OWNER=RRUFF
##SOURCE=Michael Scott
##DESCRIPTION=Yellow elongated prismatic crystals in aggregates with muscovite on albite
##STATUS=The identification of this mineral has been confirmed by single-crystal X-ray diffraction.
##URL=rruff.info/R060962
203.0007, 58820.91
203.4828, 58912.00
203.9649, 59100.13
204.4470, 59337.62
204.9291, 59530.70
205.4113, 59677.72
205.8934, 59782.57
206.3755, 59823.79
206.8576, 59778.41
207.3397, 59809.32
207.8218, 59951.61
208.3040, 60154.43
208.7861, 60287.43
209.2682, 60337.07
209.7503, 60355.31
210.2324, 60360.29
210.7145, 60341.50
211.1967, 60367.69
211.6788, 60454.14
212.1609, 60588.73
212.6430, 60737.33
213.1251, 60919.32
213.6072, 61077.54
214.0894, 61166.84
214.5715, 61155.47
215.0536, 61179.44
215.5357, 61255.70
216.0178, 61373.98
216.4999, 61490.67
216.9820, 61598.18
217.4642, 61708.66
217.9463, 61830.43
218.4284, 61961.65
218.9105, 62099.16
219.3926, 62249.67
219.8747, 62405.68
220.3569, 62530.40
220.8390, 62615.06
221.3211, 62681.76
221.8032, 62746.78
222.2853, 62806.61
222.7674, 62878.31
223.2496, 62973.18
223.7317, 63089.00
224.2138, 63176.60
224.6959, 63219.75
225.1780, 63260.07
225.6601, 63335.82
226.1423, 63471.36
226.6244, 63587.34
227.1065, 63659.05
227.5886, 63689.57
228.0707, 63755.91
228.5528, 63865.06
229.0350, 64000.80
229.5171, 64154.86
229.9992, 64361.64
230.4813, 64516.67
230.9634, 64579.84
231.4455, 64551.51
231.9276, 64586.50
232.4098, 64725.44
232.8919, 64886.98
233.3740, 64983.01
233.8561, 64952.01
234.3382, 64979.56
234.8203, 65132.08
235.3025, 65416.88
235.7846, 65594.95
236.2667, 65615.02
236.7488, 65579.03
237.2309, 65587.05
237.7130, 65655.63
238.1952, 65740.08
238.6773, 65838.32
239.1594, 65952.43
239.6415, 66051.82
240.1236, 66130.46
240.6057, 66202.19
241.0879, 66279.76
241.5700, 66354.47
242.0521, 66450.80
242.5342, 66581.12
243.0163, 66749.07
243.4984, 66895.21
243.9806, 67004.42
244.4627, 67101.92
244.9448, 67215.40
245.4269, 67352.89
245.9090, 67486.27
246.3911, 67612.83
246.8732, 67732.33
247.3554, 67816.88
247.8375, 67832.90
248.3196, 67840.73
248.8017, 67917.70
249.2838, 68124.14
249.7659, 68283.80
250.2481, 68348.35
250.7302, 68309.86
251.2123, 68291.32
251.6944, 68299.41
252.1765, 68327.61
252.6586, 68370.63
253.1408, 68438.31
253.6229, 68510.91
254.1050, 68588.95
254.5871, 68674.30
255.0692, 68752.98
255.5513, 68819.47
256.0334, 68887.53
256.5156, 68973.66
256.9977, 69083.65
257.4798, 69198.65
257.9619, 69310.61
258.4440, 69418.06
258.9261, 69542.30
259.4083, 69692.28
259.8904, 69845.04
260.3725, 69969.62
260.8546, 70051.13
261.3367, 70135.73
261.8188, 70225.94
262.3010, 70320.65
262.7831, 70459.87
263.2652, 70672.74
263.7473, 70890.71
264.2294, 71033.75
264.7115, 71069.99
265.1937, 71117.67
265.6758, 71217.84
266.1579, 71367.85
266.6400, 71448.16
267.1221, 71428.40
267.6042, 71388.91
268.0864, 71419.86
268.5685, 71543.95
269.0506, 71666.98
269.5327, 71768.30
270.0148, 71850.14
270.4969, 71937.98
270.9791, 72038.37
271.4612, 72135.22
271.9433, 72209.54
272.4254, 72258.63
272.9075, 72299.45
273.3896, 72320.91
273.8718, 72332.12
274.3539, 72426.63
274.8360, 72632.11
275.3181, 72854.25
275.8002, 73005.09
276.2823, 73078.41
276.7645, 73112.84
277.2466, 73096.51
277.7287, 73044.21
278.2108, 73053.42
278.6929, 73129.36
279.1750, 73243.45
279.6572, 73382.14
280.1393, 73547.28
280.6214, 73692.32
281.1035, 73807.62
281.5856, 73894.19
282.0677, 73954.05
282.5499, 73983.98
283.0320, 74001.23
283.5141, 74019.89
283.9962, 74040.18
284.4783, 74055.48
284.9604, 74061.59
285.4425, 74065.36
285.9247, 74078.50
286.4068, 74099.63
286.8889, 74151.18
287.3710, 74277.91
287.8531, 74468.59
288.3352, 74609.27
288.8174, 74666.20
289.2995, 74676.78
289.7816, 74731.11
290.2637, 74828.36
290.7458, 74916.96
291.2279, 74937.43
291.7101, 74908.70
292.1922, 74929.73
292.6743, 75033.72
293.1564, 75164.81
293.6385, 75225.06
294.1206, 75217.68
294.6028, 75188.73
295.0849, 75133.95
295.5670, 75080.63
296.0491, 75122.33
296.5312, 75301.41
297.0133, 75518.20
297.4955, 75628.56
297.9776, 75646.32
298.4597, 75652.52
298.9418, 75659.02
299.4239, 75694.77
299.9060, 75836.64
300.3882, 76117.32
300.8703, 76419.56
301.3524, 76572.13
301.8345, 76616.86
302.3166, 76701.94
302.7987, 76962.17
303.2809, 77287.89
303.7630, 77526.39
304.2451, 77648.26
304.7272, 77730.05
305.2093, 77821.40
305.6914, 77922.86
306.1736, 78034.20
306.6557, 78182.29
307.1378, 78328.37
307.6199, 78434.92
308.1020, 78500.70
308.5841, 78537.68
309.0663, 78532.43
309.5484, 78510.47
310.0305, 78513.39
310.5126, 78586.95
310.9947, 78675.19
311.4768, 78733.42
311.9590, 78759.18
312.4411, 78787.03
312.9232, 78860.77
313.4053, 78941.48
313.8874, 78980.04
314.3695, 78912.16
314.8516, 78838.59
315.3337, 78802.14
315.8159, 78804.33
316.2980, 78847.77
316.7801, 78967.31
317.2622, 79114.79
317.7443, 79246.57
318.2264, 79369.02
318.7086, 79455.88
319.1907, 79487.05
319.6728, 79469.37
320.1549, 79447.52
320.6370, 79373.28
321.1191, 79336.26
321.6013, 79396.63
322.0834, 79673.58
322.5655, 79926.02
323.0476, 80102.91
323.5297, 80215.87
324.0118, 80316.37
324.4940, 80393.09
324.9761, 80471.23
325.4582, 80563.10
325.9403, 80678.11
326.4224, 80793.13
326.9045, 80908.01
327.3867, 81021.36
327.8688, 81130.39
328.3509, 81251.88
328.8330, 81353.38
329.3151, 81423.74
329.7972, 81452.91
330.2794, 81472.15
330.7615, 81458.13
331.2436, 81443.27
331.7257, 81489.00
332.2078, 81655.68
332.6899, 81800.85
333.1721, 81874.62
333.6542, 81855.66
334.1363, 81869.23
334.6184, 81933.71
335.1005, 82016.88
335.5826, 82073.63
336.0648, 82083.97
336.5469, 82115.50
337.0290, 82180.05
337.5111, 82277.36
337.9932, 82437.36
338.4753, 82699.97
338.9575, 82944.55
339.4396, 83025.62
339.9217, 82901.23
340.4038, 82834.02
340.8859, 82898.19
341.3680, 83058.67
341.8502, 83138.78
342.3323, 83119.77
342.8144, 83103.95
343.2965, 83207.44
343.7786, 83428.19
344.2607, 83552.90
344.7429, 83522.45
345.2250, 83414.54
345.7071, 83396.68
346.1892, 83471.32
346.6713, 83598.33
347.1534, 83795.20
347.6355, 84033.05
348.1176, 84179.78
348.5998, 84195.23
349.0819, 84179.77
349.5640, 84279.38
350.0461, 84478.71
350.5282, 84696.13
351.0103, 84913.05
351.4925, 85109.71
351.9746, 85246.60
352.4567, 85312.97
352.9388, 85356.91
353.4209, 85441.26
353.9030, 85539.85
354.3852, 85594.90
354.8673, 85529.31
355.3494, 85441.81
355.8315, 85450.78
356.3136, 85558.84
356.7957, 85656.12
357.2779, 85642.27
357.7600, 85582.57
358.2421, 85559.95
358.7242, 85618.66
359.2063, 85708.91
359.6884, 85813.29
360.1706, 85928.80
360.6527, 86038.21
361.1348, 86123.21
361.6169, 86203.35
362.0990, 86293.69
362.5811, 86413.27
363.0633, 86518.28
363.5454, 86581.19
364.0275, 86615.48
364.5096, 86661.63
364.9917, 86768.27
365.4738, 86858.64
365.9560, 86884.73
366.4381, 86779.18
366.9202, 86749.08
367.4023, 86871.97
367.8844, 87075.35
368.3665, 87240.66
368.8487, 87330.32
369.3308, 87416.06
369.8129, 87521.16
370.2950, 87656.16
370.7771, 87748.95
371.2592, 87743.57
371.7414, 87735.99
372.2235, 87833.92
372.7056, 88121.95
373.1877, 88351.67
373.6698, 88447.34
374.1519, 88423.94
374.6341, 88494.16
375.1162, 88702.05
375.5983, 88915.25
376.0804, 89012.13
376.5625, 88953.06
377.0446, 88980.05
377.5267, 89152.81
378.0089, 89407.83
378.4910, 89560.16
378.9731, 89601.63
379.4552, 89605.84
379.9373, 89601.84
380.4194, 89593.63
380.9016, 89610.84
381.3837, 89656.74
381.8658, 89734.01
382.3479, 89859.39
382.8300, 90027.99
383.3121, 90197.48
383.7943, 90348.16
384.2764, 90484.05
384.7585, 90606.57
385.2406, 90711.60
385.7227, 90832.96
386.2048, 91014.80
386.6870, 91230.38
387.1691, 91427.85
387.6512, 91584.23
388.1333, 91709.88
388.6154, 91811.79
389.0975, 91888.84
389.5797, 91949.84
390.0618, 91995.90
390.5439, 92029.61
391.0260, 92048.97
391.5081, 92037.47
391.9902, 92047.53
392.4724, 92138.92
392.9545, 92279.31
393.4366, 92389.82
393.9187, 92414.56
394.4008, 92425.38
394.8829, 92467.30
395.3651, 92559.10
395.8472, 92632.29
396.3293, 92646.41
396.8114, 92640.28
397.2935, 92660.17
397.7756, 92740.56
398.2578, 92816.86
398.7399, 92861.91
399.2220, 92869.90
399.7041, 92914.78
400.1862, 93032.92
400.6683, 93158.16
401.1505, 93243.20
401.6326, 93250.86
402.1147, 93284.47
402.5968, 93364.98
403.0789, 93477.78
403.5610, 93570.92
404.0432, 93647.48
404.5253, 93701.55
405.0074, 93722.83
405.4895, 93701.16
405.9716, 93699.65
406.4537, 93715.18
406.9359, 93756.34
407.4180, 93838.86
407.9001, 93964.34
408.3822, 94116.51
408.8643, 94317.80
409.3464, 94544.20
409.8285, 94666.02
410.3106, 94673.58
410.7928, 94653.42
411.2749, 94683.95
411.7570, 94756.20
412.2391, 94831.70
412.7212, 94894.69
413.2033, 94966.13
413.6855, 95085.73
414.1676, 95244.62
414.6497, 95402.11
415.1318, 95535.52
415.6139, 95647.93
416.0960, 95735.02
416.5782, 95789.02
417.0603, 95842.98
417.5424, 95927.78
418.0245, 96027.01
418.5066, 96112.26
418.9887, 96157.11
419.4709, 96196.55
419.9530, 96266.24
420.4351, 96368.99
420.9172, 96427.53
421.3993, 96376.09
421.8814, 96291.33
422.3636, 96236.97
422.8457, 96210.83
423.3278, 96236.40
423.8099, 96361.02
424.2920, 96558.13
424.7741, 96692.68
425.2563, 96710.73
425.7384, 96711.56
426.2205, 96734.53
426.7026, 96792.51
427.1847, 96837.07
427.6668, 96844.88
428.1490, 96852.41
428.6311, 96922.08
429.1132, 97080.61
429.5953, 97231.01
430.0774, 97343.82
430.5595, 97420.33
431.0417, 97482.78
431.5238, 97522.79
432.0059, 97571.71
432.4880, 97671.55
432.9701, 97820.39
433.4522, 97939.66
433.9344, 98016.74
434.4165, 98059.81
434.8986, 98062.14
435.3807, 98031.28
435.8628, 98042.38
436.3449, 98190.80
436.8271, 98405.57
437.3092, 98525.50
437.7913, 98526.93
438.2734, 98518.07
438.7555, 98589.88
439.2376, 98722.87
439.7197, 98881.14
440.2018, 99136.14
440.6840, 99343.05
441.1661, 99326.50
441.6482, 99120.90
442.1303, 98995.29
442.6124, 99158.07
443.0945, 99408.27
443.5767, 99586.61
444.0588, 99622.34
444.5409, 99655.47
445.0230, 99735.76
445.5051, 99839.35
445.9872, 99915.52
446.4694, 99960.29
446.9515, 99975.98
447.4336, 99945.84
447.9157, 99850.43
448.3978, 99826.05
448.8799, 99912.48
449.3621, 100039.0
449.8442, 100139.1
450.3263, 100192.3
450.8084, 100270.4
451.2905, 100403.3
451.7726, 100562.4
452.2548, 100616.8
452.7369, 100524.8
453.2190, 100472.5
453.7011, 100611.4
454.1832, 100933.2
454.6653, 101129.8
455.1475, 101177.0
455.6296, 101141.9
456.1117, 101083.6
456.5938, 101011.8
457.0759, 100979.0
457.5580, 101022.3
458.0402, 101109.1
458.5223, 101181.5
459.0044, 101243.2
459.4865, 101323.0
459.9686, 101493.9
460.4507, 101678.1
460.9329, 101762.4
461.4150, 101673.0
461.8971, 101594.5
462.3792, 101667.4
462.8613, 101833.7
463.3434, 101980.6
463.8256, 102037.5
464.3077, 102085.1
464.7898, 102157.8
465.2719, 102258.5
465.7540, 102378.9
466.2361, 102530.2
466.7183, 102693.4
467.2004, 102852.2
467.6825, 103043.8
468.1646, 103178.6
468.6467, 103225.3
469.1288, 103209.2
469.6109, 103218.3
470.0930, 103252.2
470.5752, 103307.0
471.0573, 103384.2
471.5394, 103485.1
472.0215, 103585.9
472.5036, 103686.4
472.9857, 103783.3
473.4679, 103887.3
473.9500, 103998.0
474.4321, 104052.4
474.9142, 104023.3
475.3963, 103940.0
475.8784, 103857.8
476.3606, 103779.7
476.8427, 103722.3
477.3248, 103699.3
477.8069, 103709.0
478.2890, 103754.2
478.7711, 103843.1
479.2533, 103941.6
479.7354, 104029.5
480.2175, 104106.1
480.6996, 104169.1
481.1817, 104144.8
481.6638, 104165.3
482.1460, 104345.0
482.6281, 104659.9
483.1102, 104922.0
483.5923, 105012.3
484.0744, 105055.9
484.5565, 105130.1
485.0387, 105270.4
485.5208, 105385.7
486.0029, 105467.7
486.4850, 105517.1
486.9671, 105531.0
487.4492, 105465.8
487.9314, 105436.5
488.4135, 105499.8
488.8956, 105653.0
489.3777, 105697.6
489.8598, 105602.1
490.3419, 105483.8
490.8241, 105434.5
491.3062, 105460.1
491.7883, 105489.6
492.2704, 105516.0
492.7525, 105547.8
493.2346, 105608.3
493.7168, 105691.6
494.1989, 105760.4
494.6810, 105786.8
495.1631, 105787.0
495.6452, 105786.8
496.1273, 105784.8
496.6095, 105787.1
497.0916, 105788.2
497.5737, 105798.8
498.0558, 105836.0
498.5379, 105919.1
499.0201, 106003.4
499.5022, 106082.2
499.9843, 106145.4
500.4664, 106169.7
500.9485, 106058.0
501.4306, 105989.9
501.9127, 106070.8
502.3948, 106330.5
502.8770, 106510.9
503.3591, 106521.0
503.8412, 106492.5
504.3233, 106514.2
504.8054, 106622.9
505.2875, 106698.4
505.7697, 106697.0
506.2518, 106673.6
506.7339, 106786.8
507.2160, 107078.0
507.6981, 107334.5
508.1802, 107455.1
508.6624, 107458.8
509.1445, 107509.2
509.6266, 107616.1
510.1087, 107706.0
510.5908, 107682.8
511.0729, 107584.2
511.5551, 107526.1
512.0372, 107533.6
512.5193, 107592.3
513.0014, 107714.6
513.4835, 107878.0
513.9656, 108020.8
514.4478, 108092.1
514.9299, 108145.1
515.4120, 108210.3
515.8941, 108288.3
516.3762, 108386.9
516.8583, 108546.1
517.3405, 108701.3
517.8226, 108800.5
518.3047, 108739.6
518.7868, 108745.5
519.2689, 108917.5
519.7510, 109160.4
520.2332, 109273.6
520.7153, 109149.0
521.1974, 109066.4
521.6795, 109129.9
522.1616, 109339.3
522.6437, 109442.0
523.1259, 109409.3
523.6080, 109349.1
524.0901, 109348.3
524.5722, 109406.6
525.0543, 109477.8
525.5364, 109561.1
526.0186, 109644.6
526.5007, 109701.7
526.9828, 109739.1
527.4649, 109790.4
527.9470, 109914.6
528.4291, 110035.6
528.9113, 110037.0
529.3934, 109931.0
529.8755, 109842.5
530.3576, 109847.7
530.8397, 109905.0
531.3218, 109987.9
531.8040, 110119.4
532.2861, 110209.5
532.7682, 110218.1
533.2503, 110170.9
533.7324, 110104.7
534.2145, 109952.6
534.6967, 109867.4
535.1788, 109905.1
535.6609, 110052.2
536.1430, 110160.3
536.6251, 110220.0
537.1072, 110257.0
537.5894, 110282.5
538.0715, 110295.5
538.5536, 110297.6
539.0357, 110275.3
539.5178, 110273.6
539.9999, 110369.3
540.4821, 110549.9
540.9642, 110721.0
541.4463, 110856.1
541.9284, 110962.7
542.4105, 111055.4
542.8926, 111130.7
543.3748, 111179.7
543.8569, 111136.7
544.3390, 111095.8
544.8211, 111180.8
545.3032, 111423.3
545.7853, 111608.1
546.2675, 111571.1
546.7495, 111449.8
547.2316, 111379.8
547.7137, 111472.5
548.1959, 111527.4
548.6780, 111476.5
549.1601, 111365.2
549.6422, 111328.0
550.1243, 111430.1
550.6064, 111512.9
551.0886, 111520.3
551.5707, 111449.8
552.0528, 111388.9
552.5349, 111329.5
553.0170, 111303.9
553.4991, 111370.5
553.9813, 111519.6
554.4634, 111594.9
554.9455, 111564.5
555.4276, 111483.1
555.9097, 111402.9
556.3918, 111335.2
556.8740, 111315.9
557.3561, 111424.9
557.8382, 111549.2
558.3203, 111549.1
558.8024, 111446.6
559.2845, 111385.6
559.7667, 111467.9
560.2488, 111600.3
560.7309, 111721.7
561.2130, 111822.2
561.6951, 111914.2
562.1772, 111981.4
562.6594, 112048.3
563.1415, 112147.0
563.6236, 112330.8
564.1057, 112451.3
564.5878, 112464.9
565.0699, 112403.3
565.5521, 112387.3
566.0342, 112427.2
566.5163, 112470.6
566.9984, 112479.3
567.4805, 112462.8
567.9626, 112521.7
568.4448, 112664.8
568.9269, 112800.0
569.4090, 112830.4
569.8911, 112790.5
570.3732, 112757.0
570.8553, 112748.6
571.3375, 112746.4
571.8196, 112706.7
572.3017, 112663.5
572.7838, 112682.4
573.2659, 112905.1
573.7480, 113086.9
574.2302, 113077.0
574.7123, 112889.8
575.1944, 112770.3
575.6765, 112842.4
576.1586, 112924.0
576.6407, 112926.2
577.1229, 112808.9
577.6050, 112744.0
578.0871, 112753.2
578.5692, 112791.5
579.0513, 112792.4
579.5334, 112745.5
580.0156, 112778.1
580.4977, 112948.8
580.9798, 113167.1
581.4619, 113230.9
581.9440, 113157.3
582.4261, 113070.7
582.9083, 113003.9
583.3904, 112978.6
583.8725, 113057.4
584.3546, 113232.1
584.8367, 113367.4
585.3188, 113319.5
585.8010, 113226.7
586.2831, 113218.6
586.7652, 113367.1
587.2473, 113493.0
587.7294, 113547.4
588.2115, 113554.2
588.6937, 113544.0
589.1758, 113473.5
589.6579, 113456.4
590.1400, 113535.1
590.6221, 113681.0
591.1042, 113769.9
591.5864, 113794.7
592.0685, 113787.6
592.5506, 113730.1
593.0327, 113639.2
593.5148, 113695.6
593.9969, 113914.5
594.4791, 114132.9
594.9612, 114195.8
595.4433, 114150.7
595.9254, 114074.5
596.4075, 113956.0
596.8896, 113888.1
597.3718, 113999.8
597.8539, 114204.1
598.3360, 114356.7
598.8181, 114358.7
599.3002, 114347.0
599.7823, 114362.3
600.2645, 114404.3
600.7466, 114466.5
601.2287, 114556.3
601.7108, 114653.6
602.1929, 114748.1
602.6750, 114835.4
603.1572, 114953.7
603.6393, 115124.4
604.1214, 115280.9
604.6035, 115333.4
605.0856, 115288.5
605.5677, 115326.0
606.0499, 115489.2
606.5320, 115694.9
607.0141, 115849.5
607.4962, 115952.0
607.9783, 116001.7
608.4604, 115914.5
608.9425, 115838.3
609.4246, 115938.8
609.9067, 116172.1
610.3889, 116347.8
610.8710, 116339.4
611.3531, 116290.3
611.8352, 116273.7
612.3173, 116304.3
612.7994, 116327.9
613.2816, 116330.4
613.7637, 116339.2
614.2458, 116378.1
614.7279, 116458.4
615.2100, 116542.1
615.6921, 116635.6
616.1743, 116721.3
616.6564, 116751.2
617.1385, 116730.4
617.6206, 116741.8
618.1027, 116833.4
618.5848, 116953.8
619.0670, 117020.8
619.5491, 117040.0
620.0312, 117040.8
620.5133, 116981.7
620.9954, 116948.2
621.4775, 117029.8
621.9597, 117237.2
622.4418, 117432.1
622.9239, 117606.0
623.4060, 117722.6
623.8881, 117751.7
624.3702, 117618.9
624.8524, 117520.7
625.3345, 117463.3
625.8166, 117435.4
626.2987, 117430.9
626.7808, 117459.9
627.2629, 117464.2
627.7451, 117428.4
628.2272, 117365.7
628.7093, 117292.6
629.1914, 117213.8
629.6735, 117169.0
630.1556, 117243.4
630.6378, 117335.4
631.1199, 117284.7
631.6020, 117101.6
632.0841, 116922.0
632.5662, 116822.7
633.0483, 116763.6
633.5305, 116712.9
634.0126, 116661.9
634.4947, 116637.6
634.9768, 116680.1
635.4589, 116732.2
635.9410, 116733.8
636.4232, 116638.2
636.9053, 116590.5
637.3874, 116618.7
637.8695, 116686.3
638.3516, 116726.5
638.8337, 116738.4
639.3159, 116712.0
639.7980, 116621.2
640.2801, 116503.4
640.7622, 116446.8
641.2443, 116445.7
641.7264, 116460.0
642.2086, 116494.6
642.6907, 116516.5
643.1728, 116473.9
643.6549, 116359.4
644.1370, 116291.8
644.6191, 116363.4
645.1013, 116476.1
645.5834, 116554.6
646.0655, 116546.6
646.5476, 116578.7
647.0297, 116670.4
647.5118, 116783.5
647.9940, 116865.8
648.4761, 116909.6
648.9582, 116934.9
649.4403, 116930.7
649.9224, 116919.1
650.4045, 116968.0
650.8867, 117066.3
651.3688, 117138.1
651.8509, 117133.2
652.3330, 117087.2
652.8151, 117042.4
653.2972, 117000.0
653.7794, 116952.8
654.2615, 116862.8
654.7436, 116797.6
655.2257, 116834.4
655.7078, 117029.4
656.1899, 117105.1
656.6721, 116904.5
657.1542, 116661.0
657.6363, 116544.9
658.1184, 116606.8
658.6005, 116639.8
659.0826, 116633.5
659.5648, 116590.5
660.0469, 116491.5
660.5290, 116342.5
661.0111, 116244.6
661.4932, 116249.7
661.9753, 116289.1
662.4575, 116260.7
662.9396, 116185.9
663.4217, 116125.4
663.9038, 116115.8
664.3859, 116131.2
664.8680, 116173.3
665.3502, 116237.5
665.8323, 116270.0
666.3144, 116244.4
666.7965, 116192.0
667.2786, 116107.5
667.7607, 115963.0
668.2429, 115924.3
668.7250, 116020.6
669.2071, 116154.5
669.6892, 116245.1
670.1713, 116289.6
670.6534, 116305.5
671.1355, 116285.8
671.6176, 116261.3
672.0997, 116312.7
672.5818, 116388.4
673.0640, 116367.9
673.5461, 116170.7
674.0282, 115940.7
674.5103, 115765.6
674.9924, 115635.2
675.4745, 115522.3
675.9567, 115429.0
676.4388, 115354.9
676.9209, 115299.3
677.4030, 115266.4
677.8851, 115279.7
678.3672, 115362.2
678.8494, 115438.8
679.3315, 115450.8
679.8136, 115407.0
680.2957, 115487.0
680.7778, 115695.7
681.2599, 115886.2
681.7421, 115892.2
682.2242, 115798.0
682.7063, 115758.7
683.1884, 115791.9
683.6705, 115872.6
684.1526, 116052.6
684.6348, 116237.8
685.1169, 116330.6
685.5990, 116238.5
686.0811, 116158.7
686.5632, 116144.6
687.0453, 116155.6
687.5275, 116134.6
688.0096, 116070.7
688.4917, 116010.2
688.9738, 115949.7
689.4559, 115910.2
689.9380, 115958.5
690.4202, 116089.4
690.9023, 116221.6
691.3844, 116331.3
691.8665, 116405.6
692.3486, 116403.7
692.8307, 116338.1
693.3129, 116285.4
693.7950, 116298.8
694.2771, 116327.7
694.7592, 116349.5
695.2413, 116364.7
695.7234, 116332.9
696.2056, 116188.3
696.6877, 116049.3
697.1698, 115989.2
697.6519, 116042.1
698.1340, 116053.2
698.6161, 116021.6
699.0983, 115961.7
699.5804, 115869.7
700.0625, 115759.7
700.5446, 115697.5
701.0267, 115702.6
701.5089, 115735.0
701.9910, 115764.5
702.4731, 115788.8
702.9552, 115803.1
703.4373, 115782.6
703.9194, 115775.6
704.4016, 115812.5
704.8837, 115873.8
705.3658, 115910.6
705.8479, 115890.7
706.3300, 115884.7
706.8121, 115919.1
707.2943, 115977.9
707.7764, 115974.0
708.2585, 115897.2
708.7406, 115839.8
709.2227, 115871.2
709.7048, 115956.9
710.1870, 116010.0
710.6691, 116032.1
711.1512, 116030.6
711.6333, 115978.1
712.1154, 115926.4
712.5975, 115930.6
713.0797, 116003.5
713.5618, 116066.2
714.0439, 116075.5
714.5260, 116078.7
715.0081, 116108.2
715.4902, 116171.5
715.9724, 116232.4
716.4545, 116281.3
716.9366, 116339.3
717.4187, 116459.0
717.9008, 116630.9
718.3829, 116693.8
718.8651, 116591.3
719.3472, 116465.2
719.8293, 116508.4
720.3114, 116651.5
720.7935, 116758.2
721.2756, 116753.5
721.7578, 116731.0
722.2399, 116707.3
722.7220, 116700.0
723.2041, 116752.8
723.6862, 116973.7
724.1683, 117118.3
724.6505, 117108.4
725.1326, 116988.4
725.6147, 116944.8
726.0968, 116988.5
726.5789, 117038.4
727.0610, 117045.2
727.5432, 117034.8
728.0253, 117093.3
728.5074, 117210.8
728.9895, 117307.3
729.4716, 117345.8
729.9537, 117330.0
730.4359, 117226.6
730.9180, 117030.5
731.4000, 116921.6
731.8821, 117011.3
732.3643, 117155.3
732.8464, 117277.4
733.3285, 117382.3
733.8106, 117436.6
734.2927, 117424.4
734.7748, 117391.7
735.2570, 117370.4
735.7391, 117361.5
736.2212, 117382.8
736.7033, 117440.2
737.1854, 117503.4
737.6675, 117572.0
738.1497, 117617.8
738.6318, 117589.1
739.1139, 117412.4
739.5960, 117283.4
740.0781, 117313.4
740.5602, 117429.7
741.0424, 117527.4
741.5245, 117598.9
742.0066, 117653.3
742.4887, 117661.0
742.9708, 117676.0
743.4529, 117831.5
743.9351, 118126.6
744.4172, 118401.2
744.8993, 118603.5
745.3814, 118746.7
745.8635, 118810.9
746.3456, 118826.7
746.8278, 118894.1
747.3099, 119151.2
747.7920, 119385.9
748.2741, 119457.4
748.7562, 119391.7
749.2383, 119358.6
749.7205, 119471.7
750.2026, 119515.6
750.6847, 119413.3
751.1668, 119182.5
751.6489, 118966.5
752.1310, 118759.9
752.6132, 118627.7
753.0953, 118629.8
753.5774, 118735.2
754.0595, 118884.5
754.5416, 119072.2
755.0237, 119237.6
755.5059, 119322.8
755.9880, 119375.7
756.4701, 119426.6
756.9522, 119471.1
757.4343, 119537.1
757.9164, 119661.5
758.3986, 119773.7
758.8807, 119827.6
759.3628, 119804.2
759.8449, 119817.0
760.3270, 119879.0
760.8091, 119951.2
761.2913, 119998.9
761.7734, 120029.7
762.2555, 120057.3
762.7376, 120084.7
763.2197, 120130.5
763.7018, 120232.6
764.1840, 120353.6
764.6661, 120444.8
765.1482, 120425.3
765.6303, 120485.3
766.1124, 120717.7
766.5945, 121004.6
767.0767, 121198.8
767.5588, 121251.8
768.0409, 121371.5
768.5230, 121595.6
769.0051, 121863.3
769.4872, 122087.0
769.9694, 122273.0
770.4515, 122450.1
770.9336, 122639.6
771.4157, 122801.4
771.8978, 122876.6
772.3799, 122903.6
772.8621, 122954.8
773.3442, 123083.2
773.8263, 123209.5
774.3084, 123336.1
774.7905, 123450.0
775.2726, 123506.9
775.7548, 123492.3
776.2369, 123483.9
776.7190, 123494.6
777.2011, 123540.5
777.6832, 123686.8
778.1653, 123914.4
778.6475, 124118.0
779.1296, 124161.2
779.6117, 124220.4
780.0938, 124480.6
780.5759, 124893.2
781.0580, 125272.8
781.5402, 125559.4
782.0223, 125799.9
782.5044, 125984.5
782.9865, 126124.1
783.4686, 126335.4
783.9507, 126631.1
784.4329, 126953.7
784.9150, 127270.0
785.3971, 127600.0
785.8792, 128027.7
786.3613, 128543.9
786.8434, 129039.9
787.3256, 129419.1
787.8077, 129764.0
788.2898, 130140.8
788.7719, 130551.5
789.2540, 130981.4
789.7361, 131480.6
790.2183, 131938.0
790.7004, 132270.7
791.1825, 132467.6
791.6646, 132836.5
792.1467, 133426.3
792.6288, 133944.6
793.1110, 134148.5
793.5930, 134122.3
794.0751, 134099.5
794.5573, 134089.0
795.0394, 134036.9
795.5215, 133901.5
796.0036, 133714.4
796.4857, 133510.6
796.9678, 133311.9
797.4500, 133018.6
797.9321, 132607.0
798.4142, 132118.6
798.8963, 131550.9
799.3784, 130871.1
799.8605, 130334.2
800.3427, 129958.2
800.8248, 129611.1
801.3069, 129132.6
801.7890, 128598.8
802.2711, 128169.7
802.7532, 127870.3
803.2354, 127599.7
803.7175, 127318.6
804.1996, 127017.4
804.6817, 126675.7
805.1638, 126228.6
805.6459, 125900.3
806.1281, 125745.2
806.6102, 125638.1
807.0923, 125463.5
807.5744, 125222.4
808.0565, 125031.4
808.5386, 124905.3
809.0208, 124792.8
809.5029, 124622.9
809.9850, 124438.9
810.4671, 124317.5
810.9492, 124290.9
811.4313, 124260.5
811.9135, 124174.1
812.3956, 124070.7
812.8777, 123986.7
813.3598, 123930.9
813.8419, 123872.9
814.3240, 123807.9
814.8062, 123748.9
815.2883, 123703.5
815.7704, 123674.8
816.2525, 123690.6
816.7346, 123766.5
817.2167, 123826.9
817.6989, 123804.1
818.1810, 123723.5
818.6631, 123606.0
819.1452, 123393.3
819.6273, 123280.0
820.1094, 123413.4
820.5916, 123599.8
821.0737, 123661.3
821.5558, 123565.4
822.0379, 123492.7
822.5200, 123460.9
823.0021, 123446.4
823.4843, 123410.0
823.9664, 123367.6
824.4485, 123361.6
824.9306, 123403.7
825.4127, 123468.3
825.8948, 123553.4
826.3770, 123640.0
826.8591, 123708.5
827.3412, 123732.3
827.8233, 123764.8
828.3054, 123811.6
828.7875, 123857.0
829.2697, 123889.5
829.7518, 123909.6
830.2339, 123886.3
830.7160, 123810.9
831.1981, 123720.3
831.6802, 123684.5
832.1624, 123654.3
832.6445, 123535.7
833.1266, 123238.8
833.6087, 123023.5
834.0908, 123062.4
834.5729, 123186.8
835.0551, 123218.5
835.5372, 123126.2
836.0193, 123014.3
836.5014, 122864.6
836.9835, 122748.6
837.4656, 122816.2
837.9478, 123000.6
838.4299, 123039.3
838.9120, 122859.0
839.3941, 122661.3
839.8762, 122649.8
840.3583, 122688.3
840.8405, 122614.0
841.3226, 122259.0
841.8047, 122065.8
842.2868, 122143.7
842.7689, 122298.6
843.2510, 122346.7
843.7332, 122282.9
844.2153, 122169.7
844.6974, 122002.6
845.1795, 121830.4
845.6616, 121704.4
846.1437, 121609.6
846.6259, 121538.0
847.1080, 121507.1
847.5901, 121416.0
848.0722, 121138.5
848.5543, 120835.7
849.0364, 120656.4
849.5186, 120670.5
850.0007, 120601.7
850.4828, 120430.6
850.9649, 120233.4
851.4470, 120073.5
851.9291, 119952.2
852.4113, 119879.1
852.8934, 119860.3
853.3755, 119834.9
853.8576, 119723.4
854.3397, 119607.2
854.8218, 119572.2
855.3039, 119673.7
855.7860, 119703.0
856.2681, 119597.6
856.7502, 119480.6
857.2324, 119425.2
857.7145, 119430.5
858.1966, 119515.4
858.6787, 119686.9
859.1608, 119836.4
859.6429, 119846.8
860.1251, 119790.2
860.6072, 119764.8
861.0893, 119781.8
861.5714, 119769.5
862.0535, 119632.4
862.5356, 119520.2
863.0178, 119542.7
863.4999, 119724.3
863.9820, 119739.1
864.4641, 119558.4
864.9462, 119341.5
865.4283, 119162.5
865.9105, 119040.9
866.3926, 119070.8
866.8747, 119236.8
867.3568, 119347.5
867.8389, 119228.5
868.3210, 119070.1
868.8032, 119008.4
869.2853, 119056.3
869.7674, 119000.4
870.2495, 118780.0
870.7316, 118578.9
871.2137, 118468.1
871.6959, 118446.2
872.1780, 118560.5
872.6601, 118789.8
873.1422, 118928.8
873.6243, 118742.1
874.1064, 118500.7
874.5886, 118437.5
875.0707, 118529.7
875.5528, 118631.1
876.0349, 118708.9
876.5170, 118786.1
876.9991, 118867.2
877.4813, 118949.3
877.9634, 119031.7
878.4455, 119114.8
878.9276, 119164.0
879.4097, 119145.1
879.8918, 119109.3
880.3740, 119142.0
880.8561, 119212.8
881.3382, 119244.7
881.8203, 119189.7
882.3024, 119116.3
882.7845, 119026.9
883.2667, 118938.3
883.7488, 118876.2
884.2309, 118835.8
884.7130, 118847.9
885.1951, 118930.6
885.6772, 119044.1
886.1594, 119144.3
886.6415, 119225.8
887.1236, 119278.1
887.6057, 119293.8
888.0878, 119288.3
888.5699, 119263.5
889.0521, 119224.8
889.5342, 119174.2
890.0163, 119083.3
890.4984, 119059.7
890.9805, 119116.9
891.4626, 119228.1
891.9448, 119389.6
892.4269, 119575.3
892.9090, 119705.0
893.3911, 119756.2
893.8732, 119775.6
894.3553, 119760.3
894.8375, 119744.6
895.3196, 119766.9
895.8017, 119864.9
896.2838, 119900.8
896.7659, 119856.1
897.2480, 119781.7
897.7302, 119724.5
898.2123, 119678.9
898.6944, 119588.1
899.1765, 119453.1
899.6586, 119313.3
900.1407, 119206.4
900.6229, 119111.4
901.1050, 119011.7
901.5871, 118906.2
902.0692, 118815.3
902.5513, 118721.7
903.0334, 118671.3
903.5156, 118702.3
903.9977, 118797.0
904.4798, 118823.0
904.9619, 118780.2
905.4440, 118717.4
905.9261, 118628.2
906.4083, 118558.1
906.8904, 118583.2
907.3725, 118674.8
907.8546, 118710.3
908.3367, 118578.4
908.8188, 118478.1
909.3010, 118467.9
909.7831, 118519.6
910.2652, 118553.4
910.7473, 118569.6
911.2294, 118578.2
911.7115, 118577.9
912.1937, 118579.4
912.6758, 118598.5
913.1579, 118627.6
913.6400, 118652.6
914.1221, 118683.8
914.6042, 118687.1
915.0864, 118641.5
915.5685, 118576.5
916.0506, 118540.7
916.5327, 118541.7
917.0148, 118478.2
917.4969, 118320.8
917.9790, 118181.5
918.4611, 118220.4
918.9432, 118350.1
919.4254, 118434.0
919.9075, 118426.7
920.3896, 118447.2
920.8717, 118534.2
921.3538, 118662.8
921.8359, 118823.9
922.3181, 119025.4
922.8002, 119173.4
923.2823, 119256.8
923.7644, 119338.7
924.2465, 119479.3
924.7286, 119639.4
925.2108, 119761.6
925.6929, 119843.1
926.1750, 119910.3
926.6571, 119982.1
927.1392, 120032.6
927.6213, 120042.3
928.1035, 120020.6
928.5856, 120025.6
929.0677, 120059.0
929.5498, 120128.1
930.0319, 120267.7
930.5140, 120419.6
930.9962, 120474.8
931.4783, 120467.3
931.9604, 120486.0
932.4425, 120586.7
932.9246, 120697.9
933.4067, 120821.2
933.8889, 120931.9
934.3710, 120972.3
934.8531, 120922.2
935.3352, 120942.6
935.8173, 121073.8
936.2994, 121242.6
936.7816, 121342.7
937.2637, 121415.5
937.7458, 121540.2
938.2279, 121766.8
938.7100, 121953.1
939.1921, 122047.1
939.6743, 122080.2
940.1564, 122057.8
940.6385, 121953.7
941.1206, 121987.9
941.6027, 122189.4
942.0848, 122334.1
942.5670, 122130.4
943.0491, 121801.6
943.5312, 121686.5
944.0133, 121795.6
944.4954, 121879.3
944.9775, 121865.6
945.4597, 121778.5
945.9418, 121605.7
946.4239, 121367.0
946.9060, 121203.7
947.3881, 121118.6
947.8702, 121059.2
948.3524, 121029.3
948.8345, 120984.7
949.3166, 120823.6
949.7987, 120601.4
950.2808, 120451.1
950.7629, 120491.6
951.2451, 120519.7
951.7272, 120474.1
952.2093, 120407.3
952.6914, 120426.7
953.1735, 120537.6
953.6556, 120507.6
954.1378, 120272.3
954.6199, 120007.5
955.1020, 119885.3
955.5841, 119850.1
956.0662, 119841.2
956.5483, 119860.9
957.0305, 119857.1
957.5126, 119823.8
957.9947, 119764.5
958.4768, 119668.8
958.9589, 119539.2
959.4410, 119466.2
959.9232, 119449.6
960.4053, 119435.5
960.8874, 119336.9
961.3695, 119257.7
961.8516, 119353.0
962.3337, 119582.9
962.8159, 119683.1
963.2980, 119489.6
963.7801, 119335.7
964.2622, 119320.9
964.7443, 119378.0
965.2264, 119322.8
965.7086, 119170.4
966.1907, 119008.1
966.6728, 118834.5
967.1549, 118720.4
967.6370, 118802.5
968.1191, 118952.1
968.6013, 118987.9
969.0834, 118736.4
969.5655, 118647.7
970.0476, 118789.7
970.5297, 118964.0
971.0118, 118952.3
971.4940, 118804.4
971.9761, 118706.5
972.4582, 118673.2
972.9403, 118672.1
973.4224, 118765.8
973.9045, 118814.1
974.3867, 118637.5
974.8688, 118238.6
975.3509, 118185.0
975.8330, 118593.5
976.3151, 118946.2
976.7972, 118990.0
977.2794, 118851.4
977.7615, 118766.1
978.2435, 118730.0
978.7256, 118730.1
979.2078, 118836.6
979.6899, 118886.1
980.1720, 118745.1
980.6541, 118542.3
981.1362, 118481.5
981.6183, 118597.0
982.1005, 118656.6
982.5826, 118634.2
983.0647, 118557.9
983.5468, 118427.0
984.0289, 118278.8
984.5110, 118172.5
984.9932, 118121.2
985.4753, 118083.4
985.9574, 118077.1
986.4395, 118050.8
986.9216, 117960.3
987.4037, 117816.4
987.8859, 117792.6
988.3680, 117885.9
988.8501, 117948.9
989.3322, 117861.2
989.8143, 117730.1
990.2964, 117637.0
990.7786, 117584.5
991.2607, 117578.6
991.7428, 117707.2
992.2249, 117737.2
992.7070, 117591.0
993.1891, 117398.8
993.6713, 117396.7
994.1534, 117543.2
994.6355, 117645.4
995.1176, 117654.4
995.5997, 117675.5
996.0818, 117855.0
996.5640, 118033.0
997.0461, 118030.9
997.5282, 117784.0
998.0103, 117713.8
998.4924, 117871.4
998.9745, 118035.4
999.4567, 118029.1
999.9388, 117937.6
1000.421, 117969.1
1000.903, 118098.3
1001.385, 118220.7
1001.867, 118324.3
1002.349, 118364.9
1002.831, 118270.4
1003.314, 118120.9
1003.796, 118084.8
1004.278, 118173.5
1004.760, 118227.6
1005.242, 118215.6
1005.724, 118168.2
1006.206, 118099.6
1006.688, 118028.1
1007.171, 117981.7
1007.653, 117980.3
1008.135, 117952.7
1008.617, 117875.0
1009.099, 117795.4
1009.581, 117731.7
1010.063, 117688.3
1010.545, 117721.9
1011.027, 117822.2
1011.510, 117904.2
1011.992, 117901.8
1012.474, 117874.5
1012.956, 117834.9
1013.438, 117800.7
1013.920, 117839.5
1014.402, 118017.4
1014.884, 118048.2
1015.367, 117825.6
1015.849, 117578.8
1016.331, 117739.8
1016.813, 118110.1
1017.295, 118239.9
1017.777, 117982.9
1018.259, 117771.1
1018.741, 117826.5
1019.223, 117943.3
1019.706, 118018.9
1020.188, 118054.0
1020.670, 117948.9
1021.152, 117698.2
1021.634, 117532.5
1022.116, 117661.3
1022.598, 117891.7
1023.080, 118051.1
1023.563, 118148.5
1024.045, 118212.5
1024.527, 118184.7
1025.009, 118232.7
1025.491, 118416.7
1025.973, 118611.4
1026.455, 118594.9
1026.937, 118427.7
1027.419, 118340.7
1027.901, 118379.4
1028.384, 118439.2
1028.866, 118488.8
1029.348, 118509.9
1029.830, 118474.2
1030.312, 118386.0
1030.794, 118363.4
1031.276, 118422.5
1031.758, 118463.7
1032.241, 118435.6
1032.723, 118365.6
1033.205, 118251.9
1033.687, 118130.8
1034.169, 118082.7
1034.651, 118237.2
1035.133, 118314.5
1035.615, 118207.9
1036.098, 118089.8
1036.580, 118225.2
1037.062, 118560.9
1037.544, 118739.4
1038.026, 118717.1
1038.508, 118628.4
1038.990, 118496.8
1039.472, 118394.3
1039.954, 118399.4
1040.437, 118507.8
1040.919, 118554.4
1041.401, 118521.8
1041.883, 118517.7
1042.365, 118609.3
1042.847, 118721.4
1043.329, 118740.2
1043.811, 118680.3
1044.293, 118560.4
1044.776, 118280.8
1045.258, 118133.9
1045.740, 118262.8
1046.222, 118446.2
1046.704, 118487.2
1047.186, 118392.0
1047.668, 118319.4
1048.150, 118273.0
1048.633, 118238.6
1049.115, 118204.3
1049.597, 118178.6
1050.079, 118139.2
1050.561, 118108.6
1051.043, 118212.2
1051.525, 118512.1
1052.007, 118741.5
1052.490, 118832.3
1052.972, 118836.4
1053.454, 118785.2
1053.936, 118716.5
1054.418, 118702.1
1054.900, 118763.0
1055.382, 118853.0
1055.864, 118984.4
1056.346, 119107.9
1056.828, 119206.1
1057.311, 119273.6
1057.793, 119237.6
1058.275, 119107.7
1058.757, 119000.7
1059.239, 119013.1
1059.721, 119046.1
1060.203, 119057.9
1060.685, 119041.9
1061.168, 118983.3
1061.650, 118880.1
1062.132, 118752.2
1062.614, 118593.9
1063.096, 118454.8
1063.578, 118393.4
1064.060, 118388.4
1064.542, 118405.8
1065.025, 118441.5
1065.507, 118507.6
1065.989, 118661.6
1066.471, 118778.0
1066.953, 118819.2
1067.435, 118788.6
1067.917, 118644.9
1068.399, 118421.6
1068.881, 118319.0
1069.364, 118478.2
1069.846, 118645.2
1070.328, 118615.0
1070.810, 118532.7
1071.292, 118568.6
1071.774, 118762.6
1072.256, 118926.8
1072.738, 119064.5
1073.220, 119119.5
1073.703, 118997.9
1074.185, 118797.0
1074.667, 118582.0
1075.149, 118385.5
1075.631, 118348.7
1076.113, 118708.8
1076.595, 118904.3
1077.077, 118789.7
1077.559, 118557.0
1078.042, 118551.0
1078.524, 118693.0
1079.006, 118718.3
1079.488, 118560.5
1079.970, 118440.5
1080.452, 118519.5
1080.934, 118633.8
1081.416, 118683.8
1081.899, 118675.1
1082.381, 118653.7
1082.863, 118618.5
1083.345, 118642.5
1083.827, 118789.1
1084.309, 118958.6
1084.791, 119044.7
1085.273, 119095.7
1085.755, 119199.4
1086.238, 119435.2
1086.720, 119556.1
1087.202, 119545.1
1087.684, 119463.3
1088.166, 119315.8
1088.648, 119157.0
1089.130, 119099.3
1089.612, 119134.7
1090.094, 119171.8
1090.577, 119173.0
1091.059, 119179.2
1091.541, 119185.0
1092.023, 119219.7
1092.505, 119374.6
1092.987, 119617.4
1093.469, 119786.4
1093.951, 119845.8
1094.434, 119843.8
1094.916, 119736.5
1095.398, 119637.4
1095.880, 119641.9
1096.362, 119743.4
1096.844, 119826.3
1097.326, 119890.5
1097.808, 119933.0
1098.291, 119956.1
1098.773, 119952.3
1099.255, 119885.5
1099.737, 119797.0
1100.219, 119752.9
1100.701, 119771.8
1101.183, 119844.8
1101.665, 120004.0
1102.147, 120134.8
1102.630, 120091.5
1103.112, 119963.9
1103.594, 119943.7
1104.076, 120019.1
1104.558, 120090.2
1105.040, 120102.7
1105.522, 120119.9
1106.004, 120164.5
1106.486, 120211.0
1106.969, 120220.7
1107.451, 120193.6
1107.933, 120121.0
1108.415, 119997.8
1108.897, 119882.3
1109.379, 119791.8
1109.861, 119749.5
1110.343, 119817.3
1110.826, 119965.3
1111.308, 119912.2
1111.790, 119649.1
1112.272, 119475.8
1112.754, 119527.1
1113.236, 119665.7
1113.718, 119824.5
1114.200, 119947.3
1114.682, 119937.6
1115.165, 119690.3
1115.647, 119606.1
1116.129, 119730.5
1116.611, 119848.6
1117.093, 119752.8
1117.575, 119577.9
1118.057, 119575.5
1118.539, 119701.4
1119.021, 119808.4
1119.504, 119893.5
1119.986, 119881.0
1120.468, 119719.6
1120.950, 119532.4
1121.432, 119492.4
1121.914, 119558.2
1122.396, 119584.6
1122.878, 119561.2
1123.361, 119546.1
1123.843, 119573.2
1124.325, 119614.0
1124.807, 119647.9
1125.289, 119688.7
1125.771, 119777.2
1126.253, 119910.3
1126.735, 120074.6
1127.218, 120279.3
1127.700, 120450.8
1128.182, 120493.7
1128.664, 120499.3
1129.146, 120550.3
1129.628, 120645.4
1130.110, 120724.8
1130.592, 120786.3
1131.074, 120816.9
1131.557, 120800.9
1132.039, 120761.4
1132.521, 120695.4
1133.003, 120636.8
1133.485, 120650.0
1133.967, 120843.3
1134.449, 120897.4
1134.931, 120793.1
1135.413, 120640.0
1135.896, 120487.7
1136.378, 120373.3
1136.860, 120399.8
1137.342, 120527.5
1137.824, 120589.9
1138.306, 120446.9
1138.788, 120358.2
1139.270, 120364.5
1139.752, 120413.4
1140.235, 120450.8
1140.717, 120466.6
1141.199, 120412.4
1141.681, 120282.7
1142.163, 120212.8
1142.645, 120375.2
1143.127, 120471.8
1143.609, 120359.5
1144.092, 120136.8
1144.574, 120097.3
1145.056, 120201.9
1145.538, 120216.0
1146.020, 120067.1
1146.502, 119909.8
1146.984, 119805.7
1147.466, 119775.2
1147.948, 119855.7
1148.431, 120034.9
1148.913, 120092.4
1149.395, 120033.2
1149.877, 120004.6
1150.359, 120099.0
1150.841, 120198.2
1151.323, 120165.6
1151.805, 120101.2
1152.287, 120147.9
1152.770, 120341.3
1153.252, 120468.6
1153.734, 120521.5
1154.216, 120566.3
1154.698, 120699.6
1155.180, 120807.4
1155.662, 120726.5
1156.144, 120529.4
1156.627, 120424.5
1157.109, 120480.3
1157.591, 120478.5
1158.073, 120384.4
1158.555, 120305.7
1159.037, 120398.3
1159.519, 120544.5
1160.001, 120569.3
1160.484, 120474.9
1160.966, 120389.0
1161.448, 120301.0
1161.930, 120298.4
1162.412, 120441.1
1162.894, 120582.8
1163.376, 120453.7
1163.858, 120174.2
1164.340, 119975.9
1164.823, 119897.3
1165.305, 119869.0
1165.787, 119931.2
1166.269, 119958.2
1166.751, 119888.8
1167.233, 119778.8
1167.715, 119773.7
1168.197, 119842.4
1168.679, 119895.7
1169.162, 119916.2
1169.644, 119892.0
1170.126, 119705.3
1170.608, 119596.8
1171.090, 119745.3
1171.572, 120077.9
1172.054, 120208.0
1172.536, 120174.0
1173.019, 120176.8
1173.501, 120339.9
1173.983, 120502.3
1174.465, 120633.2
1174.947, 120706.0
1175.429, 120666.4
1175.911, 120522.3
1176.393, 120504.6
1176.875, 120604.7
1177.358, 120674.8
1177.840, 120596.8
1178.322, 120499.9
1178.804, 120430.2
1179.286, 120396.9
1179.768, 120423.3
1180.250, 120510.1
1180.732, 120589.6
1181.214, 120655.9
1181.697, 120694.4
1182.179, 120649.6
1182.661, 120613.3
1183.143, 120693.0
1183.625, 120821.5
1184.107, 120797.3
1184.589, 120607.3
1185.071, 120439.8
1185.554, 120320.1
1186.036, 120274.5
1186.518, 120442.6
1187.000, 120606.6
1187.482, 120502.1
1187.964, 120182.1
1188.446, 120154.6
1188.928, 120469.6
1189.411, 120599.2
1189.893, 120356.8
1190.375, 120014.0
1190.857, 119797.9
1191.339, 119676.3
1191.821, 119635.8
1192.303, 119678.6
1192.785, 119699.5
1193.267, 119690.8
1193.750, 119711.4
1194.232, 119798.1
1194.714, 119901.7
1195.196, 119993.5
1195.678, 120053.1
1196.160, 120039.0
1196.642, 119912.5
1197.124, 119858.2
1197.606, 119886.3
1198.089, 119922.2
1198.571, 119941.3
1199.053, 119925.8
1199.535, 119811.1
1200.017, 119658.3
1200.499, 119584.6
1200.981, 119649.5
1201.463, 119699.3
1201.945, 119736.5
1202.428, 119740.7
1202.910, 119651.4
1203.392, 119551.6
1203.874, 119557.4
1204.356, 119641.6
1204.838, 119720.6
1205.320, 119784.3
1205.802, 119836.4
1206.285, 119877.1
1206.767, 119903.5
1207.249, 119913.1
1207.731, 119905.8
1208.213, 119857.8
1208.695, 119785.0
1209.177, 119785.5
1209.659, 119914.0
1210.141, 119988.0
1210.624, 119967.4
1211.106, 119929.5
1211.588, 119973.1
1212.070, 120048.1
1212.552, 120101.4
1213.034, 120123.9
1213.516, 120080.7
1213.998, 119943.5
1214.480, 119817.7
1214.963, 119720.7
1215.445, 119658.2
1215.927, 119682.9
1216.409, 119724.5
1216.891, 119669.0
1217.373, 119497.1
1217.855, 119367.4
1218.337, 119279.8
1218.820, 119280.8
1219.302, 119420.1
1219.784, 119582.0
1220.266, 119578.6
1220.748, 119489.6
1221.230, 119422.9
1221.712, 119397.7
1222.194, 119402.3
1222.677, 119454.7
1223.159, 119463.1
1223.641, 119359.7
1224.123, 119236.3
1224.605, 119259.0
1225.087, 119344.0
1225.569, 119346.7
1226.051, 119168.3
1226.533, 119164.8
1227.016, 119399.5
1227.498, 119600.2
1227.980, 119608.9
1228.462, 119519.7
1228.944, 119425.2
1229.426, 119346.9
1229.908, 119329.6
1230.390, 119440.6
1230.872, 119456.8
1231.355, 119360.2
1231.837, 119253.6
1232.319, 119197.0
1232.801, 119177.4
1233.283, 119198.6
1233.765, 119238.7
1234.247, 119241.5
1234.729, 119104.8
1235.212, 119222.1
1235.694, 119660.0
1236.176, 120003.9
1236.658, 119806.4
1237.140, 119441.9
1237.622, 119317.1
1238.104, 119369.6
1238.586, 119429.8
1239.068, 119502.5
1239.551, 119509.1
1240.033, 119441.6
1240.515, 119351.0
1240.997, 119246.7
1241.479, 119172.8
1241.961, 119226.2
1242.443, 119344.0
1242.925, 119319.6
1243.407, 119094.7
1243.890, 119004.7
1244.372, 119087.7
1244.854, 119225.9
1245.336, 119361.3
1245.818, 119458.2
1246.300, 119432.7
1246.782, 119337.4
1247.264, 119379.2
1247.747, 119582.4
1248.229, 119671.4
1248.711, 119604.1
1249.193, 119474.1
1249.675, 119287.5
1250.157, 119136.1
1250.639, 119165.1
1251.121, 119282.7
1251.604, 119181.6
1252.086, 118858.4
1252.568, 118631.1
1253.050, 118557.9
1253.532, 118560.8
1254.014, 118637.1
1254.496, 118716.1
1254.978, 118734.6
1255.460, 118718.3
1255.943, 118760.5
1256.425, 118848.4
1256.907, 118834.7
1257.389, 118673.3
1257.871, 118535.9
1258.353, 118557.4
1258.835, 118615.1
1259.317, 118675.4
1259.799, 118699.0
1260.281, 118497.5
1260.764, 118135.9
1261.246, 117983.4
1261.728, 118164.2
1262.210, 118288.6
1262.692, 118135.8
1263.174, 117900.4
1263.656, 117634.6
1264.138, 117391.3
1264.621, 117344.8
1265.103, 117448.3
1265.585, 117557.6
1266.067, 117649.0
1266.549, 117691.9
1267.031, 117596.7
1267.513, 117560.5
1267.995, 117684.7
1268.478, 117884.2
1268.960, 117928.8
1269.442, 117893.1
1269.924, 117970.6
1270.406, 118246.7
1270.888, 118436.5
1271.370, 118468.4
1271.852, 118472.0
1272.334, 118506.9
1272.817, 118536.1
1273.299, 118458.8
1273.781, 118339.2
1274.263, 118302.8
1274.745, 118424.2
1275.227, 118443.6
1275.709, 118328.2
1276.191, 118222.2
1276.673, 118209.5
1277.156, 118222.9
1277.638, 118175.7
1278.120, 118091.6
1278.602, 117994.2
1279.084, 117879.5
1279.566, 117827.6
##END=



