##NAMES=Utahite
##RRUFFID=R190036
##IDEAL CHEMISTRY=MgCu^2+^_4_Zn^2+^_2_Te^6+^_3_O_14_(OH)_4_&#183;6H_2_O
##LOCALITY=Tombstone, Cochise County, Arizona, USA
##OWNER=RRUFF
##SOURCE=Peter Megaw
##DESCRIPTION=Blue acicular crystals found as isolated crystals, or as sprays, associated with quartz and greenish dugganite
##STATUS=The identification of this mineral has been confirmed by single-crystal X-ray diffraction.
##URL=rruff.info/R190036
9.529590e+001, 1.038422e+003
9.577802e+001, 9.971742e+002
9.626013e+001, 9.605023e+002
9.674225e+001, 9.270961e+002
9.722437e+001, 8.964891e+002
9.770648e+001, 8.712448e+002
9.818860e+001, 8.548828e+002
9.867072e+001, 8.403444e+002
9.915283e+001, 8.239461e+002
9.963495e+001, 8.052889e+002
1.001171e+002, 7.862800e+002
1.005992e+002, 7.696803e+002
1.010813e+002, 7.562781e+002
1.015634e+002, 7.426440e+002
1.020455e+002, 7.269794e+002
1.025276e+002, 7.113004e+002
1.030098e+002, 6.969603e+002
1.034919e+002, 6.844402e+002
1.039740e+002, 6.735753e+002
1.044561e+002, 6.641837e+002
1.049382e+002, 6.561674e+002
1.054203e+002, 6.496068e+002
1.059025e+002, 6.460468e+002
1.063846e+002, 6.438219e+002
1.068667e+002, 6.403773e+002
1.073488e+002, 6.342599e+002
1.078309e+002, 6.253705e+002
1.083131e+002, 6.142831e+002
1.087952e+002, 5.979863e+002
1.092773e+002, 5.823297e+002
1.097594e+002, 5.711498e+002
1.102415e+002, 5.643429e+002
1.107236e+002, 5.587257e+002
1.112058e+002, 5.516077e+002
1.116879e+002, 5.437303e+002
1.121700e+002, 5.375443e+002
1.126521e+002, 5.355231e+002
1.131342e+002, 5.349980e+002
1.136163e+002, 5.309060e+002
1.140985e+002, 5.211010e+002
1.145806e+002, 5.118451e+002
1.150627e+002, 5.080847e+002
1.155448e+002, 5.081000e+002
1.160269e+002, 5.078300e+002
1.165090e+002, 5.043613e+002
1.169912e+002, 4.977742e+002
1.174733e+002, 4.916286e+002
1.179554e+002, 4.860241e+002
1.184375e+002, 4.808970e+002
1.189196e+002, 4.764616e+002
1.194017e+002, 4.725847e+002
1.198839e+002, 4.688090e+002
1.203660e+002, 4.643903e+002
1.208481e+002, 4.584862e+002
1.213302e+002, 4.541522e+002
1.218123e+002, 4.515065e+002
1.222944e+002, 4.499282e+002
1.227766e+002, 4.496222e+002
1.232587e+002, 4.504370e+002
1.237408e+002, 4.512612e+002
1.242229e+002, 4.500096e+002
1.247050e+002, 4.455387e+002
1.251871e+002, 4.401197e+002
1.256693e+002, 4.311442e+002
1.261514e+002, 4.218981e+002
1.266335e+002, 4.174575e+002
1.271156e+002, 4.206142e+002
1.275977e+002, 4.281478e+002
1.280798e+002, 4.301779e+002
1.285620e+002, 4.247262e+002
1.290441e+002, 4.185902e+002
1.295262e+002, 4.144424e+002
1.300083e+002, 4.118770e+002
1.304904e+002, 4.091896e+002
1.309725e+002, 4.052015e+002
1.314547e+002, 4.007441e+002
1.319368e+002, 3.975992e+002
1.324189e+002, 3.966095e+002
1.329010e+002, 3.960486e+002
1.333831e+002, 3.940905e+002
1.338652e+002, 3.904984e+002
1.343474e+002, 3.868141e+002
1.348295e+002, 3.835138e+002
1.353116e+002, 3.806649e+002
1.357937e+002, 3.784999e+002
1.362758e+002, 3.773868e+002
1.367579e+002, 3.768143e+002
1.372401e+002, 3.753951e+002
1.377222e+002, 3.726157e+002
1.382043e+002, 3.696998e+002
1.386864e+002, 3.668414e+002
1.391685e+002, 3.641514e+002
1.396507e+002, 3.618462e+002
1.401328e+002, 3.602197e+002
1.406149e+002, 3.592177e+002
1.410970e+002, 3.573644e+002
1.415791e+002, 3.540855e+002
1.420612e+002, 3.504347e+002
1.425434e+002, 3.459803e+002
1.430255e+002, 3.412600e+002
1.435076e+002, 3.374399e+002
1.439897e+002, 3.357441e+002
1.444718e+002, 3.367464e+002
1.449539e+002, 3.366486e+002
1.454361e+002, 3.350899e+002
1.459182e+002, 3.329959e+002
1.464003e+002, 3.303252e+002
1.468824e+002, 3.273122e+002
1.473645e+002, 3.250318e+002
1.478466e+002, 3.250045e+002
1.483288e+002, 3.283517e+002
1.488109e+002, 3.297890e+002
1.492930e+002, 3.282932e+002
1.497751e+002, 3.252701e+002
1.502572e+002, 3.217931e+002
1.507393e+002, 3.179553e+002
1.512215e+002, 3.145332e+002
1.517036e+002, 3.132188e+002
1.521857e+002, 3.139407e+002
1.526678e+002, 3.140505e+002
1.531499e+002, 3.120706e+002
1.536320e+002, 3.088335e+002
1.541142e+002, 3.065149e+002
1.545963e+002, 3.060885e+002
1.550784e+002, 3.060997e+002
1.555605e+002, 3.051331e+002
1.560426e+002, 3.032157e+002
1.565247e+002, 3.006248e+002
1.570069e+002, 2.969315e+002
1.574890e+002, 2.921813e+002
1.579711e+002, 2.888227e+002
1.584532e+002, 2.890058e+002
1.589353e+002, 2.895993e+002
1.594174e+002, 2.882429e+002
1.598996e+002, 2.846761e+002
1.603817e+002, 2.808734e+002
1.608638e+002, 2.792994e+002
1.613459e+002, 2.806299e+002
1.618280e+002, 2.819650e+002
1.623101e+002, 2.836843e+002
1.627923e+002, 2.847887e+002
1.632744e+002, 2.843376e+002
1.637565e+002, 2.821112e+002
1.642386e+002, 2.789330e+002
1.647207e+002, 2.762630e+002
1.652028e+002, 2.742372e+002
1.656850e+002, 2.726348e+002
1.661671e+002, 2.718629e+002
1.666492e+002, 2.712630e+002
1.671313e+002, 2.701579e+002
1.676134e+002, 2.682669e+002
1.680955e+002, 2.659031e+002
1.685777e+002, 2.639782e+002
1.690598e+002, 2.635987e+002
1.695419e+002, 2.623874e+002
1.700240e+002, 2.591854e+002
1.705061e+002, 2.552430e+002
1.709883e+002, 2.523835e+002
1.714704e+002, 2.515911e+002
1.719525e+002, 2.523569e+002
1.724346e+002, 2.525582e+002
1.729167e+002, 2.518311e+002
1.733988e+002, 2.510890e+002
1.738810e+002, 2.505893e+002
1.743631e+002, 2.502825e+002
1.748452e+002, 2.501001e+002
1.753273e+002, 2.501266e+002
1.758094e+002, 2.501530e+002
1.762915e+002, 2.495390e+002
1.767737e+002, 2.478518e+002
1.772558e+002, 2.460610e+002
1.777379e+002, 2.447377e+002
1.782200e+002, 2.438577e+002
1.787021e+002, 2.430843e+002
1.791842e+002, 2.421861e+002
1.796664e+002, 2.413068e+002
1.801485e+002, 2.407141e+002
1.806306e+002, 2.405673e+002
1.811127e+002, 2.405731e+002
1.815948e+002, 2.405173e+002
1.820769e+002, 2.404432e+002
1.825591e+002, 2.400488e+002
1.830412e+002, 2.385217e+002
1.835233e+002, 2.367725e+002
1.840054e+002, 2.358885e+002
1.844875e+002, 2.365412e+002
1.849696e+002, 2.378805e+002
1.854518e+002, 2.384004e+002
1.859339e+002, 2.379982e+002
1.864160e+002, 2.369187e+002
1.868981e+002, 2.348959e+002
1.873802e+002, 2.324631e+002
1.878623e+002, 2.301062e+002
1.883445e+002, 2.279364e+002
1.888266e+002, 2.261670e+002
1.893087e+002, 2.257038e+002
1.897908e+002, 2.280387e+002
1.902729e+002, 2.295858e+002
1.907550e+002, 2.289693e+002
1.912372e+002, 2.272340e+002
1.917193e+002, 2.257792e+002
1.922014e+002, 2.254561e+002
1.926835e+002, 2.260885e+002
1.931656e+002, 2.264902e+002
1.936477e+002, 2.268114e+002
1.941299e+002, 2.266899e+002
1.946120e+002, 2.256266e+002
1.950941e+002, 2.241125e+002
1.955762e+002, 2.229316e+002
1.960583e+002, 2.226245e+002
1.965404e+002, 2.231424e+002
1.970226e+002, 2.236365e+002
1.975047e+002, 2.253919e+002
1.979868e+002, 2.258177e+002
1.984689e+002, 2.231457e+002
1.989510e+002, 2.184533e+002
1.994331e+002, 2.140500e+002
1.999153e+002, 2.114178e+002
2.003974e+002, 2.105871e+002
2.008795e+002, 2.116548e+002
2.013616e+002, 2.170136e+002
2.018437e+002, 2.215476e+002
2.023258e+002, 2.225441e+002
2.028080e+002, 2.205911e+002
2.032901e+002, 2.182681e+002
2.037722e+002, 2.173853e+002
2.042543e+002, 2.178463e+002
2.047364e+002, 2.176956e+002
2.052185e+002, 2.165926e+002
2.057007e+002, 2.152229e+002
2.061828e+002, 2.137682e+002
2.066649e+002, 2.123020e+002
2.071470e+002, 2.112914e+002
2.076291e+002, 2.111153e+002
2.081112e+002, 2.117445e+002
2.085934e+002, 2.126368e+002
2.090755e+002, 2.137513e+002
2.095576e+002, 2.151407e+002
2.100397e+002, 2.175273e+002
2.105218e+002, 2.210144e+002
2.110039e+002, 2.230100e+002
2.114861e+002, 2.206651e+002
2.119682e+002, 2.156906e+002
2.124503e+002, 2.115366e+002
2.129324e+002, 2.088216e+002
2.134145e+002, 2.072139e+002
2.138966e+002, 2.064635e+002
2.143788e+002, 2.066619e+002
2.148609e+002, 2.072886e+002
2.153430e+002, 2.088246e+002
2.158251e+002, 2.104349e+002
2.163072e+002, 2.109015e+002
2.167893e+002, 2.093639e+002
2.172715e+002, 2.069315e+002
2.177536e+002, 2.054756e+002
2.182357e+002, 2.051668e+002
2.187178e+002, 2.054058e+002
2.191999e+002, 2.062928e+002
2.196821e+002, 2.074244e+002
2.201642e+002, 2.083884e+002
2.206463e+002, 2.090800e+002
2.211284e+002, 2.094236e+002
2.216105e+002, 2.090294e+002
2.220926e+002, 2.070547e+002
2.225748e+002, 2.061106e+002
2.230569e+002, 2.078504e+002
2.235390e+002, 2.105747e+002
2.240211e+002, 2.124032e+002
2.245032e+002, 2.124213e+002
2.249853e+002, 2.111625e+002
2.254675e+002, 2.100264e+002
2.259496e+002, 2.088102e+002
2.264317e+002, 2.081289e+002
2.269138e+002, 2.084788e+002
2.273959e+002, 2.092155e+002
2.278780e+002, 2.097437e+002
2.283602e+002, 2.097986e+002
2.288423e+002, 2.093157e+002
2.293244e+002, 2.079764e+002
2.298065e+002, 2.041785e+002
2.302886e+002, 2.017929e+002
2.307707e+002, 2.019252e+002
2.312529e+002, 2.033913e+002
2.317350e+002, 2.049751e+002
2.322171e+002, 2.061014e+002
2.326992e+002, 2.068133e+002
2.331813e+002, 2.072575e+002
2.336634e+002, 2.076161e+002
2.341456e+002, 2.074035e+002
2.346277e+002, 2.058616e+002
2.351098e+002, 2.039890e+002
2.355919e+002, 2.030855e+002
2.360740e+002, 2.037550e+002
2.365561e+002, 2.053492e+002
2.370383e+002, 2.059509e+002
2.375204e+002, 2.044457e+002
2.380025e+002, 2.031895e+002
2.384846e+002, 2.022458e+002
2.389667e+002, 2.016396e+002
2.394488e+002, 2.015307e+002
2.399310e+002, 2.020014e+002
2.404131e+002, 2.027268e+002
2.408952e+002, 2.028779e+002
2.413773e+002, 2.024097e+002
2.418594e+002, 2.014272e+002
2.423415e+002, 1.991245e+002
2.428237e+002, 1.965579e+002
2.433058e+002, 1.951217e+002
2.437879e+002, 1.953546e+002
2.442700e+002, 1.967301e+002
2.447521e+002, 1.983058e+002
2.452342e+002, 2.007783e+002
2.457164e+002, 2.020695e+002
2.461985e+002, 2.010690e+002
2.466806e+002, 1.989427e+002
2.471627e+002, 1.972460e+002
2.476448e+002, 1.964822e+002
2.481269e+002, 1.962519e+002
2.486091e+002, 1.959295e+002
2.490912e+002, 1.955715e+002
2.495733e+002, 1.949726e+002
2.500554e+002, 1.934627e+002
2.505375e+002, 1.918517e+002
2.510196e+002, 1.916590e+002
2.515018e+002, 1.935028e+002
2.519839e+002, 1.958199e+002
2.524660e+002, 1.961999e+002
2.529481e+002, 1.946481e+002
2.534302e+002, 1.928555e+002
2.539123e+002, 1.912354e+002
2.543945e+002, 1.896329e+002
2.548766e+002, 1.875165e+002
2.553587e+002, 1.845258e+002
2.558408e+002, 1.819602e+002
2.563229e+002, 1.821436e+002
2.568051e+002, 1.846654e+002
2.572872e+002, 1.863092e+002
2.577693e+002, 1.856944e+002
2.582514e+002, 1.837806e+002
2.587335e+002, 1.818047e+002
2.592156e+002, 1.797002e+002
2.596978e+002, 1.783892e+002
2.601799e+002, 1.795090e+002
2.606620e+002, 1.823687e+002
2.611441e+002, 1.848102e+002
2.616262e+002, 1.865055e+002
2.621083e+002, 1.872817e+002
2.625905e+002, 1.864867e+002
2.630726e+002, 1.836472e+002
2.635547e+002, 1.808285e+002
2.640368e+002, 1.795262e+002
2.645189e+002, 1.794179e+002
2.650010e+002, 1.801927e+002
2.654832e+002, 1.831240e+002
2.659653e+002, 1.863575e+002
2.664474e+002, 1.863356e+002
2.669295e+002, 1.820836e+002
2.674116e+002, 1.781900e+002
2.678937e+002, 1.782670e+002
2.683759e+002, 1.803677e+002
2.688580e+002, 1.819908e+002
2.693401e+002, 1.824442e+002
2.698222e+002, 1.820016e+002
2.703043e+002, 1.807195e+002
2.707864e+002, 1.782714e+002
2.712686e+002, 1.764046e+002
2.717507e+002, 1.769881e+002
2.722328e+002, 1.782659e+002
2.727149e+002, 1.782573e+002
2.731970e+002, 1.760864e+002
2.736791e+002, 1.731847e+002
2.741613e+002, 1.712005e+002
2.746434e+002, 1.700499e+002
2.751255e+002, 1.701665e+002
2.756076e+002, 1.747117e+002
2.760897e+002, 1.791277e+002
2.765718e+002, 1.786604e+002
2.770540e+002, 1.715918e+002
2.775361e+002, 1.636933e+002
2.780182e+002, 1.628256e+002
2.785003e+002, 1.703452e+002
2.789824e+002, 1.754525e+002
2.794645e+002, 1.726898e+002
2.799467e+002, 1.681938e+002
2.804288e+002, 1.659221e+002
2.809109e+002, 1.664705e+002
2.813930e+002, 1.679558e+002
2.818751e+002, 1.687818e+002
2.823572e+002, 1.689713e+002
2.828394e+002, 1.681886e+002
2.833215e+002, 1.646602e+002
2.838036e+002, 1.615394e+002
2.842857e+002, 1.611598e+002
2.847678e+002, 1.633093e+002
2.852499e+002, 1.655627e+002
2.857321e+002, 1.652939e+002
2.862142e+002, 1.624103e+002
2.866963e+002, 1.610467e+002
2.871784e+002, 1.629942e+002
2.876605e+002, 1.649639e+002
2.881426e+002, 1.652507e+002
2.886248e+002, 1.641627e+002
2.891069e+002, 1.629334e+002
2.895890e+002, 1.625611e+002
2.900711e+002, 1.629516e+002
2.905532e+002, 1.628764e+002
2.910353e+002, 1.617021e+002
2.915175e+002, 1.608486e+002
2.919996e+002, 1.612009e+002
2.924817e+002, 1.622287e+002
2.929638e+002, 1.628701e+002
2.934459e+002, 1.622964e+002
2.939280e+002, 1.608969e+002
2.944102e+002, 1.605830e+002
2.948923e+002, 1.626030e+002
2.953744e+002, 1.637142e+002
2.958565e+002, 1.622150e+002
2.963386e+002, 1.595812e+002
2.968207e+002, 1.577226e+002
2.973029e+002, 1.576096e+002
2.977850e+002, 1.586417e+002
2.982671e+002, 1.594485e+002
2.987492e+002, 1.602515e+002
2.992313e+002, 1.603197e+002
2.997134e+002, 1.584565e+002
3.001956e+002, 1.564135e+002
3.006777e+002, 1.562211e+002
3.011598e+002, 1.585986e+002
3.016419e+002, 1.616906e+002
3.021240e+002, 1.620388e+002
3.026061e+002, 1.583146e+002
3.030883e+002, 1.555907e+002
3.035704e+002, 1.550084e+002
3.040525e+002, 1.553183e+002
3.045346e+002, 1.559924e+002
3.050167e+002, 1.568347e+002
3.054988e+002, 1.575409e+002
3.059810e+002, 1.577209e+002
3.064631e+002, 1.572963e+002
3.069452e+002, 1.566959e+002
3.074273e+002, 1.554174e+002
3.079094e+002, 1.543935e+002
3.083915e+002, 1.545108e+002
3.088737e+002, 1.554825e+002
3.093558e+002, 1.560074e+002
3.098379e+002, 1.543612e+002
3.103200e+002, 1.503338e+002
3.108021e+002, 1.483783e+002
3.112842e+002, 1.499929e+002
3.117664e+002, 1.523579e+002
3.122485e+002, 1.551720e+002
3.127306e+002, 1.579558e+002
3.132127e+002, 1.599131e+002
3.136948e+002, 1.603600e+002
3.141769e+002, 1.595285e+002
3.146591e+002, 1.589069e+002
3.151412e+002, 1.592842e+002
3.156233e+002, 1.586880e+002
3.161054e+002, 1.552600e+002
3.165875e+002, 1.509935e+002
3.170696e+002, 1.485897e+002
3.175518e+002, 1.494465e+002
3.180339e+002, 1.525641e+002
3.185160e+002, 1.558379e+002
3.189981e+002, 1.605843e+002
3.194802e+002, 1.625885e+002
3.199623e+002, 1.589038e+002
3.204445e+002, 1.536211e+002
3.209266e+002, 1.502472e+002
3.214087e+002, 1.498503e+002
3.218908e+002, 1.512657e+002
3.223729e+002, 1.531655e+002
3.228550e+002, 1.560699e+002
3.233372e+002, 1.576040e+002
3.238193e+002, 1.560211e+002
3.243014e+002, 1.540455e+002
3.247835e+002, 1.534172e+002
3.252656e+002, 1.542123e+002
3.257477e+002, 1.551008e+002
3.262299e+002, 1.546649e+002
3.267120e+002, 1.527742e+002
3.271941e+002, 1.508631e+002
3.276762e+002, 1.477970e+002
3.281583e+002, 1.459286e+002
3.286404e+002, 1.470032e+002
3.291226e+002, 1.502243e+002
3.296047e+002, 1.533439e+002
3.300868e+002, 1.547860e+002
3.305689e+002, 1.547464e+002
3.310510e+002, 1.545254e+002
3.315331e+002, 1.541278e+002
3.320153e+002, 1.535145e+002
3.324974e+002, 1.523004e+002
3.329795e+002, 1.509830e+002
3.334616e+002, 1.503215e+002
3.339437e+002, 1.507630e+002
3.344258e+002, 1.519016e+002
3.349080e+002, 1.530168e+002
3.353901e+002, 1.544979e+002
3.358722e+002, 1.549158e+002
3.363543e+002, 1.525327e+002
3.368364e+002, 1.496673e+002
3.373185e+002, 1.486499e+002
3.378007e+002, 1.502050e+002
3.382828e+002, 1.522699e+002
3.387649e+002, 1.518912e+002
3.392470e+002, 1.485944e+002
3.397291e+002, 1.464548e+002
3.402112e+002, 1.474550e+002
3.406934e+002, 1.489634e+002
3.411755e+002, 1.493838e+002
3.416576e+002, 1.486463e+002
3.421397e+002, 1.475285e+002
3.426219e+002, 1.464133e+002
3.431040e+002, 1.453472e+002
3.435861e+002, 1.449101e+002
3.440682e+002, 1.455642e+002
3.445503e+002, 1.462822e+002
3.450324e+002, 1.465288e+002
3.455146e+002, 1.463710e+002
3.459967e+002, 1.459499e+002
3.464788e+002, 1.449866e+002
3.469609e+002, 1.439227e+002
3.474430e+002, 1.441934e+002
3.479251e+002, 1.465846e+002
3.484073e+002, 1.481096e+002
3.488894e+002, 1.459751e+002
3.493715e+002, 1.425517e+002
3.498536e+002, 1.408800e+002
3.503357e+002, 1.424209e+002
3.508178e+002, 1.446693e+002
3.513000e+002, 1.443224e+002
3.517821e+002, 1.412281e+002
3.522642e+002, 1.386390e+002
3.527463e+002, 1.376979e+002
3.532284e+002, 1.377559e+002
3.537105e+002, 1.383404e+002
3.541927e+002, 1.395098e+002
3.546748e+002, 1.402974e+002
3.551569e+002, 1.395297e+002
3.556390e+002, 1.376735e+002
3.561211e+002, 1.369222e+002
3.566032e+002, 1.380710e+002
3.570854e+002, 1.397264e+002
3.575675e+002, 1.407676e+002
3.580496e+002, 1.412567e+002
3.585317e+002, 1.412915e+002
3.590138e+002, 1.404016e+002
3.594959e+002, 1.392599e+002
3.599781e+002, 1.391756e+002
3.604602e+002, 1.404035e+002
3.609423e+002, 1.414182e+002
3.614244e+002, 1.405800e+002
3.619065e+002, 1.387838e+002
3.623886e+002, 1.383260e+002
3.628708e+002, 1.406687e+002
3.633529e+002, 1.432488e+002
3.638350e+002, 1.437623e+002
3.643171e+002, 1.424888e+002
3.647992e+002, 1.413092e+002
3.652813e+002, 1.409953e+002
3.657635e+002, 1.413057e+002
3.662456e+002, 1.417694e+002
3.667277e+002, 1.424791e+002
3.672098e+002, 1.430428e+002
3.676919e+002, 1.431072e+002
3.681740e+002, 1.429490e+002
3.686562e+002, 1.433642e+002
3.691383e+002, 1.447306e+002
3.696204e+002, 1.457333e+002
3.701025e+002, 1.441726e+002
3.705846e+002, 1.397991e+002
3.710667e+002, 1.371023e+002
3.715489e+002, 1.374753e+002
3.720310e+002, 1.391891e+002
3.725131e+002, 1.410993e+002
3.729952e+002, 1.430100e+002
3.734773e+002, 1.444505e+002
3.739594e+002, 1.450132e+002
3.744416e+002, 1.447539e+002
3.749237e+002, 1.444957e+002
3.754058e+002, 1.438687e+002
3.758879e+002, 1.436290e+002
3.763700e+002, 1.445851e+002
3.768521e+002, 1.461225e+002
3.773343e+002, 1.468924e+002
3.778164e+002, 1.462430e+002
3.782985e+002, 1.447208e+002
3.787806e+002, 1.435653e+002
3.792627e+002, 1.426487e+002
3.797448e+002, 1.423391e+002
3.802270e+002, 1.432163e+002
3.807091e+002, 1.444075e+002
3.811912e+002, 1.451285e+002
3.816733e+002, 1.452177e+002
3.821554e+002, 1.449242e+002
3.826375e+002, 1.444895e+002
3.831197e+002, 1.438616e+002
3.836018e+002, 1.433627e+002
3.840839e+002, 1.429357e+002
3.845660e+002, 1.426647e+002
3.850481e+002, 1.424859e+002
3.855302e+002, 1.424910e+002
3.860124e+002, 1.429637e+002
3.864945e+002, 1.441529e+002
3.869766e+002, 1.458395e+002
3.874587e+002, 1.468688e+002
3.879408e+002, 1.472330e+002
3.884229e+002, 1.468324e+002
3.889051e+002, 1.446858e+002
3.893872e+002, 1.422398e+002
3.898693e+002, 1.409777e+002
3.903514e+002, 1.413813e+002
3.908335e+002, 1.428313e+002
3.913156e+002, 1.444595e+002
3.917978e+002, 1.464791e+002
3.922799e+002, 1.480915e+002
3.927620e+002, 1.486938e+002
3.932441e+002, 1.494341e+002
3.937262e+002, 1.515039e+002
3.942083e+002, 1.544178e+002
3.946905e+002, 1.563729e+002
3.951726e+002, 1.556222e+002
3.956547e+002, 1.525008e+002
3.961368e+002, 1.505503e+002
3.966189e+002, 1.507857e+002
3.971010e+002, 1.507726e+002
3.975832e+002, 1.490080e+002
3.980653e+002, 1.468187e+002
3.985474e+002, 1.461563e+002
3.990295e+002, 1.479778e+002
3.995116e+002, 1.507024e+002
3.999937e+002, 1.515463e+002
4.004759e+002, 1.500285e+002
4.009580e+002, 1.491380e+002
4.014401e+002, 1.503299e+002
4.019222e+002, 1.518597e+002
4.024043e+002, 1.521152e+002
4.028864e+002, 1.511404e+002
4.033686e+002, 1.509549e+002
4.038507e+002, 1.540788e+002
4.043328e+002, 1.594776e+002
4.048149e+002, 1.623994e+002
4.052970e+002, 1.617403e+002
4.057791e+002, 1.601846e+002
4.062613e+002, 1.588318e+002
4.067434e+002, 1.579602e+002
4.072255e+002, 1.583783e+002
4.077076e+002, 1.615475e+002
4.081897e+002, 1.649664e+002
4.086718e+002, 1.648946e+002
4.091540e+002, 1.615154e+002
4.096361e+002, 1.601058e+002
4.101182e+002, 1.640137e+002
4.106003e+002, 1.702561e+002
4.110824e+002, 1.737144e+002
4.115645e+002, 1.741367e+002
4.120467e+002, 1.731259e+002
4.125288e+002, 1.698962e+002
4.130109e+002, 1.660443e+002
4.134930e+002, 1.647890e+002
4.139751e+002, 1.669485e+002
4.144572e+002, 1.699900e+002
4.149394e+002, 1.713302e+002
4.154215e+002, 1.708704e+002
4.159036e+002, 1.708319e+002
4.163857e+002, 1.716945e+002
4.168678e+002, 1.726584e+002
4.173499e+002, 1.732049e+002
4.178321e+002, 1.733936e+002
4.183142e+002, 1.734213e+002
4.187963e+002, 1.732891e+002
4.192784e+002, 1.732595e+002
4.197605e+002, 1.742910e+002
4.202426e+002, 1.778207e+002
4.207248e+002, 1.804146e+002
4.212069e+002, 1.815156e+002
4.216890e+002, 1.816085e+002
4.221711e+002, 1.813463e+002
4.226532e+002, 1.808068e+002
4.231353e+002, 1.792072e+002
4.236175e+002, 1.752280e+002
4.240996e+002, 1.677906e+002
4.245817e+002, 1.636376e+002
4.250638e+002, 1.648327e+002
4.255459e+002, 1.667514e+002
4.260280e+002, 1.680959e+002
4.265102e+002, 1.687229e+002
4.269923e+002, 1.687112e+002
4.274744e+002, 1.680823e+002
4.279565e+002, 1.669462e+002
4.284386e+002, 1.656438e+002
4.289207e+002, 1.639118e+002
4.294029e+002, 1.624942e+002
4.298850e+002, 1.623513e+002
4.303671e+002, 1.619541e+002
4.308492e+002, 1.594470e+002
4.313313e+002, 1.548143e+002
4.318134e+002, 1.505111e+002
4.322956e+002, 1.495787e+002
4.327777e+002, 1.521187e+002
4.332598e+002, 1.535742e+002
4.337419e+002, 1.532782e+002
4.342240e+002, 1.525923e+002
4.347061e+002, 1.522451e+002
4.351883e+002, 1.520078e+002
4.356704e+002, 1.513849e+002
4.361525e+002, 1.499797e+002
4.366346e+002, 1.483375e+002
4.371167e+002, 1.475551e+002
4.375988e+002, 1.477802e+002
4.380810e+002, 1.473088e+002
4.385631e+002, 1.452071e+002
4.390452e+002, 1.423560e+002
4.395273e+002, 1.394297e+002
4.400094e+002, 1.363507e+002
4.404915e+002, 1.344227e+002
4.409737e+002, 1.351902e+002
4.414558e+002, 1.374408e+002
4.419379e+002, 1.385364e+002
4.424200e+002, 1.380022e+002
4.429022e+002, 1.372748e+002
4.433843e+002, 1.377474e+002
4.438664e+002, 1.391091e+002
4.443485e+002, 1.394693e+002
4.448306e+002, 1.377527e+002
4.453127e+002, 1.359548e+002
4.457949e+002, 1.353879e+002
4.462770e+002, 1.356502e+002
4.467591e+002, 1.355975e+002
4.472412e+002, 1.347180e+002
4.477233e+002, 1.334860e+002
4.482054e+002, 1.327777e+002
4.486876e+002, 1.327044e+002
4.491697e+002, 1.329542e+002
4.496518e+002, 1.340423e+002
4.501339e+002, 1.350659e+002
4.506160e+002, 1.353011e+002
4.510981e+002, 1.347588e+002
4.515803e+002, 1.338086e+002
4.520624e+002, 1.326464e+002
4.525445e+002, 1.313503e+002
4.530266e+002, 1.310065e+002
4.535087e+002, 1.333127e+002
4.539908e+002, 1.346307e+002
4.544730e+002, 1.332963e+002
4.549551e+002, 1.312275e+002
4.554372e+002, 1.309178e+002
4.559193e+002, 1.330267e+002
4.564014e+002, 1.356683e+002
4.568835e+002, 1.359623e+002
4.573657e+002, 1.332366e+002
4.578478e+002, 1.311933e+002
4.583299e+002, 1.296227e+002
4.588120e+002, 1.291304e+002
4.592941e+002, 1.308227e+002
4.597762e+002, 1.338114e+002
4.602584e+002, 1.360485e+002
4.607405e+002, 1.362312e+002
4.612226e+002, 1.351855e+002
4.617047e+002, 1.349210e+002
4.621868e+002, 1.358554e+002
4.626689e+002, 1.354539e+002
4.631511e+002, 1.307887e+002
4.636332e+002, 1.257699e+002
4.641153e+002, 1.248031e+002
4.645974e+002, 1.284430e+002
4.650795e+002, 1.318429e+002
4.655616e+002, 1.314375e+002
4.660438e+002, 1.287983e+002
4.665259e+002, 1.274780e+002
4.670080e+002, 1.279967e+002
4.674901e+002, 1.292267e+002
4.679722e+002, 1.307617e+002
4.684543e+002, 1.323324e+002
4.689365e+002, 1.328152e+002
4.694186e+002, 1.317494e+002
4.699007e+002, 1.300092e+002
4.703828e+002, 1.272731e+002
4.708649e+002, 1.242533e+002
4.713470e+002, 1.226770e+002
4.718292e+002, 1.232225e+002
4.723113e+002, 1.247749e+002
4.727934e+002, 1.256248e+002
4.732755e+002, 1.253101e+002
4.737576e+002, 1.256344e+002
4.742397e+002, 1.275841e+002
4.747219e+002, 1.292813e+002
4.752040e+002, 1.295854e+002
4.756861e+002, 1.286456e+002
4.761682e+002, 1.269242e+002
4.766503e+002, 1.245689e+002
4.771324e+002, 1.221118e+002
4.776146e+002, 1.218403e+002
4.780967e+002, 1.262970e+002
4.785788e+002, 1.288207e+002
4.790609e+002, 1.277671e+002
4.795430e+002, 1.254671e+002
4.800251e+002, 1.231703e+002
4.805073e+002, 1.213565e+002
4.809894e+002, 1.206229e+002
4.814715e+002, 1.221405e+002
4.819536e+002, 1.256481e+002
4.824357e+002, 1.274477e+002
4.829178e+002, 1.267260e+002
4.834000e+002, 1.256708e+002
4.838821e+002, 1.252189e+002
4.843642e+002, 1.250423e+002
4.848463e+002, 1.246507e+002
4.853284e+002, 1.238061e+002
4.858105e+002, 1.230858e+002
4.862927e+002, 1.233147e+002
4.867748e+002, 1.242816e+002
4.872569e+002, 1.245102e+002
4.877390e+002, 1.232919e+002
4.882211e+002, 1.220733e+002
4.887032e+002, 1.226469e+002
4.891854e+002, 1.247014e+002
4.896675e+002, 1.266869e+002
4.901496e+002, 1.292251e+002
4.906317e+002, 1.308431e+002
4.911138e+002, 1.297493e+002
4.915959e+002, 1.265424e+002
4.920781e+002, 1.234021e+002
4.925602e+002, 1.212829e+002
4.930423e+002, 1.200635e+002
4.935244e+002, 1.195029e+002
4.940065e+002, 1.197654e+002
4.944886e+002, 1.204388e+002
4.949708e+002, 1.217732e+002
4.954529e+002, 1.233135e+002
4.959350e+002, 1.251128e+002
4.964171e+002, 1.268865e+002
4.968992e+002, 1.278212e+002
4.973813e+002, 1.272228e+002
4.978635e+002, 1.253215e+002
4.983456e+002, 1.234810e+002
4.988277e+002, 1.209371e+002
4.993098e+002, 1.196809e+002
4.997919e+002, 1.208790e+002
5.002740e+002, 1.228016e+002
5.007562e+002, 1.239800e+002
5.012383e+002, 1.241439e+002
5.017204e+002, 1.239395e+002
5.022025e+002, 1.240412e+002
5.026846e+002, 1.243963e+002
5.031667e+002, 1.242744e+002
5.036489e+002, 1.232832e+002
5.041310e+002, 1.225620e+002
5.046131e+002, 1.231279e+002
5.050952e+002, 1.242245e+002
5.055773e+002, 1.246443e+002
5.060594e+002, 1.237935e+002
5.065416e+002, 1.230332e+002
5.070237e+002, 1.241650e+002
5.075058e+002, 1.264060e+002
5.079879e+002, 1.267278e+002
5.084700e+002, 1.240666e+002
5.089521e+002, 1.207235e+002
5.094343e+002, 1.191833e+002
5.099164e+002, 1.194668e+002
5.103985e+002, 1.193302e+002
5.108806e+002, 1.180373e+002
5.113627e+002, 1.168926e+002
5.118448e+002, 1.165106e+002
5.123270e+002, 1.168530e+002
5.128091e+002, 1.178849e+002
5.132912e+002, 1.196156e+002
5.137733e+002, 1.216538e+002
5.142554e+002, 1.233577e+002
5.147375e+002, 1.250357e+002
5.152197e+002, 1.255524e+002
5.157018e+002, 1.239801e+002
5.161839e+002, 1.222875e+002
5.166660e+002, 1.213667e+002
5.171481e+002, 1.211749e+002
5.176302e+002, 1.214118e+002
5.181124e+002, 1.219584e+002
5.185945e+002, 1.226300e+002
5.190766e+002, 1.229122e+002
5.195587e+002, 1.226733e+002
5.200408e+002, 1.224656e+002
5.205229e+002, 1.219751e+002
5.210051e+002, 1.218985e+002
5.214872e+002, 1.232770e+002
5.219693e+002, 1.258044e+002
5.224514e+002, 1.274576e+002
5.229335e+002, 1.261610e+002
5.234156e+002, 1.235109e+002
5.238978e+002, 1.226134e+002
5.243799e+002, 1.235786e+002
5.248620e+002, 1.247274e+002
5.253441e+002, 1.252352e+002
5.258262e+002, 1.254454e+002
5.263083e+002, 1.261399e+002
5.267905e+002, 1.275543e+002
5.272726e+002, 1.286501e+002
5.277547e+002, 1.291632e+002
5.282368e+002, 1.291846e+002
5.287189e+002, 1.285030e+002
5.292010e+002, 1.272630e+002
5.296832e+002, 1.264037e+002
5.301653e+002, 1.267366e+002
5.306474e+002, 1.280000e+002
5.311295e+002, 1.284198e+002
5.316116e+002, 1.270617e+002
5.320938e+002, 1.259887e+002
5.325759e+002, 1.254843e+002
5.330580e+002, 1.252515e+002
5.335401e+002, 1.252793e+002
5.340222e+002, 1.254004e+002
5.345043e+002, 1.249151e+002
5.349865e+002, 1.225145e+002
5.354686e+002, 1.186091e+002
5.359507e+002, 1.184707e+002
5.364328e+002, 1.248923e+002
5.369149e+002, 1.298187e+002
5.373970e+002, 1.289381e+002
5.378792e+002, 1.258463e+002
5.383613e+002, 1.241857e+002
5.388434e+002, 1.247253e+002
5.393255e+002, 1.259189e+002
5.398076e+002, 1.272838e+002
5.402897e+002, 1.283742e+002
5.407719e+002, 1.275575e+002
5.412540e+002, 1.243373e+002
5.417361e+002, 1.212870e+002
5.422182e+002, 1.203708e+002
5.427003e+002, 1.212170e+002
5.431824e+002, 1.216519e+002
5.436646e+002, 1.208969e+002
5.441467e+002, 1.207514e+002
5.446288e+002, 1.226232e+002
5.451109e+002, 1.251251e+002
5.455930e+002, 1.263059e+002
5.460751e+002, 1.258012e+002
5.465573e+002, 1.246878e+002
5.470394e+002, 1.240128e+002
5.475215e+002, 1.237848e+002
5.480036e+002, 1.237155e+002
5.484857e+002, 1.234277e+002
5.489678e+002, 1.237699e+002
5.494500e+002, 1.263248e+002
5.499321e+002, 1.288755e+002
5.504142e+002, 1.282568e+002
5.508963e+002, 1.239025e+002
5.513784e+002, 1.194885e+002
5.518605e+002, 1.197425e+002
5.523427e+002, 1.242537e+002
5.528248e+002, 1.266750e+002
5.533069e+002, 1.259700e+002
5.537890e+002, 1.249033e+002
5.542711e+002, 1.255142e+002
5.547532e+002, 1.266131e+002
5.552354e+002, 1.261435e+002
5.557175e+002, 1.229316e+002
5.561996e+002, 1.204034e+002
5.566817e+002, 1.219239e+002
5.571638e+002, 1.254407e+002
5.576459e+002, 1.265333e+002
5.581281e+002, 1.243618e+002
5.586102e+002, 1.213612e+002
5.590923e+002, 1.194570e+002
5.595744e+002, 1.186294e+002
5.600565e+002, 1.184250e+002
5.605386e+002, 1.197339e+002
5.610208e+002, 1.204626e+002
5.615029e+002, 1.194733e+002
5.619850e+002, 1.179806e+002
5.624671e+002, 1.174116e+002
5.629492e+002, 1.180353e+002
5.634313e+002, 1.191202e+002
5.639135e+002, 1.199784e+002
5.643956e+002, 1.206117e+002
5.648777e+002, 1.209402e+002
5.653598e+002, 1.209392e+002
5.658419e+002, 1.206489e+002
5.663240e+002, 1.197332e+002
5.668062e+002, 1.187519e+002
5.672883e+002, 1.183414e+002
5.677704e+002, 1.186431e+002
5.682525e+002, 1.191859e+002
5.687346e+002, 1.197869e+002
5.692167e+002, 1.203357e+002
5.696989e+002, 1.205444e+002
5.701810e+002, 1.203938e+002
5.706631e+002, 1.197972e+002
5.711452e+002, 1.183228e+002
5.716273e+002, 1.164788e+002
5.721094e+002, 1.160339e+002
5.725916e+002, 1.179636e+002
5.730737e+002, 1.194288e+002
5.735558e+002, 1.188469e+002
5.740379e+002, 1.179011e+002
5.745200e+002, 1.189028e+002
5.750021e+002, 1.217484e+002
5.754843e+002, 1.241192e+002
5.759664e+002, 1.241437e+002
5.764485e+002, 1.221052e+002
5.769306e+002, 1.195382e+002
5.774127e+002, 1.146593e+002
5.778948e+002, 1.122639e+002
5.783770e+002, 1.150025e+002
5.788591e+002, 1.186813e+002
5.793412e+002, 1.198378e+002
5.798233e+002, 1.184643e+002
5.803054e+002, 1.172599e+002
5.807875e+002, 1.188004e+002
5.812697e+002, 1.216641e+002
5.817518e+002, 1.217404e+002
5.822339e+002, 1.186206e+002
5.827160e+002, 1.165544e+002
5.831981e+002, 1.178053e+002
5.836802e+002, 1.204559e+002
5.841624e+002, 1.216237e+002
5.846445e+002, 1.212282e+002
5.851266e+002, 1.205974e+002
5.856087e+002, 1.202215e+002
5.860908e+002, 1.196482e+002
5.865729e+002, 1.180628e+002
5.870551e+002, 1.158553e+002
5.875372e+002, 1.143128e+002
5.880193e+002, 1.141042e+002
5.885014e+002, 1.150223e+002
5.889835e+002, 1.168403e+002
5.894657e+002, 1.210730e+002
5.899478e+002, 1.228238e+002
5.904299e+002, 1.201831e+002
5.909120e+002, 1.172051e+002
5.913942e+002, 1.153056e+002
5.918763e+002, 1.146594e+002
5.923584e+002, 1.155242e+002
5.928405e+002, 1.183414e+002
5.933226e+002, 1.214821e+002
5.938047e+002, 1.222393e+002
5.942869e+002, 1.206595e+002
5.947690e+002, 1.193253e+002
5.952511e+002, 1.185715e+002
5.957332e+002, 1.183631e+002
5.962153e+002, 1.192261e+002
5.966974e+002, 1.207165e+002
5.971796e+002, 1.212128e+002
5.976617e+002, 1.192731e+002
5.981438e+002, 1.175846e+002
5.986259e+002, 1.179493e+002
5.991080e+002, 1.194551e+002
5.995901e+002, 1.205104e+002
6.000723e+002, 1.207251e+002
6.005544e+002, 1.207585e+002
6.010365e+002, 1.213715e+002
6.015186e+002, 1.225932e+002
6.020007e+002, 1.231548e+002
6.024828e+002, 1.220901e+002
6.029650e+002, 1.215430e+002
6.034471e+002, 1.223395e+002
6.039292e+002, 1.235456e+002
6.044113e+002, 1.243032e+002
6.048934e+002, 1.244289e+002
6.053755e+002, 1.241657e+002
6.058577e+002, 1.231758e+002
6.063398e+002, 1.219394e+002
6.068219e+002, 1.223566e+002
6.073040e+002, 1.246238e+002
6.077861e+002, 1.276098e+002
6.082682e+002, 1.319823e+002
6.087504e+002, 1.359002e+002
6.092325e+002, 1.357280e+002
6.097146e+002, 1.304701e+002
6.101967e+002, 1.267534e+002
6.106788e+002, 1.275038e+002
6.111609e+002, 1.296050e+002
6.116431e+002, 1.306124e+002
6.121252e+002, 1.304672e+002
6.126073e+002, 1.296727e+002
6.130894e+002, 1.284439e+002
6.135715e+002, 1.271246e+002
6.140536e+002, 1.264762e+002
6.145358e+002, 1.266958e+002
6.150179e+002, 1.271158e+002
6.155000e+002, 1.275220e+002
6.159821e+002, 1.283452e+002
6.164642e+002, 1.305618e+002
6.169464e+002, 1.331914e+002
6.174285e+002, 1.341945e+002
6.179106e+002, 1.324473e+002
6.183927e+002, 1.301861e+002
6.188748e+002, 1.301104e+002
6.193569e+002, 1.318276e+002
6.198391e+002, 1.333524e+002
6.203212e+002, 1.344595e+002
6.208033e+002, 1.349060e+002
6.212854e+002, 1.339524e+002
6.217675e+002, 1.320848e+002
6.222496e+002, 1.320569e+002
6.227318e+002, 1.351838e+002
6.232139e+002, 1.383701e+002
6.236960e+002, 1.415486e+002
6.241781e+002, 1.439040e+002
6.246602e+002, 1.441757e+002
6.251423e+002, 1.425029e+002
6.256245e+002, 1.402527e+002
6.261066e+002, 1.383855e+002
6.265887e+002, 1.369922e+002
6.270708e+002, 1.364944e+002
6.275529e+002, 1.370909e+002
6.280350e+002, 1.381033e+002
6.285172e+002, 1.401266e+002
6.289993e+002, 1.419720e+002
6.294814e+002, 1.424639e+002
6.299635e+002, 1.419156e+002
6.304456e+002, 1.420511e+002
6.309277e+002, 1.441125e+002
6.314099e+002, 1.468219e+002
6.318920e+002, 1.490385e+002
6.323741e+002, 1.507276e+002
6.328562e+002, 1.517031e+002
6.333383e+002, 1.518816e+002
6.338204e+002, 1.514454e+002
6.343026e+002, 1.503957e+002
6.347847e+002, 1.485307e+002
6.352668e+002, 1.480338e+002
6.357489e+002, 1.502459e+002
6.362310e+002, 1.520171e+002
6.367131e+002, 1.523990e+002
6.371953e+002, 1.518631e+002
6.376774e+002, 1.509552e+002
6.381595e+002, 1.498156e+002
6.386416e+002, 1.482880e+002
6.391237e+002, 1.459788e+002
6.396058e+002, 1.431371e+002
6.400880e+002, 1.409153e+002
6.405701e+002, 1.392514e+002
6.410522e+002, 1.385488e+002
6.415343e+002, 1.396129e+002
6.420164e+002, 1.412373e+002
6.424985e+002, 1.418735e+002
6.429807e+002, 1.414940e+002
6.434628e+002, 1.406093e+002
6.439449e+002, 1.383422e+002
6.444270e+002, 1.364856e+002
6.449091e+002, 1.374090e+002
6.453912e+002, 1.399355e+002
6.458734e+002, 1.407025e+002
6.463555e+002, 1.383437e+002
6.468376e+002, 1.346043e+002
6.473197e+002, 1.321849e+002
6.478018e+002, 1.313355e+002
6.482839e+002, 1.303185e+002
6.487661e+002, 1.284495e+002
6.492482e+002, 1.272771e+002
6.497303e+002, 1.276805e+002
6.502124e+002, 1.288226e+002
6.506945e+002, 1.295772e+002
6.511766e+002, 1.296784e+002
6.516588e+002, 1.300332e+002
6.521409e+002, 1.316955e+002
6.526230e+002, 1.339783e+002
6.531051e+002, 1.357243e+002
6.535872e+002, 1.368400e+002
6.540693e+002, 1.365850e+002
6.545515e+002, 1.341339e+002
6.550336e+002, 1.307797e+002
6.555157e+002, 1.292083e+002
6.559978e+002, 1.300723e+002
6.564799e+002, 1.313730e+002
6.569620e+002, 1.340831e+002
6.574442e+002, 1.362602e+002
6.579263e+002, 1.366740e+002
6.584084e+002, 1.358499e+002
6.588905e+002, 1.346382e+002
6.593726e+002, 1.333900e+002
6.598547e+002, 1.324847e+002
6.603369e+002, 1.330591e+002
6.608190e+002, 1.348875e+002
6.613011e+002, 1.340958e+002
6.617832e+002, 1.292126e+002
6.622653e+002, 1.253481e+002
6.627474e+002, 1.265148e+002
6.632296e+002, 1.300459e+002
6.637117e+002, 1.303919e+002
6.641938e+002, 1.262741e+002
6.646759e+002, 1.229606e+002
6.651580e+002, 1.223070e+002
6.656401e+002, 1.229845e+002
6.661223e+002, 1.243066e+002
6.666044e+002, 1.258864e+002
6.670865e+002, 1.269987e+002
6.675686e+002, 1.272705e+002
6.680507e+002, 1.269181e+002
6.685328e+002, 1.261574e+002
6.690150e+002, 1.246621e+002
6.694971e+002, 1.242569e+002
6.699792e+002, 1.264317e+002
6.704613e+002, 1.278129e+002
6.709434e+002, 1.259237e+002
6.714255e+002, 1.227560e+002
6.719077e+002, 1.215488e+002
6.723898e+002, 1.233454e+002
6.728719e+002, 1.251649e+002
6.733540e+002, 1.249066e+002
6.738361e+002, 1.235747e+002
6.743182e+002, 1.225079e+002
6.748004e+002, 1.218666e+002
6.752825e+002, 1.218263e+002
6.757646e+002, 1.225905e+002
6.762467e+002, 1.237046e+002
6.767288e+002, 1.241037e+002
6.772109e+002, 1.234083e+002
6.776931e+002, 1.228762e+002
6.781752e+002, 1.224999e+002
6.786573e+002, 1.222769e+002
6.791394e+002, 1.223313e+002
6.796215e+002, 1.224999e+002
6.801036e+002, 1.225646e+002
6.805858e+002, 1.224592e+002
6.810679e+002, 1.221351e+002
6.815500e+002, 1.212766e+002
6.820321e+002, 1.201853e+002
6.825142e+002, 1.198358e+002
6.829963e+002, 1.203410e+002
6.834785e+002, 1.208849e+002
6.839606e+002, 1.210509e+002
6.844427e+002, 1.209254e+002
6.849248e+002, 1.206148e+002
6.854069e+002, 1.195520e+002
6.858890e+002, 1.197042e+002
6.863712e+002, 1.229893e+002
6.868533e+002, 1.256359e+002
6.873354e+002, 1.245138e+002
6.878175e+002, 1.215860e+002
6.882996e+002, 1.207807e+002
6.887817e+002, 1.235476e+002
6.892639e+002, 1.271439e+002
6.897460e+002, 1.282542e+002
6.902281e+002, 1.272046e+002
6.907102e+002, 1.259874e+002
6.911923e+002, 1.245484e+002
6.916744e+002, 1.236281e+002
6.921566e+002, 1.239098e+002
6.926387e+002, 1.247207e+002
6.931208e+002, 1.245112e+002
6.936029e+002, 1.227973e+002
6.940850e+002, 1.222925e+002
6.945671e+002, 1.246636e+002
6.950493e+002, 1.272002e+002
6.955314e+002, 1.280821e+002
6.960135e+002, 1.278267e+002
6.964956e+002, 1.277905e+002
6.969777e+002, 1.284320e+002
6.974598e+002, 1.288270e+002
6.979420e+002, 1.272986e+002
6.984241e+002, 1.239881e+002
6.989062e+002, 1.227285e+002
6.993883e+002, 1.240580e+002
6.998704e+002, 1.259927e+002
7.003525e+002, 1.285244e+002
7.008347e+002, 1.306434e+002
7.013168e+002, 1.305494e+002
7.017989e+002, 1.279541e+002
7.022810e+002, 1.267124e+002
7.027631e+002, 1.289264e+002
7.032452e+002, 1.318423e+002
7.037274e+002, 1.339545e+002
7.042095e+002, 1.351780e+002
7.046916e+002, 1.355270e+002
7.051737e+002, 1.350169e+002
7.056558e+002, 1.336883e+002
7.061379e+002, 1.312820e+002
7.066201e+002, 1.279300e+002
7.071022e+002, 1.261174e+002
7.075843e+002, 1.260099e+002
7.080664e+002, 1.270733e+002
7.085485e+002, 1.306297e+002
7.090306e+002, 1.341934e+002
7.095128e+002, 1.350206e+002
7.099949e+002, 1.332869e+002
7.104770e+002, 1.321956e+002
7.109591e+002, 1.332045e+002
7.114412e+002, 1.347828e+002
7.119233e+002, 1.360115e+002
7.124055e+002, 1.369531e+002
7.128876e+002, 1.378974e+002
7.133697e+002, 1.388559e+002
7.138518e+002, 1.392155e+002
7.143339e+002, 1.382197e+002
7.148160e+002, 1.361475e+002
7.152982e+002, 1.351321e+002
7.157803e+002, 1.356864e+002
7.162624e+002, 1.361133e+002
7.167445e+002, 1.366125e+002
7.172266e+002, 1.363749e+002
7.177087e+002, 1.338361e+002
7.181909e+002, 1.298505e+002
7.186730e+002, 1.279426e+002
7.191551e+002, 1.302419e+002
7.196372e+002, 1.335221e+002
7.201193e+002, 1.365856e+002
7.206014e+002, 1.388023e+002
7.210836e+002, 1.384722e+002
7.215657e+002, 1.356860e+002
7.220478e+002, 1.331067e+002
7.225299e+002, 1.328194e+002
7.230120e+002, 1.340998e+002
7.234941e+002, 1.340683e+002
7.239763e+002, 1.314135e+002
7.244584e+002, 1.311858e+002
7.249405e+002, 1.368826e+002
7.254226e+002, 1.419026e+002
7.259047e+002, 1.415485e+002
7.263868e+002, 1.381686e+002
7.268690e+002, 1.370343e+002
7.273511e+002, 1.401891e+002
7.278332e+002, 1.433618e+002
7.283153e+002, 1.436362e+002
7.287974e+002, 1.426301e+002
7.292795e+002, 1.425364e+002
7.297617e+002, 1.433984e+002
7.302438e+002, 1.441877e+002
7.307259e+002, 1.443576e+002
7.312080e+002, 1.440488e+002
7.316901e+002, 1.434598e+002
7.321722e+002, 1.424384e+002
7.326544e+002, 1.417888e+002
7.331365e+002, 1.416402e+002
7.336186e+002, 1.416934e+002
7.341007e+002, 1.421236e+002
7.345828e+002, 1.425271e+002
7.350649e+002, 1.421501e+002
7.355471e+002, 1.407881e+002
7.360292e+002, 1.400679e+002
7.365113e+002, 1.415041e+002
7.369934e+002, 1.433407e+002
7.374755e+002, 1.434557e+002
7.379576e+002, 1.424885e+002
7.384398e+002, 1.428935e+002
7.389219e+002, 1.454758e+002
7.394040e+002, 1.476431e+002
7.398861e+002, 1.457159e+002
7.403682e+002, 1.397993e+002
7.408503e+002, 1.370288e+002
7.413325e+002, 1.388868e+002
7.418146e+002, 1.407911e+002
7.422967e+002, 1.422153e+002
7.427788e+002, 1.425656e+002
7.432609e+002, 1.405830e+002
7.437430e+002, 1.366510e+002
7.442252e+002, 1.338837e+002
7.447073e+002, 1.339163e+002
7.451894e+002, 1.346471e+002
7.456715e+002, 1.349131e+002
7.461536e+002, 1.349269e+002
7.466357e+002, 1.352807e+002
7.471179e+002, 1.359167e+002
7.476000e+002, 1.357353e+002
7.480821e+002, 1.336895e+002
7.485642e+002, 1.306051e+002
7.490463e+002, 1.292120e+002
7.495284e+002, 1.298023e+002
7.500106e+002, 1.308290e+002
7.504927e+002, 1.326813e+002
7.509748e+002, 1.341253e+002
7.514569e+002, 1.338710e+002
7.519390e+002, 1.326673e+002
7.524211e+002, 1.322133e+002
7.529033e+002, 1.332788e+002
7.533854e+002, 1.336928e+002
7.538675e+002, 1.313673e+002
7.543496e+002, 1.290356e+002
7.548317e+002, 1.301150e+002
7.553138e+002, 1.334551e+002
7.557960e+002, 1.350411e+002
7.562781e+002, 1.330338e+002
7.567602e+002, 1.301516e+002
7.572423e+002, 1.307972e+002
7.577244e+002, 1.348170e+002
7.582065e+002, 1.369597e+002
7.586887e+002, 1.366049e+002
7.591708e+002, 1.362397e+002
7.596529e+002, 1.370592e+002
7.601350e+002, 1.382994e+002
7.606171e+002, 1.384989e+002
7.610992e+002, 1.374809e+002
7.615814e+002, 1.378763e+002
7.620635e+002, 1.421083e+002
7.625456e+002, 1.454480e+002
7.630277e+002, 1.445519e+002
7.635098e+002, 1.421070e+002
7.639919e+002, 1.414168e+002
7.644741e+002, 1.431253e+002
7.649562e+002, 1.463188e+002
7.654383e+002, 1.508736e+002
7.659204e+002, 1.556513e+002
7.664025e+002, 1.578900e+002
7.668846e+002, 1.576441e+002
7.673668e+002, 1.565595e+002
7.678489e+002, 1.546723e+002
7.683310e+002, 1.531096e+002
7.688131e+002, 1.529129e+002
7.692952e+002, 1.538435e+002
7.697773e+002, 1.545351e+002
7.702595e+002, 1.554588e+002
7.707416e+002, 1.554680e+002
7.712237e+002, 1.540507e+002
7.717058e+002, 1.521107e+002
7.721879e+002, 1.493091e+002
7.726700e+002, 1.466322e+002
7.731522e+002, 1.464785e+002
7.736343e+002, 1.499994e+002
7.741164e+002, 1.528591e+002
7.745985e+002, 1.493478e+002
7.750806e+002, 1.425826e+002
7.755627e+002, 1.402222e+002
7.760449e+002, 1.422840e+002
7.765270e+002, 1.436800e+002
7.770091e+002, 1.421440e+002
7.774912e+002, 1.391567e+002
7.779733e+002, 1.368457e+002
7.784554e+002, 1.352215e+002
7.789376e+002, 1.340863e+002
7.794197e+002, 1.341561e+002
7.799018e+002, 1.337255e+002
7.803839e+002, 1.318848e+002
7.808660e+002, 1.298205e+002
7.813481e+002, 1.288720e+002
7.818303e+002, 1.288449e+002
7.823124e+002, 1.280924e+002
7.827945e+002, 1.249939e+002
7.832766e+002, 1.220601e+002
7.837587e+002, 1.217999e+002
7.842408e+002, 1.229556e+002
7.847230e+002, 1.235218e+002
7.852051e+002, 1.230996e+002
7.856872e+002, 1.216087e+002
7.861693e+002, 1.188130e+002
7.866515e+002, 1.156293e+002
7.871336e+002, 1.147143e+002
7.876157e+002, 1.166713e+002
7.880978e+002, 1.174837e+002
7.885800e+002, 1.161136e+002
7.890621e+002, 1.149103e+002
7.895442e+002, 1.152182e+002
7.900263e+002, 1.164596e+002
7.905084e+002, 1.180990e+002
7.909905e+002, 1.205321e+002
7.914727e+002, 1.211422e+002
7.919548e+002, 1.172887e+002
7.924369e+002, 1.134250e+002
7.929190e+002, 1.128826e+002
7.934011e+002, 1.140663e+002
7.938832e+002, 1.141428e+002
7.943654e+002, 1.124488e+002
7.948475e+002, 1.102437e+002
7.953296e+002, 1.082618e+002
7.958117e+002, 1.068839e+002
7.962938e+002, 1.076441e+002
7.967759e+002, 1.104868e+002
7.972581e+002, 1.125159e+002
7.977402e+002, 1.130154e+002
7.982223e+002, 1.126353e+002
7.987044e+002, 1.116310e+002
7.991865e+002, 1.102279e+002
7.996686e+002, 1.097728e+002
8.001508e+002, 1.113104e+002
8.006329e+002, 1.123031e+002
8.011150e+002, 1.122252e+002
8.015971e+002, 1.120767e+002
8.020792e+002, 1.129749e+002
8.025613e+002, 1.140555e+002
8.030435e+002, 1.134416e+002
8.035256e+002, 1.104552e+002
8.040077e+002, 1.075581e+002
8.044898e+002, 1.065303e+002
8.049719e+002, 1.067200e+002
8.054540e+002, 1.075843e+002
8.059362e+002, 1.088533e+002
8.064183e+002, 1.096139e+002
8.069004e+002, 1.095456e+002
8.073825e+002, 1.092600e+002
8.078646e+002, 1.094183e+002
8.083467e+002, 1.100172e+002
8.088289e+002, 1.112704e+002
8.093110e+002, 1.140810e+002
8.097931e+002, 1.150057e+002
8.102752e+002, 1.118728e+002
8.107573e+002, 1.081903e+002
8.112394e+002, 1.066703e+002
8.117216e+002, 1.068778e+002
8.122037e+002, 1.075267e+002
8.126858e+002, 1.089962e+002
8.131679e+002, 1.099024e+002
8.136500e+002, 1.090335e+002
8.141321e+002, 1.080235e+002
8.146143e+002, 1.085608e+002
8.150964e+002, 1.101276e+002
8.155785e+002, 1.111377e+002
8.160606e+002, 1.109558e+002
8.165427e+002, 1.106285e+002
8.170248e+002, 1.114670e+002
8.175070e+002, 1.131372e+002
8.179891e+002, 1.148012e+002
8.184712e+002, 1.164389e+002
8.189533e+002, 1.164889e+002
8.194354e+002, 1.141022e+002
8.199175e+002, 1.110584e+002
8.203997e+002, 1.093755e+002
8.208818e+002, 1.090346e+002
8.213639e+002, 1.088778e+002
8.218460e+002, 1.085448e+002
8.223281e+002, 1.089617e+002
8.228102e+002, 1.112079e+002
8.232924e+002, 1.133036e+002
8.237745e+002, 1.138712e+002
8.242566e+002, 1.132483e+002
8.247387e+002, 1.124085e+002
8.252208e+002, 1.115450e+002
8.257029e+002, 1.107767e+002
8.261851e+002, 1.099965e+002
8.266672e+002, 1.094745e+002
8.271493e+002, 1.096576e+002
8.276314e+002, 1.103892e+002
8.281135e+002, 1.112916e+002
8.285956e+002, 1.121875e+002
8.290778e+002, 1.126273e+002
8.295599e+002, 1.119659e+002
8.300420e+002, 1.103519e+002
8.305241e+002, 1.084908e+002
8.310062e+002, 1.061593e+002
8.314883e+002, 1.053468e+002
8.319705e+002, 1.073083e+002
8.324526e+002, 1.094864e+002
8.329347e+002, 1.089208e+002
8.334168e+002, 1.061106e+002
8.338989e+002, 1.058950e+002
8.343810e+002, 1.114214e+002
8.348632e+002, 1.147207e+002
8.353453e+002, 1.134659e+002
8.358274e+002, 1.113579e+002
8.363095e+002, 1.103542e+002
8.367916e+002, 1.103259e+002
8.372737e+002, 1.108696e+002
8.377559e+002, 1.119226e+002
8.382380e+002, 1.124697e+002
8.387201e+002, 1.112763e+002
8.392022e+002, 1.094729e+002
8.396843e+002, 1.086846e+002
8.401664e+002, 1.086511e+002
8.406486e+002, 1.080794e+002
8.411307e+002, 1.066539e+002
8.416128e+002, 1.059501e+002
8.420949e+002, 1.078623e+002
8.425770e+002, 1.114768e+002
8.430591e+002, 1.120726e+002
8.435413e+002, 1.086889e+002
8.440234e+002, 1.074246e+002
8.445055e+002, 1.103767e+002
8.449876e+002, 1.134646e+002
8.454697e+002, 1.139857e+002
8.459518e+002, 1.125350e+002
8.464340e+002, 1.106712e+002
8.469161e+002, 1.075953e+002
8.473982e+002, 1.062496e+002
8.478803e+002, 1.085582e+002
8.483624e+002, 1.109067e+002
8.488445e+002, 1.116420e+002
8.493267e+002, 1.112212e+002
8.498088e+002, 1.100669e+002
8.502909e+002, 1.084332e+002
8.507730e+002, 1.072216e+002
8.512551e+002, 1.073281e+002
8.517372e+002, 1.078343e+002
8.522194e+002, 1.075304e+002
8.527015e+002, 1.067677e+002
8.531836e+002, 1.063901e+002
8.536657e+002, 1.065403e+002
8.541478e+002, 1.070906e+002
8.546299e+002, 1.080544e+002
8.551121e+002, 1.089146e+002
8.555942e+002, 1.081669e+002
8.560763e+002, 1.054506e+002
8.565584e+002, 1.043010e+002
8.570405e+002, 1.053671e+002
8.575226e+002, 1.066097e+002
8.580048e+002, 1.074183e+002
8.584869e+002, 1.077156e+002
8.589690e+002, 1.070098e+002
8.594511e+002, 1.051622e+002
8.599332e+002, 1.047113e+002
8.604153e+002, 1.078979e+002
8.608975e+002, 1.097130e+002
8.613796e+002, 1.069508e+002
8.618617e+002, 1.037161e+002
8.623438e+002, 1.039968e+002
8.628259e+002, 1.070554e+002
8.633080e+002, 1.096529e+002
8.637902e+002, 1.105208e+002
8.642723e+002, 1.104401e+002
8.647544e+002, 1.093637e+002
8.652365e+002, 1.081455e+002
8.657186e+002, 1.084978e+002
8.662007e+002, 1.100193e+002
8.666829e+002, 1.109034e+002
8.671650e+002, 1.104629e+002
8.676471e+002, 1.090908e+002
8.681292e+002, 1.069947e+002
8.686113e+002, 1.044423e+002
8.690934e+002, 1.033146e+002
8.695756e+002, 1.039281e+002
8.700577e+002, 1.033785e+002
8.705398e+002, 1.001468e+002
8.710219e+002, 9.784056e+001
8.715040e+002, 9.991410e+001
8.719861e+002, 1.050059e+002
8.724683e+002, 1.080859e+002
8.729504e+002, 1.079871e+002
8.734325e+002, 1.079940e+002
8.739146e+002, 1.094253e+002
8.743967e+002, 1.094884e+002
8.748788e+002, 1.050628e+002
8.753610e+002, 9.963126e+001
8.758431e+002, 9.790875e+001
8.763252e+002, 1.003622e+002
8.768073e+002, 1.033098e+002
8.772894e+002, 1.064264e+002
8.777715e+002, 1.079288e+002
8.782537e+002, 1.047769e+002
8.787358e+002, 9.993596e+001
8.792179e+002, 9.823532e+001
8.797000e+002, 9.966683e+001
8.801821e+002, 1.008413e+002
8.806642e+002, 9.978358e+001
8.811464e+002, 9.807866e+001
8.816285e+002, 9.841529e+001
8.821106e+002, 1.003339e+002
8.825927e+002, 1.012786e+002
8.830748e+002, 1.011284e+002
8.835569e+002, 1.001551e+002
8.840391e+002, 9.824248e+001
8.845212e+002, 9.639302e+001
8.850033e+002, 9.588702e+001
8.854854e+002, 9.663287e+001
8.859675e+002, 9.667097e+001
8.864496e+002, 9.523746e+001
8.869318e+002, 9.462287e+001
8.874139e+002, 9.599235e+001
8.878960e+002, 9.732441e+001
8.883781e+002, 9.701907e+001
8.888602e+002, 9.600972e+001
8.893423e+002, 9.629140e+001
8.898245e+002, 9.843788e+001
8.903066e+002, 1.002468e+002
8.907887e+002, 1.013528e+002
8.912708e+002, 1.016982e+002
8.917529e+002, 1.006373e+002
8.922350e+002, 9.912565e+001
8.927172e+002, 9.827157e+001
8.931993e+002, 9.831168e+001
8.936814e+002, 9.914967e+001
8.941635e+002, 1.010853e+002
8.946456e+002, 1.030480e+002
8.951277e+002, 1.036534e+002
8.956099e+002, 1.033168e+002
8.960920e+002, 1.030834e+002
8.965741e+002, 1.029431e+002
8.970562e+002, 1.019263e+002
8.975383e+002, 9.953379e+001
8.980204e+002, 9.678542e+001
8.985026e+002, 9.502174e+001
8.989847e+002, 9.424947e+001
8.994668e+002, 9.502605e+001
8.999489e+002, 9.794452e+001
9.004310e+002, 9.886616e+001
9.009131e+002, 9.596024e+001
9.013953e+002, 9.257969e+001
9.018774e+002, 9.170934e+001
9.023595e+002, 9.272694e+001
9.028416e+002, 9.278609e+001
9.033237e+002, 9.071725e+001
9.038058e+002, 8.982910e+001
9.042880e+002, 9.059944e+001
9.047701e+002, 9.195085e+001
9.052522e+002, 9.434647e+001
9.057343e+002, 9.657997e+001
9.062164e+002, 9.678326e+001
9.066985e+002, 9.494036e+001
9.071807e+002, 9.374317e+001
9.076628e+002, 9.469880e+001
9.081449e+002, 9.589296e+001
9.086270e+002, 9.643056e+001
9.091091e+002, 9.653405e+001
9.095912e+002, 9.639803e+001
9.100734e+002, 9.607252e+001
9.105555e+002, 9.548809e+001
9.110376e+002, 9.459601e+001
9.115197e+002, 9.387939e+001
9.120018e+002, 9.426582e+001
9.124839e+002, 9.502342e+001
9.129661e+002, 9.441148e+001
9.134482e+002, 9.268000e+001
9.139303e+002, 9.110210e+001
9.144124e+002, 9.004120e+001
9.148945e+002, 8.978124e+001
9.153766e+002, 9.081319e+001
9.158588e+002, 9.231818e+001
9.163409e+002, 9.112276e+001
9.168230e+002, 8.668396e+001
9.173051e+002, 8.511162e+001
9.177872e+002, 8.784193e+001
9.182693e+002, 9.035947e+001
9.187515e+002, 9.028903e+001
9.192336e+002, 8.902419e+001
9.197157e+002, 8.859155e+001
9.201978e+002, 8.901076e+001
9.206799e+002, 9.006960e+001
9.211620e+002, 9.386415e+001
9.216442e+002, 9.535393e+001
9.221263e+002, 9.158704e+001
9.226084e+002, 8.743892e+001
9.230905e+002, 8.639450e+001
9.235726e+002, 8.746940e+001
9.240547e+002, 8.789396e+001
9.245369e+002, 8.677070e+001
9.250190e+002, 8.666486e+001
9.255011e+002, 8.990564e+001
9.259832e+002, 9.297623e+001
9.264653e+002, 9.347437e+001
9.269474e+002, 9.237305e+001
9.274296e+002, 9.084818e+001
9.279117e+002, 8.932409e+001
9.283938e+002, 8.822184e+001
9.288759e+002, 8.780669e+001
9.293580e+002, 8.786748e+001
9.298401e+002, 8.845129e+001
9.303223e+002, 8.922614e+001
9.308044e+002, 8.940017e+001
9.312865e+002, 8.910635e+001
9.317686e+002, 8.926563e+001
9.322507e+002, 9.023158e+001
9.327328e+002, 9.129309e+001
9.332150e+002, 9.164857e+001
9.336971e+002, 9.142500e+001
9.341792e+002, 9.081963e+001
9.346613e+002, 8.983788e+001
9.351434e+002, 9.038641e+001
9.356255e+002, 9.315529e+001
9.361077e+002, 9.510735e+001
9.365898e+002, 9.418007e+001
9.370719e+002, 9.123357e+001
9.375540e+002, 8.784270e+001
9.380361e+002, 8.345417e+001
9.385182e+002, 8.195299e+001
9.390004e+002, 8.532015e+001
9.394825e+002, 8.765700e+001
9.399646e+002, 8.596019e+001
9.404467e+002, 8.396135e+001
9.409288e+002, 8.580418e+001
9.414109e+002, 9.043504e+001
9.418931e+002, 9.312630e+001
9.423752e+002, 9.253046e+001
9.428573e+002, 9.219360e+001
9.433394e+002, 9.377657e+001
9.438215e+002, 9.433968e+001
9.443036e+002, 9.086884e+001
9.447858e+002, 8.633232e+001
9.452679e+002, 8.507952e+001
9.457500e+002, 8.732713e+001
9.462321e+002, 8.899913e+001
9.467142e+002, 8.777989e+001
9.471964e+002, 8.628394e+001
9.476785e+002, 8.572655e+001
9.481606e+002, 8.598880e+001
9.486427e+002, 8.754182e+001
9.491248e+002, 8.971388e+001
9.496069e+002, 9.097876e+001
9.500891e+002, 9.077632e+001
9.505712e+002, 8.977425e+001
9.510533e+002, 8.826546e+001
9.515354e+002, 8.654271e+001
9.520175e+002, 8.452599e+001
9.524996e+002, 8.275671e+001
9.529818e+002, 8.330870e+001
9.534639e+002, 8.621318e+001
9.539460e+002, 8.871059e+001
9.544281e+002, 8.901320e+001
9.549102e+002, 8.848503e+001
9.553923e+002, 9.000673e+001
9.558745e+002, 9.315401e+001
9.563566e+002, 9.321892e+001
9.568387e+002, 8.995600e+001
9.573208e+002, 8.792970e+001
9.578029e+002, 8.862601e+001
9.582850e+002, 9.037787e+001
9.587672e+002, 9.186317e+001
9.592493e+002, 9.294355e+001
9.597314e+002, 9.302614e+001
9.602135e+002, 9.191554e+001
9.606956e+002, 9.041807e+001
9.611777e+002, 8.806561e+001
9.616599e+002, 8.638058e+001
9.621420e+002, 8.622054e+001
9.626241e+002, 8.682402e+001
9.631062e+002, 8.732838e+001
9.635883e+002, 8.773244e+001
9.640704e+002, 8.815419e+001
9.645526e+002, 8.838789e+001
9.650347e+002, 8.894173e+001
9.655168e+002, 9.061792e+001
9.659989e+002, 9.182206e+001
9.664810e+002, 9.154222e+001
9.669631e+002, 9.030452e+001
9.674453e+002, 8.892678e+001
9.679274e+002, 8.750350e+001
9.684095e+002, 8.586236e+001
9.688916e+002, 8.244905e+001
9.693737e+002, 8.068217e+001
9.698558e+002, 8.408344e+001
9.703380e+002, 8.818962e+001
9.708201e+002, 8.801671e+001
9.713022e+002, 8.497307e+001
9.717843e+002, 8.364652e+001
9.722664e+002, 8.563387e+001
9.727485e+002, 8.785216e+001
9.732307e+002, 8.853444e+001
9.737128e+002, 8.820081e+001
9.741949e+002, 8.659325e+001
9.746770e+002, 8.468223e+001
9.751591e+002, 8.451901e+001
9.756412e+002, 8.588726e+001
9.761234e+002, 8.618808e+001
9.766055e+002, 8.382683e+001
9.770876e+002, 8.123050e+001
9.775697e+002, 8.184885e+001
9.780518e+002, 8.416666e+001
9.785339e+002, 8.474497e+001
9.790161e+002, 8.389756e+001
9.794982e+002, 8.339863e+001
9.799803e+002, 8.374729e+001
9.804624e+002, 8.481731e+001
9.809445e+002, 8.660350e+001
9.814266e+002, 8.871426e+001
9.819088e+002, 9.069147e+001
9.823909e+002, 9.237459e+001
9.828730e+002, 9.189612e+001
9.833551e+002, 8.909997e+001
9.838372e+002, 8.587410e+001
9.843194e+002, 8.272694e+001
9.848015e+002, 8.062557e+001
9.852836e+002, 8.068813e+001
9.857657e+002, 8.258238e+001
9.862479e+002, 8.497554e+001
9.867300e+002, 8.832540e+001
9.872121e+002, 8.957509e+001
9.876942e+002, 8.792538e+001
9.881763e+002, 8.568436e+001
9.886584e+002, 8.333504e+001
9.891406e+002, 8.186913e+001
9.896227e+002, 8.306647e+001
9.901048e+002, 8.689466e+001
9.905869e+002, 8.864896e+001
9.910690e+002, 8.658116e+001
9.915511e+002, 8.586137e+001
9.920333e+002, 8.768941e+001
9.925154e+002, 9.011115e+001
9.929975e+002, 9.334119e+001
9.934796e+002, 9.593507e+001
9.939617e+002, 9.513653e+001
9.944438e+002, 9.054600e+001
9.949260e+002, 8.690906e+001
9.954081e+002, 8.407191e+001
9.958902e+002, 8.283936e+001
9.963723e+002, 8.527645e+001
9.968544e+002, 8.753197e+001
9.973365e+002, 8.624352e+001
9.978187e+002, 8.312216e+001
9.983008e+002, 8.170801e+001
9.987829e+002, 8.265601e+001
9.992650e+002, 8.392188e+001
9.997471e+002, 8.552491e+001
1.000229e+003, 8.653310e+001
1.000711e+003, 8.612820e+001
1.001193e+003, 8.524421e+001
1.001676e+003, 8.456261e+001
1.002158e+003, 8.422304e+001
1.002640e+003, 8.437531e+001
1.003122e+003, 8.511555e+001
1.003604e+003, 8.576270e+001
1.004086e+003, 8.602279e+001
1.004568e+003, 8.594732e+001
1.005050e+003, 8.551677e+001
1.005533e+003, 8.481419e+001
1.006015e+003, 8.357864e+001
1.006497e+003, 8.216354e+001
1.006979e+003, 8.189146e+001
1.007461e+003, 8.349056e+001
1.007943e+003, 8.483427e+001
1.008425e+003, 8.301570e+001
1.008907e+003, 8.067766e+001
1.009389e+003, 8.098170e+001
1.009872e+003, 8.356692e+001
1.010354e+003, 8.891930e+001
1.010836e+003, 9.588827e+001
1.011318e+003, 9.926234e+001
1.011800e+003, 9.570363e+001
1.012282e+003, 9.006546e+001
1.012764e+003, 8.852334e+001
1.013246e+003, 8.925437e+001
1.013729e+003, 8.778545e+001
1.014211e+003, 8.489928e+001
1.014693e+003, 8.480271e+001
1.015175e+003, 8.799574e+001
1.015657e+003, 8.941353e+001
1.016139e+003, 8.515174e+001
1.016621e+003, 7.947373e+001
1.017103e+003, 8.094997e+001
1.017585e+003, 8.746986e+001
1.018068e+003, 8.889663e+001
1.018550e+003, 8.548433e+001
1.019032e+003, 8.313512e+001
1.019514e+003, 8.352467e+001
1.019996e+003, 8.522354e+001
1.020478e+003, 8.725038e+001
1.020960e+003, 8.918729e+001
1.021442e+003, 9.000976e+001
1.021924e+003, 8.974365e+001
1.022407e+003, 8.901439e+001
1.022889e+003, 8.780972e+001
1.023371e+003, 8.663132e+001
1.023853e+003, 8.555052e+001
1.024335e+003, 8.511154e+001
1.024817e+003, 8.589761e+001
1.025299e+003, 8.751790e+001
1.025781e+003, 8.884782e+001
1.026264e+003, 8.992719e+001
1.026746e+003, 9.047395e+001
1.027228e+003, 9.056247e+001
1.027710e+003, 8.940397e+001
1.028192e+003, 8.596000e+001
1.028674e+003, 8.355833e+001
1.029156e+003, 8.618779e+001
1.029638e+003, 9.192702e+001
1.030120e+003, 9.248438e+001
1.030603e+003, 8.559852e+001
1.031085e+003, 8.208829e+001
1.031567e+003, 8.319783e+001
1.032049e+003, 8.525549e+001
1.032531e+003, 8.793314e+001
1.033013e+003, 8.955318e+001
1.033495e+003, 8.787884e+001
1.033977e+003, 8.376408e+001
1.034459e+003, 8.152290e+001
1.034942e+003, 8.166386e+001
1.035424e+003, 8.252375e+001
1.035906e+003, 8.464140e+001
1.036388e+003, 8.661275e+001
1.036870e+003, 8.865188e+001
1.037352e+003, 8.959652e+001
1.037834e+003, 8.754014e+001
1.038316e+003, 8.319612e+001
1.038799e+003, 8.080124e+001
1.039281e+003, 8.040483e+001
1.039763e+003, 8.185980e+001
1.040245e+003, 8.774753e+001
1.040727e+003, 9.218764e+001
1.041209e+003, 9.203696e+001
1.041691e+003, 9.062177e+001
1.042173e+003, 9.193499e+001
1.042656e+003, 9.499738e+001
1.043138e+003, 9.436696e+001
1.043620e+003, 8.624380e+001
1.044102e+003, 8.167479e+001
1.044584e+003, 8.450037e+001
1.045066e+003, 8.700841e+001
1.045548e+003, 8.608492e+001
1.046030e+003, 8.380428e+001
1.046512e+003, 8.119020e+001
1.046995e+003, 7.893279e+001
1.047477e+003, 7.985658e+001
1.047959e+003, 8.666309e+001
1.048441e+003, 9.110525e+001
1.048923e+003, 9.068217e+001
1.049405e+003, 8.922864e+001
1.049887e+003, 8.755312e+001
1.050369e+003, 8.617608e+001
1.050851e+003, 8.588557e+001
1.051334e+003, 8.633219e+001
1.051816e+003, 8.606743e+001
1.052298e+003, 8.463008e+001
1.052780e+003, 8.308415e+001
1.053262e+003, 8.036671e+001
1.053744e+003, 7.915382e+001
1.054226e+003, 8.218023e+001
1.054708e+003, 8.614965e+001
1.055191e+003, 8.759248e+001
1.055673e+003, 8.693131e+001
1.056155e+003, 8.678873e+001
1.056637e+003, 8.824241e+001
1.057119e+003, 8.840396e+001
1.057601e+003, 8.406545e+001
1.058083e+003, 8.103653e+001
1.058565e+003, 8.425902e+001
1.059047e+003, 8.860439e+001
1.059530e+003, 8.811323e+001
1.060012e+003, 8.409569e+001
1.060494e+003, 8.205267e+001
1.060976e+003, 8.364785e+001
1.061458e+003, 8.559133e+001
1.061940e+003, 8.717648e+001
1.062422e+003, 8.828490e+001
1.062904e+003, 8.883365e+001
1.063386e+003, 8.889768e+001
1.063869e+003, 8.837411e+001
1.064351e+003, 8.745952e+001
1.064833e+003, 8.664565e+001
1.065315e+003, 8.608882e+001
1.065797e+003, 8.537346e+001
1.066279e+003, 8.380769e+001
1.066761e+003, 8.268414e+001
1.067243e+003, 8.287211e+001
1.067726e+003, 8.369408e+001
1.068208e+003, 8.463143e+001
1.068690e+003, 8.558778e+001
1.069172e+003, 8.699373e+001
1.069654e+003, 8.908183e+001
1.070136e+003, 8.904771e+001
1.070618e+003, 8.270480e+001
1.071100e+003, 7.762151e+001
1.071583e+003, 7.898844e+001
1.072065e+003, 8.245333e+001
1.072547e+003, 8.408938e+001
1.073029e+003, 8.438987e+001
1.073511e+003, 8.584761e+001
1.073993e+003, 8.896615e+001
1.074475e+003, 8.965297e+001
1.074957e+003, 8.325555e+001
1.075439e+003, 7.764194e+001
1.075922e+003, 7.715159e+001
1.076404e+003, 7.884535e+001
1.076886e+003, 8.148029e+001
1.077368e+003, 8.373528e+001
1.077850e+003, 8.316813e+001
1.078332e+003, 7.961223e+001
1.078814e+003, 7.700294e+001
1.079296e+003, 7.721315e+001
1.079778e+003, 7.849961e+001
1.080261e+003, 8.127485e+001
1.080743e+003, 8.359173e+001
1.081225e+003, 8.301501e+001
1.081707e+003, 8.127354e+001
1.082189e+003, 8.183080e+001
1.082671e+003, 8.469046e+001
1.083153e+003, 8.544037e+001
1.083635e+003, 8.032684e+001
1.084118e+003, 7.669902e+001
1.084600e+003, 7.996815e+001
1.085082e+003, 8.375935e+001
1.085564e+003, 8.300183e+001
1.086046e+003, 8.009853e+001
1.086528e+003, 7.823286e+001
1.087010e+003, 7.789882e+001
1.087492e+003, 7.883382e+001
1.087974e+003, 8.176885e+001
1.088457e+003, 8.380622e+001
1.088939e+003, 8.303825e+001
1.089421e+003, 8.179804e+001
1.089903e+003, 8.116520e+001
1.090385e+003, 8.114662e+001
1.090867e+003, 8.265697e+001
1.091349e+003, 8.470746e+001
1.091831e+003, 8.334791e+001
1.092314e+003, 7.582455e+001
1.092796e+003, 7.200031e+001
1.093278e+003, 8.013836e+001
1.093760e+003, 8.724396e+001
1.094242e+003, 8.455623e+001
1.094724e+003, 7.939717e+001
1.095206e+003, 7.922739e+001
1.095688e+003, 8.271461e+001
1.096171e+003, 8.491601e+001
1.096653e+003, 8.479017e+001
1.097135e+003, 8.386415e+001
1.097617e+003, 8.109183e+001
1.098099e+003, 7.957131e+001
1.098581e+003, 8.222050e+001
1.099063e+003, 8.498003e+001
1.099545e+003, 8.376537e+001
1.100027e+003, 8.059396e+001
1.100510e+003, 8.008408e+001
1.100992e+003, 8.294279e+001
1.101474e+003, 8.385297e+001
1.101956e+003, 7.910905e+001
1.102438e+003, 7.585570e+001
1.102920e+003, 7.798119e+001
1.103402e+003, 7.998777e+001
1.103884e+003, 7.771626e+001
1.104366e+003, 7.364148e+001
1.104849e+003, 7.109746e+001
1.105331e+003, 7.035034e+001
1.105813e+003, 7.077046e+001
1.106295e+003, 7.361593e+001
1.106777e+003, 7.548762e+001
1.107259e+003, 7.468340e+001
1.107741e+003, 7.430354e+001
1.108223e+003, 7.637053e+001
1.108706e+003, 7.908852e+001
1.109188e+003, 8.055138e+001
1.109670e+003, 8.090140e+001
1.110152e+003, 8.123499e+001
1.110634e+003, 8.203332e+001
1.111116e+003, 8.187619e+001
1.111598e+003, 7.969560e+001
1.112080e+003, 7.787700e+001
1.112563e+003, 7.752801e+001
1.113045e+003, 7.740303e+001
1.113527e+003, 7.571214e+001
1.114009e+003, 7.365736e+001
1.114491e+003, 7.493990e+001
1.114973e+003, 8.105485e+001
1.115455e+003, 8.406029e+001
1.115937e+003, 8.280117e+001
1.116419e+003, 8.034694e+001
1.116901e+003, 7.573460e+001
1.117384e+003, 7.215759e+001
1.117866e+003, 7.176672e+001
1.118348e+003, 7.340002e+001
1.118830e+003, 7.548238e+001
1.119312e+003, 7.807188e+001
1.119794e+003, 7.865431e+001
1.120276e+003, 7.589747e+001
1.120758e+003, 7.469627e+001
1.121241e+003, 7.626260e+001
1.121723e+003, 7.771507e+001
1.122205e+003, 7.739520e+001
1.122687e+003, 7.709573e+001
1.123169e+003, 7.941586e+001
1.123651e+003, 8.350365e+001
1.124133e+003, 8.395506e+001
1.124615e+003, 7.953225e+001
1.125098e+003, 7.779645e+001
1.125580e+003, 7.991741e+001
1.126062e+003, 8.068669e+001
1.126544e+003, 7.789385e+001
1.127026e+003, 7.538038e+001
1.127508e+003, 7.672733e+001
1.127990e+003, 7.994230e+001
1.128472e+003, 7.968937e+001
1.128954e+003, 7.582539e+001
1.129437e+003, 7.414334e+001
1.129919e+003, 7.476968e+001
1.130401e+003, 7.576289e+001
1.130883e+003, 7.683080e+001
1.131365e+003, 7.659792e+001
1.131847e+003, 7.401756e+001
1.132329e+003, 7.121217e+001
1.132811e+003, 7.165701e+001
1.133293e+003, 7.449605e+001
1.133776e+003, 7.519563e+001
1.134258e+003, 7.418819e+001
1.134740e+003, 7.633121e+001
1.135222e+003, 8.179413e+001
1.135704e+003, 8.489696e+001
1.136186e+003, 8.333871e+001
1.136668e+003, 8.018368e+001
1.137150e+003, 7.816598e+001
1.137633e+003, 7.716579e+001
1.138115e+003, 7.780870e+001
1.138597e+003, 7.908397e+001
1.139079e+003, 7.684489e+001
1.139561e+003, 7.216425e+001
1.140043e+003, 7.029298e+001
1.140525e+003, 7.231276e+001
1.141007e+003, 7.574503e+001
1.141490e+003, 7.921737e+001
1.141972e+003, 8.181341e+001
1.142454e+003, 8.226714e+001
1.142936e+003, 8.125774e+001
1.143418e+003, 7.902866e+001
1.143900e+003, 7.655775e+001
1.144382e+003, 7.628066e+001
1.144864e+003, 7.774409e+001
1.145346e+003, 7.787742e+001
1.145828e+003, 7.554314e+001
1.146311e+003, 7.388010e+001
1.146793e+003, 7.587215e+001
1.147275e+003, 7.896379e+001
1.147757e+003, 8.148134e+001
1.148239e+003, 8.321443e+001
1.148721e+003, 8.407224e+001
1.149203e+003, 8.387193e+001
1.149685e+003, 8.172859e+001
1.150168e+003, 7.790383e+001
1.150650e+003, 7.502076e+001
1.151132e+003, 7.416647e+001
1.151614e+003, 7.459868e+001
1.152096e+003, 7.672539e+001
1.152578e+003, 7.912321e+001
1.153060e+003, 8.170734e+001
1.153542e+003, 8.336646e+001
1.154025e+003, 8.222412e+001
1.154507e+003, 7.910281e+001
1.154989e+003, 7.688596e+001
1.155471e+003, 7.618048e+001
1.155953e+003, 7.624080e+001
1.156435e+003, 7.771246e+001
1.156917e+003, 7.878919e+001
1.157399e+003, 7.842290e+001
1.157881e+003, 7.795543e+001
1.158364e+003, 7.841364e+001
1.158846e+003, 7.934392e+001
1.159328e+003, 8.005449e+001
1.159810e+003, 8.051982e+001
1.160292e+003, 8.049892e+001
1.160774e+003, 7.979445e+001
1.161256e+003, 7.894027e+001
1.161738e+003, 7.750322e+001
1.162220e+003, 7.669053e+001
1.162703e+003, 7.723257e+001
1.163185e+003, 7.817992e+001
1.163667e+003, 7.873455e+001
1.164149e+003, 7.892143e+001
1.164631e+003, 7.870829e+001
1.165113e+003, 7.786210e+001
1.165595e+003, 7.811861e+001
1.166077e+003, 7.968709e+001
1.166560e+003, 8.176546e+001
1.167042e+003, 8.465160e+001
1.167524e+003, 8.565273e+001
1.168006e+003, 8.281703e+001
1.168488e+003, 7.862544e+001
1.168970e+003, 7.673488e+001
1.169452e+003, 7.678806e+001
1.169934e+003, 7.714290e+001
1.170417e+003, 7.778293e+001
1.170899e+003, 7.874663e+001
1.171381e+003, 7.994339e+001
1.171863e+003, 7.992308e+001
1.172345e+003, 7.822455e+001
1.172827e+003, 7.583103e+001
1.173309e+003, 7.339964e+001
1.173791e+003, 7.136952e+001
1.174273e+003, 7.042480e+001
1.174755e+003, 7.045298e+001
1.175238e+003, 7.158908e+001
1.175720e+003, 7.336894e+001
1.176202e+003, 7.441206e+001
1.176684e+003, 7.470052e+001
1.177166e+003, 7.535283e+001
1.177648e+003, 7.685173e+001
1.178130e+003, 7.827441e+001
1.178612e+003, 7.870668e+001
1.179095e+003, 7.885810e+001
1.179577e+003, 7.989059e+001
1.180059e+003, 8.070226e+001
1.180541e+003, 7.872326e+001
1.181023e+003, 7.595982e+001
1.181505e+003, 7.759705e+001
1.181987e+003, 8.334128e+001
1.182469e+003, 8.583467e+001
1.182952e+003, 8.094762e+001
1.183434e+003, 7.590412e+001
1.183916e+003, 7.287250e+001
1.184398e+003, 7.183015e+001
1.184880e+003, 7.427576e+001
1.185362e+003, 7.739883e+001
1.185844e+003, 7.849068e+001
1.186326e+003, 7.810786e+001
1.186808e+003, 7.782333e+001
1.187291e+003, 7.769305e+001
1.187773e+003, 7.865227e+001
1.188255e+003, 8.207076e+001
1.188737e+003, 8.461035e+001
1.189219e+003, 8.660747e+001
1.189701e+003, 8.659978e+001
1.190183e+003, 8.190257e+001
1.190665e+003, 7.744094e+001
1.191147e+003, 7.964554e+001
1.191630e+003, 8.622578e+001
1.192112e+003, 8.684011e+001
1.192594e+003, 7.945569e+001
1.193076e+003, 7.693652e+001
1.193558e+003, 8.062508e+001
1.194040e+003, 8.200937e+001
1.194522e+003, 7.878786e+001
1.195004e+003, 7.532732e+001
1.195487e+003, 7.414061e+001
1.195969e+003, 7.465480e+001
1.196451e+003, 7.646753e+001
1.196933e+003, 7.891707e+001
1.197415e+003, 7.913577e+001
1.197897e+003, 7.759941e+001
1.198379e+003, 7.717336e+001
1.198861e+003, 7.784795e+001
1.199344e+003, 7.778582e+001
1.199826e+003, 7.654759e+001
1.200308e+003, 7.546950e+001
1.200790e+003, 7.546706e+001
1.201272e+003, 7.594505e+001
1.201754e+003, 7.623167e+001
1.202236e+003, 7.651637e+001
1.202718e+003, 7.758215e+001
1.203200e+003, 7.854838e+001
1.203682e+003, 7.715929e+001
1.204165e+003, 7.439285e+001
1.204647e+003, 7.348457e+001
1.205129e+003, 7.527660e+001
1.205611e+003, 7.775734e+001
1.206093e+003, 8.107642e+001
1.206575e+003, 8.281136e+001
1.207057e+003, 8.013335e+001
1.207539e+003, 7.719611e+001
1.208022e+003, 7.679516e+001
1.208504e+003, 7.777587e+001
1.208986e+003, 7.879146e+001
1.209468e+003, 7.976561e+001
1.209950e+003, 8.116412e+001
1.210432e+003, 8.361076e+001
1.210914e+003, 8.408810e+001
1.211396e+003, 8.052638e+001
1.211879e+003, 7.790596e+001
1.212361e+003, 7.794358e+001
1.212843e+003, 7.730744e+001
1.213325e+003, 7.336934e+001
1.213807e+003, 6.927721e+001
1.214289e+003, 6.887553e+001
1.214771e+003, 7.159158e+001
1.215253e+003, 7.509558e+001
1.215735e+003, 7.967193e+001
1.216218e+003, 8.203633e+001
1.216700e+003, 8.197704e+001
1.217182e+003, 8.166580e+001
1.217664e+003, 8.162400e+001
1.218146e+003, 8.072472e+001
1.218628e+003, 7.818206e+001
1.219110e+003, 7.591201e+001
1.219592e+003, 7.678331e+001
1.220074e+003, 7.930947e+001
1.220557e+003, 7.997525e+001
1.221039e+003, 7.941121e+001
1.221521e+003, 7.908229e+001
1.222003e+003, 7.912921e+001
1.222485e+003, 7.964867e+001
1.222967e+003, 8.050932e+001
1.223449e+003, 8.109898e+001
1.223931e+003, 8.119261e+001
1.224414e+003, 8.028984e+001
1.224896e+003, 7.636657e+001
1.225378e+003, 7.313312e+001
1.225860e+003, 7.489499e+001
1.226342e+003, 7.782620e+001
1.226824e+003, 7.740726e+001
1.227306e+003, 7.511554e+001
1.227788e+003, 7.465202e+001
1.228271e+003, 7.639515e+001
1.228753e+003, 7.760500e+001
1.229235e+003, 7.761857e+001
1.229717e+003, 7.725505e+001
1.230199e+003, 7.626670e+001
1.230681e+003, 7.539746e+001
1.231163e+003, 7.486732e+001
1.231645e+003, 7.458913e+001
1.232127e+003, 7.498519e+001
1.232609e+003, 7.507990e+001
1.233092e+003, 7.247895e+001
1.233574e+003, 6.730882e+001
1.234056e+003, 6.618168e+001
1.234538e+003, 6.972453e+001
1.235020e+003, 7.180532e+001
1.235502e+003, 7.171765e+001
1.235984e+003, 7.256734e+001
1.236466e+003, 7.545753e+001
1.236949e+003, 7.789241e+001
1.237431e+003, 7.785833e+001
1.237913e+003, 7.666099e+001
1.238395e+003, 7.631250e+001
1.238877e+003, 7.644221e+001
1.239359e+003, 7.603719e+001
1.239841e+003, 7.542666e+001
1.240323e+003, 7.567479e+001
1.240806e+003, 7.647097e+001
1.241288e+003, 7.610715e+001
1.241770e+003, 7.438927e+001
1.242252e+003, 7.400139e+001
1.242734e+003, 7.731049e+001
1.243216e+003, 7.996313e+001
1.243698e+003, 7.843272e+001
1.244180e+003, 7.608450e+001
1.244662e+003, 7.404908e+001
1.245145e+003, 7.340870e+001
1.245627e+003, 7.647044e+001
1.246109e+003, 8.126818e+001
1.246591e+003, 8.333778e+001
1.247073e+003, 8.211460e+001
1.247555e+003, 8.067955e+001
1.248037e+003, 7.815238e+001
1.248519e+003, 7.763298e+001
1.249001e+003, 8.135311e+001
1.249484e+003, 8.240132e+001
1.249966e+003, 7.699065e+001
1.250448e+003, 7.206041e+001
1.250930e+003, 7.347206e+001
1.251412e+003, 7.798033e+001
1.251894e+003, 7.947363e+001
1.252376e+003, 7.823164e+001
1.252858e+003, 7.518542e+001
1.253341e+003, 7.094785e+001
1.253823e+003, 7.219776e+001
1.254305e+003, 7.852820e+001
1.254787e+003, 8.189908e+001
1.255269e+003, 8.010457e+001
1.255751e+003, 7.762837e+001
1.256233e+003, 7.732652e+001
1.256715e+003, 7.826649e+001
1.257198e+003, 8.110012e+001
1.257680e+003, 8.300349e+001
1.258162e+003, 7.818629e+001
1.258644e+003, 7.253151e+001
1.259126e+003, 7.527219e+001
1.259608e+003, 8.267818e+001
1.260090e+003, 8.537597e+001
1.260572e+003, 8.228291e+001
1.261054e+003, 7.997775e+001
1.261536e+003, 8.145525e+001
1.262019e+003, 8.101162e+001
1.262501e+003, 7.473071e+001
1.262983e+003, 7.032392e+001
1.263465e+003, 7.136123e+001
1.263947e+003, 7.334393e+001
1.264429e+003, 7.330604e+001
1.264911e+003, 7.286382e+001
1.265393e+003, 7.469987e+001
1.265876e+003, 7.831346e+001
1.266358e+003, 8.023069e+001
1.266840e+003, 8.035133e+001
1.267322e+003, 8.052573e+001
1.267804e+003, 8.083037e+001
1.268286e+003, 8.055975e+001
1.268768e+003, 7.954564e+001
1.269250e+003, 7.775343e+001
1.269733e+003, 7.514825e+001
1.270215e+003, 7.281085e+001
1.270697e+003, 7.176424e+001
1.271179e+003, 7.184810e+001
1.271661e+003, 7.311794e+001
1.272143e+003, 7.514065e+001
1.272625e+003, 7.793652e+001
1.273107e+003, 8.067481e+001
1.273589e+003, 8.213860e+001
1.274072e+003, 8.217771e+001
1.274554e+003, 8.101834e+001
1.275036e+003, 7.860564e+001
1.275518e+003, 7.599615e+001
1.276000e+003, 7.154186e+001
1.276482e+003, 6.987418e+001
1.276964e+003, 7.486302e+001
1.277446e+003, 7.964964e+001
1.277928e+003, 8.053183e+001
1.278411e+003, 8.031619e+001
1.278893e+003, 8.182965e+001
1.279375e+003, 8.417137e+001
1.279857e+003, 8.499928e+001
1.280339e+003, 8.431407e+001
1.280821e+003, 8.116335e+001
1.281303e+003, 7.547062e+001
1.281786e+003, 7.266492e+001
1.282268e+003, 7.346982e+001
##END=



