##NAMES=Valentinite
##RRUFFID=R060516
##IDEAL CHEMISTRY=Sb^3+^_2_O_3_
##LOCALITY=Sombrerete, Zacatecas, Mexico
##OWNER=RRUFF
##SOURCE=Michael Scott
##DESCRIPTION=Colorless prismatic single crystals, adamantine luster, associated with pyrite and black metallic, elongated jamesonite.
##STATUS=The identification of this mineral is confirmed by single-crystal X-ray diffraction and chemical analysis.
##URL=rruff.info/R060516
##MEASURED CHEMISTRY=Sb_2.00_O_3_
9.059570e+001, 3.505334e+003
9.107782e+001, 3.421811e+003
9.155994e+001, 3.392281e+003
9.204205e+001, 3.454613e+003
9.252417e+001, 3.545352e+003
9.300629e+001, 3.643653e+003
9.348840e+001, 3.723085e+003
9.397052e+001, 3.759742e+003
9.445264e+001, 3.744991e+003
9.493475e+001, 3.726162e+003
9.541687e+001, 3.709958e+003
9.589898e+001, 3.699425e+003
9.638110e+001, 3.693356e+003
9.686321e+001, 3.690537e+003
9.734533e+001, 3.687832e+003
9.782745e+001, 3.678642e+003
9.830956e+001, 3.675974e+003
9.879168e+001, 3.681223e+003
9.927380e+001, 3.690854e+003
9.975591e+001, 3.703277e+003
1.002380e+002, 3.718289e+003
1.007201e+002, 3.736475e+003
1.012023e+002, 3.758266e+003
1.016844e+002, 3.783837e+003
1.021665e+002, 3.811055e+003
1.026486e+002, 3.840865e+003
1.031307e+002, 3.871322e+003
1.036128e+002, 3.899396e+003
1.040950e+002, 3.924132e+003
1.045771e+002, 3.951125e+003
1.050592e+002, 3.976609e+003
1.055413e+002, 4.005800e+003
1.060234e+002, 4.049638e+003
1.065055e+002, 4.117706e+003
1.069877e+002, 4.204798e+003
1.074698e+002, 4.292454e+003
1.079519e+002, 4.393907e+003
1.084340e+002, 4.477220e+003
1.089161e+002, 4.536630e+003
1.093982e+002, 4.570401e+003
1.098804e+002, 4.575056e+003
1.103625e+002, 4.543044e+003
1.108446e+002, 4.467570e+003
1.113267e+002, 4.390539e+003
1.118088e+002, 4.298944e+003
1.122909e+002, 4.215731e+003
1.127731e+002, 4.149403e+003
1.132552e+002, 4.102552e+003
1.137373e+002, 4.074205e+003
1.142194e+002, 4.063772e+003
1.147015e+002, 4.078188e+003
1.151836e+002, 4.102025e+003
1.156658e+002, 4.133508e+003
1.161479e+002, 4.174487e+003
1.166300e+002, 4.225379e+003
1.171121e+002, 4.286174e+003
1.175942e+002, 4.359532e+003
1.180763e+002, 4.452872e+003
1.185584e+002, 4.559701e+003
1.190406e+002, 4.690879e+003
1.195227e+002, 4.848502e+003
1.200048e+002, 5.032374e+003
1.204869e+002, 5.244341e+003
1.209690e+002, 5.486070e+003
1.214511e+002, 5.759422e+003
1.219333e+002, 6.056956e+003
1.224154e+002, 6.385144e+003
1.228975e+002, 6.725976e+003
1.233796e+002, 7.064803e+003
1.238617e+002, 7.403220e+003
1.243438e+002, 7.732727e+003
1.248260e+002, 8.035915e+003
1.253081e+002, 8.330673e+003
1.257902e+002, 8.630708e+003
1.262723e+002, 8.931338e+003
1.267544e+002, 9.247474e+003
1.272365e+002, 9.609406e+003
1.277187e+002, 1.002949e+004
1.282008e+002, 1.048435e+004
1.286829e+002, 1.097835e+004
1.291650e+002, 1.149544e+004
1.296471e+002, 1.201737e+004
1.301292e+002, 1.253894e+004
1.306114e+002, 1.305687e+004
1.310935e+002, 1.351963e+004
1.315756e+002, 1.391490e+004
1.320577e+002, 1.426563e+004
1.325398e+002, 1.455227e+004
1.330219e+002, 1.479388e+004
1.335041e+002, 1.502057e+004
1.339862e+002, 1.525096e+004
1.344683e+002, 1.547278e+004
1.349504e+002, 1.581359e+004
1.354325e+002, 1.623212e+004
1.359146e+002, 1.677238e+004
1.363968e+002, 1.744017e+004
1.368789e+002, 1.824139e+004
1.373610e+002, 1.920498e+004
1.378431e+002, 2.034898e+004
1.383252e+002, 2.169403e+004
1.388073e+002, 2.326703e+004
1.392895e+002, 2.511193e+004
1.397716e+002, 2.717371e+004
1.402537e+002, 2.950171e+004
1.407358e+002, 3.217612e+004
1.412179e+002, 3.480500e+004
1.417000e+002, 3.705133e+004
1.421821e+002, 3.898973e+004
1.426643e+002, 4.007940e+004
1.431464e+002, 3.993281e+004
1.436285e+002, 3.871605e+004
1.441106e+002, 3.696323e+004
1.445927e+002, 3.446676e+004
1.450748e+002, 3.180377e+004
1.455570e+002, 2.943235e+004
1.460391e+002, 2.736683e+004
1.465212e+002, 2.552847e+004
1.470033e+002, 2.390876e+004
1.474854e+002, 2.252724e+004
1.479675e+002, 2.115029e+004
1.484497e+002, 1.970205e+004
1.489318e+002, 1.825301e+004
1.494139e+002, 1.681449e+004
1.498960e+002, 1.540028e+004
1.503781e+002, 1.404431e+004
1.508602e+002, 1.280702e+004
1.513424e+002, 1.167261e+004
1.518245e+002, 1.069115e+004
1.523066e+002, 9.863787e+003
1.527887e+002, 9.151337e+003
1.532708e+002, 8.526880e+003
1.537529e+002, 7.982400e+003
1.542351e+002, 7.508555e+003
1.547172e+002, 7.085202e+003
1.551993e+002, 6.737037e+003
1.556814e+002, 6.421321e+003
1.561635e+002, 6.140627e+003
1.566456e+002, 5.888615e+003
1.571278e+002, 5.660955e+003
1.576099e+002, 5.455399e+003
1.580920e+002, 5.271400e+003
1.585741e+002, 5.109533e+003
1.590562e+002, 4.972650e+003
1.595383e+002, 4.850209e+003
1.600205e+002, 4.742466e+003
1.605026e+002, 4.648014e+003
1.609847e+002, 4.564026e+003
1.614668e+002, 4.489956e+003
1.619489e+002, 4.425841e+003
1.624310e+002, 4.369543e+003
1.629131e+002, 4.320587e+003
1.633953e+002, 4.278979e+003
1.638774e+002, 4.245742e+003
1.643595e+002, 4.220562e+003
1.648416e+002, 4.201067e+003
1.653237e+002, 4.185541e+003
1.658058e+002, 4.175615e+003
1.662880e+002, 4.173428e+003
1.667701e+002, 4.178608e+003
1.672522e+002, 4.192157e+003
1.677343e+002, 4.215666e+003
1.682164e+002, 4.249583e+003
1.686985e+002, 4.291194e+003
1.691807e+002, 4.341049e+003
1.696628e+002, 4.396845e+003
1.701449e+002, 4.457236e+003
1.706270e+002, 4.521794e+003
1.711091e+002, 4.590329e+003
1.715912e+002, 4.662850e+003
1.720734e+002, 4.741074e+003
1.725555e+002, 4.820407e+003
1.730376e+002, 4.897098e+003
1.735197e+002, 4.974316e+003
1.740018e+002, 5.056515e+003
1.744839e+002, 5.144842e+003
1.749661e+002, 5.240155e+003
1.754482e+002, 5.346943e+003
1.759303e+002, 5.470411e+003
1.764124e+002, 5.601625e+003
1.768945e+002, 5.734707e+003
1.773766e+002, 5.873484e+003
1.778588e+002, 6.023016e+003
1.783409e+002, 6.187568e+003
1.788230e+002, 6.367544e+003
1.793051e+002, 6.560366e+003
1.797872e+002, 6.767073e+003
1.802693e+002, 6.985533e+003
1.807515e+002, 7.212022e+003
1.812336e+002, 7.449529e+003
1.817157e+002, 7.702068e+003
1.821978e+002, 7.972971e+003
1.826799e+002, 8.262041e+003
1.831620e+002, 8.575801e+003
1.836441e+002, 8.910568e+003
1.841263e+002, 9.266107e+003
1.846084e+002, 9.642519e+003
1.850905e+002, 1.003897e+004
1.855726e+002, 1.045512e+004
1.860547e+002, 1.089219e+004
1.865368e+002, 1.135437e+004
1.870190e+002, 1.180033e+004
1.875011e+002, 1.225474e+004
1.879832e+002, 1.267379e+004
1.884653e+002, 1.304338e+004
1.889474e+002, 1.335751e+004
1.894296e+002, 1.358241e+004
1.899117e+002, 1.368187e+004
1.903938e+002, 1.365008e+004
1.908759e+002, 1.350443e+004
1.913580e+002, 1.320926e+004
1.918401e+002, 1.281772e+004
1.923223e+002, 1.237017e+004
1.928044e+002, 1.186155e+004
1.932865e+002, 1.134257e+004
1.937686e+002, 1.084053e+004
1.942507e+002, 1.035919e+004
1.947328e+002, 9.937438e+003
1.952150e+002, 9.592615e+003
1.956971e+002, 9.313153e+003
1.961792e+002, 9.078229e+003
1.966613e+002, 8.892001e+003
1.971434e+002, 8.741105e+003
1.976255e+002, 8.612761e+003
1.981077e+002, 8.506430e+003
1.985898e+002, 8.428886e+003
1.990719e+002, 8.386160e+003
1.995540e+002, 8.375322e+003
2.000361e+002, 8.384639e+003
2.005182e+002, 8.416863e+003
2.010004e+002, 8.468246e+003
2.014825e+002, 8.533076e+003
2.019646e+002, 8.611886e+003
2.024467e+002, 8.705368e+003
2.029288e+002, 8.812931e+003
2.034109e+002, 8.934969e+003
2.038930e+002, 9.075410e+003
2.043752e+002, 9.231261e+003
2.048573e+002, 9.412077e+003
2.053394e+002, 9.622186e+003
2.058215e+002, 9.858399e+003
2.063036e+002, 1.011467e+004
2.067857e+002, 1.038370e+004
2.072679e+002, 1.066477e+004
2.077500e+002, 1.097344e+004
2.082321e+002, 1.131458e+004
2.087142e+002, 1.168169e+004
2.091963e+002, 1.206820e+004
2.096784e+002, 1.247818e+004
2.101606e+002, 1.292038e+004
2.106427e+002, 1.340157e+004
2.111248e+002, 1.391674e+004
2.116069e+002, 1.449263e+004
2.120890e+002, 1.512395e+004
2.125711e+002, 1.581101e+004
2.130533e+002, 1.656303e+004
2.135354e+002, 1.737395e+004
2.140175e+002, 1.824078e+004
2.144996e+002, 1.916737e+004
2.149817e+002, 2.017027e+004
2.154638e+002, 2.112275e+004
2.159460e+002, 2.211557e+004
2.164281e+002, 2.299685e+004
2.169102e+002, 2.374484e+004
2.173923e+002, 2.432931e+004
2.178744e+002, 2.468853e+004
2.183565e+002, 2.475797e+004
2.188387e+002, 2.450662e+004
2.193208e+002, 2.406370e+004
2.198029e+002, 2.334946e+004
2.202850e+002, 2.253345e+004
2.207671e+002, 2.167227e+004
2.212492e+002, 2.078680e+004
2.217314e+002, 1.993094e+004
2.222135e+002, 1.914253e+004
2.226956e+002, 1.843318e+004
2.231777e+002, 1.781356e+004
2.236598e+002, 1.730785e+004
2.241419e+002, 1.687079e+004
2.246240e+002, 1.648027e+004
2.251062e+002, 1.613233e+004
2.255883e+002, 1.581922e+004
2.260704e+002, 1.554446e+004
2.265525e+002, 1.530549e+004
2.270346e+002, 1.506099e+004
2.275167e+002, 1.481398e+004
2.279989e+002, 1.455762e+004
2.284810e+002, 1.428898e+004
2.289631e+002, 1.400847e+004
2.294452e+002, 1.371487e+004
2.299273e+002, 1.340343e+004
2.304094e+002, 1.307924e+004
2.308916e+002, 1.275450e+004
2.313737e+002, 1.242667e+004
2.318558e+002, 1.210273e+004
2.323379e+002, 1.178927e+004
2.328200e+002, 1.148604e+004
2.333021e+002, 1.119536e+004
2.337843e+002, 1.091621e+004
2.342664e+002, 1.065060e+004
2.347485e+002, 1.040383e+004
2.352306e+002, 1.017763e+004
2.357127e+002, 9.970672e+003
2.361948e+002, 9.779112e+003
2.366770e+002, 9.600865e+003
2.371591e+002, 9.442781e+003
2.376412e+002, 9.315252e+003
2.381233e+002, 9.207156e+003
2.386054e+002, 9.107547e+003
2.390875e+002, 9.012077e+003
2.395697e+002, 8.925131e+003
2.400518e+002, 8.853578e+003
2.405339e+002, 8.797003e+003
2.410160e+002, 8.757132e+003
2.414981e+002, 8.738596e+003
2.419802e+002, 8.734416e+003
2.424624e+002, 8.740038e+003
2.429445e+002, 8.754348e+003
2.434266e+002, 8.776536e+003
2.439087e+002, 8.804788e+003
2.443908e+002, 8.837775e+003
2.448729e+002, 8.880969e+003
2.453550e+002, 8.936057e+003
2.458372e+002, 9.000554e+003
2.463193e+002, 9.073322e+003
2.468014e+002, 9.154196e+003
2.472835e+002, 9.241994e+003
2.477656e+002, 9.335618e+003
2.482477e+002, 9.433334e+003
2.487299e+002, 9.541572e+003
2.492120e+002, 9.657488e+003
2.496941e+002, 9.784417e+003
2.501762e+002, 9.925292e+003
2.506583e+002, 1.008131e+004
2.511404e+002, 1.025048e+004
2.516226e+002, 1.042981e+004
2.521047e+002, 1.061278e+004
2.525868e+002, 1.082130e+004
2.530689e+002, 1.105304e+004
2.535510e+002, 1.130848e+004
2.540331e+002, 1.158981e+004
2.545153e+002, 1.189694e+004
2.549974e+002, 1.222911e+004
2.554795e+002, 1.258942e+004
2.559616e+002, 1.298612e+004
2.564437e+002, 1.339351e+004
2.569258e+002, 1.382641e+004
2.574080e+002, 1.425639e+004
2.578901e+002, 1.468175e+004
2.583722e+002, 1.509388e+004
2.588543e+002, 1.546949e+004
2.593364e+002, 1.578135e+004
2.598185e+002, 1.604173e+004
2.603007e+002, 1.619279e+004
2.607828e+002, 1.623042e+004
2.612649e+002, 1.618966e+004
2.617470e+002, 1.607542e+004
2.622291e+002, 1.589736e+004
2.627112e+002, 1.568006e+004
2.631934e+002, 1.544575e+004
2.636755e+002, 1.518167e+004
2.641576e+002, 1.494916e+004
2.646397e+002, 1.473469e+004
2.651218e+002, 1.455594e+004
2.656039e+002, 1.442434e+004
2.660861e+002, 1.433966e+004
2.665682e+002, 1.429452e+004
2.670503e+002, 1.428284e+004
2.675324e+002, 1.430596e+004
2.680145e+002, 1.436212e+004
2.684966e+002, 1.445049e+004
2.689788e+002, 1.456449e+004
2.694609e+002, 1.470304e+004
2.699430e+002, 1.486463e+004
2.704251e+002, 1.504566e+004
2.709072e+002, 1.524289e+004
2.713893e+002, 1.545477e+004
2.718715e+002, 1.569881e+004
2.723536e+002, 1.597643e+004
2.728357e+002, 1.627618e+004
2.733178e+002, 1.659199e+004
2.737999e+002, 1.692505e+004
2.742820e+002, 1.727805e+004
2.747642e+002, 1.765260e+004
2.752463e+002, 1.804934e+004
2.757284e+002, 1.847069e+004
2.762105e+002, 1.891608e+004
2.766926e+002, 1.938057e+004
2.771747e+002, 1.985972e+004
2.776568e+002, 2.035877e+004
2.781389e+002, 2.088625e+004
2.786211e+002, 2.144757e+004
2.791032e+002, 2.203949e+004
2.795853e+002, 2.265807e+004
2.800674e+002, 2.329876e+004
2.805495e+002, 2.396651e+004
2.810316e+002, 2.467104e+004
2.815138e+002, 2.540285e+004
2.819959e+002, 2.614684e+004
2.824780e+002, 2.689599e+004
2.829601e+002, 2.765399e+004
2.834422e+002, 2.841732e+004
2.839243e+002, 2.920660e+004
2.844065e+002, 2.996903e+004
2.848886e+002, 3.069306e+004
2.853707e+002, 3.138423e+004
2.858528e+002, 3.204984e+004
2.863349e+002, 3.269333e+004
2.868170e+002, 3.331179e+004
2.872992e+002, 3.390017e+004
2.877813e+002, 3.444525e+004
2.882634e+002, 3.499999e+004
2.887455e+002, 3.557209e+004
2.892276e+002, 3.615530e+004
2.897097e+002, 3.674378e+004
2.901919e+002, 3.733716e+004
2.906740e+002, 3.791931e+004
2.911561e+002, 3.847724e+004
2.916382e+002, 3.900774e+004
2.921203e+002, 3.951852e+004
2.926024e+002, 4.003167e+004
2.930846e+002, 4.051314e+004
2.935667e+002, 4.093587e+004
2.940488e+002, 4.129740e+004
2.945309e+002, 4.159099e+004
2.950130e+002, 4.181132e+004
2.954951e+002, 4.194986e+004
2.959773e+002, 4.201015e+004
2.964594e+002, 4.200370e+004
2.969415e+002, 4.191016e+004
2.974236e+002, 4.171236e+004
2.979057e+002, 4.141107e+004
2.983878e+002, 4.101493e+004
2.988700e+002, 4.052323e+004
2.993521e+002, 3.993050e+004
2.998342e+002, 3.927470e+004
3.003163e+002, 3.855275e+004
3.007984e+002, 3.777841e+004
3.012805e+002, 3.694083e+004
3.017627e+002, 3.604907e+004
3.022448e+002, 3.512950e+004
3.027269e+002, 3.418650e+004
3.032090e+002, 3.322539e+004
3.036911e+002, 3.225809e+004
3.041732e+002, 3.127178e+004
3.046554e+002, 3.029396e+004
3.051375e+002, 2.933455e+004
3.056196e+002, 2.839242e+004
3.061017e+002, 2.746345e+004
3.065838e+002, 2.654646e+004
3.070659e+002, 2.564381e+004
3.075481e+002, 2.476567e+004
3.080302e+002, 2.390545e+004
3.085123e+002, 2.307835e+004
3.089944e+002, 2.230058e+004
3.094765e+002, 2.155812e+004
3.099586e+002, 2.083483e+004
3.104408e+002, 2.012877e+004
3.109229e+002, 1.944354e+004
3.114050e+002, 1.879478e+004
3.118871e+002, 1.817914e+004
3.123692e+002, 1.758227e+004
3.128513e+002, 1.699603e+004
3.133335e+002, 1.643017e+004
3.138156e+002, 1.589301e+004
3.142977e+002, 1.538741e+004
3.147798e+002, 1.490488e+004
3.152619e+002, 1.443807e+004
3.157440e+002, 1.398663e+004
3.162262e+002, 1.355098e+004
3.167083e+002, 1.312855e+004
3.171904e+002, 1.272382e+004
3.176725e+002, 1.234233e+004
3.181546e+002, 1.198233e+004
3.186367e+002, 1.163935e+004
3.191188e+002, 1.130998e+004
3.196010e+002, 1.099742e+004
3.200831e+002, 1.070000e+004
3.205652e+002, 1.041925e+004
3.210473e+002, 1.014997e+004
3.215294e+002, 9.887909e+003
3.220115e+002, 9.635067e+003
3.224937e+002, 9.394544e+003
3.229758e+002, 9.170615e+003
3.234579e+002, 8.959084e+003
3.239400e+002, 8.753840e+003
3.244221e+002, 8.552093e+003
3.249042e+002, 8.359151e+003
3.253864e+002, 8.178098e+003
3.258685e+002, 8.006620e+003
3.263506e+002, 7.838325e+003
3.268327e+002, 7.670685e+003
3.273148e+002, 7.507042e+003
3.277969e+002, 7.353582e+003
3.282791e+002, 7.211336e+003
3.287612e+002, 7.070636e+003
3.292433e+002, 6.927642e+003
3.297254e+002, 6.786779e+003
3.302075e+002, 6.653886e+003
3.306896e+002, 6.529968e+003
3.311718e+002, 6.410696e+003
3.316539e+002, 6.290940e+003
3.321360e+002, 6.170841e+003
3.326181e+002, 6.055679e+003
3.331002e+002, 5.945667e+003
3.335823e+002, 5.841356e+003
3.340645e+002, 5.742576e+003
3.345466e+002, 5.649905e+003
3.350287e+002, 5.563081e+003
3.355108e+002, 5.483249e+003
3.359929e+002, 5.409628e+003
3.364750e+002, 5.337242e+003
3.369572e+002, 5.265355e+003
3.374393e+002, 5.194461e+003
3.379214e+002, 5.122987e+003
3.384035e+002, 5.052342e+003
3.388856e+002, 4.987102e+003
3.393677e+002, 4.929898e+003
3.398499e+002, 4.878209e+003
3.403320e+002, 4.825445e+003
3.408141e+002, 4.768053e+003
3.412962e+002, 4.716074e+003
3.417783e+002, 4.673328e+003
3.422604e+002, 4.636293e+003
3.427426e+002, 4.601675e+003
3.432247e+002, 4.568681e+003
3.437068e+002, 4.535715e+003
3.441889e+002, 4.500469e+003
3.446710e+002, 4.461627e+003
3.451531e+002, 4.424401e+003
3.456353e+002, 4.387226e+003
3.461174e+002, 4.353104e+003
3.465995e+002, 4.325840e+003
3.470816e+002, 4.305090e+003
3.475637e+002, 4.285616e+003
3.480458e+002, 4.263089e+003
3.485280e+002, 4.237239e+003
3.490101e+002, 4.212063e+003
3.494922e+002, 4.186761e+003
3.499743e+002, 4.162813e+003
3.504564e+002, 4.141753e+003
3.509385e+002, 4.122781e+003
3.514207e+002, 4.103579e+003
3.519028e+002, 4.082679e+003
3.523849e+002, 4.061093e+003
3.528670e+002, 4.043053e+003
3.533491e+002, 4.033805e+003
3.538312e+002, 4.021653e+003
3.543134e+002, 4.002086e+003
3.547955e+002, 3.980145e+003
3.552776e+002, 3.962229e+003
3.557597e+002, 3.950486e+003
3.562418e+002, 3.941260e+003
3.567239e+002, 3.928202e+003
3.572061e+002, 3.909030e+003
3.576882e+002, 3.890368e+003
3.581703e+002, 3.872551e+003
3.586524e+002, 3.854895e+003
3.591345e+002, 3.836594e+003
3.596166e+002, 3.817775e+003
3.600987e+002, 3.799913e+003
3.605808e+002, 3.784723e+003
3.610630e+002, 3.772783e+003
3.615451e+002, 3.757619e+003
3.620272e+002, 3.737411e+003
3.625093e+002, 3.716144e+003
3.629914e+002, 3.693294e+003
3.634735e+002, 3.670419e+003
3.639557e+002, 3.650916e+003
3.644378e+002, 3.637098e+003
3.649199e+002, 3.627263e+003
3.654020e+002, 3.614148e+003
3.658841e+002, 3.596091e+003
3.663662e+002, 3.576721e+003
3.668484e+002, 3.554071e+003
3.673305e+002, 3.531678e+003
3.678126e+002, 3.513636e+003
3.682947e+002, 3.501114e+003
3.687768e+002, 3.490824e+003
3.692589e+002, 3.477406e+003
3.697411e+002, 3.459246e+003
3.702232e+002, 3.442398e+003
3.707053e+002, 3.427889e+003
3.711874e+002, 3.413906e+003
3.716695e+002, 3.398878e+003
3.721516e+002, 3.383211e+003
3.726338e+002, 3.368632e+003
3.731159e+002, 3.357523e+003
3.735980e+002, 3.349705e+003
3.740801e+002, 3.338145e+003
3.745622e+002, 3.317931e+003
3.750443e+002, 3.299974e+003
3.755265e+002, 3.290114e+003
3.760086e+002, 3.284191e+003
3.764907e+002, 3.275617e+003
3.769728e+002, 3.260704e+003
3.774549e+002, 3.242343e+003
3.779370e+002, 3.226845e+003
3.784192e+002, 3.214886e+003
3.789013e+002, 3.203954e+003
3.793834e+002, 3.194481e+003
3.798655e+002, 3.185076e+003
3.803476e+002, 3.174520e+003
3.808297e+002, 3.162586e+003
3.813119e+002, 3.150248e+003
3.817940e+002, 3.138042e+003
3.822761e+002, 3.125980e+003
3.827582e+002, 3.115824e+003
3.832403e+002, 3.108963e+003
3.837224e+002, 3.102783e+003
3.842046e+002, 3.096005e+003
3.846867e+002, 3.088504e+003
3.851688e+002, 3.079699e+003
3.856509e+002, 3.068646e+003
3.861330e+002, 3.056260e+003
3.866151e+002, 3.044278e+003
3.870973e+002, 3.032525e+003
3.875794e+002, 3.021914e+003
3.880615e+002, 3.013949e+003
3.885436e+002, 3.007153e+003
3.890257e+002, 2.999214e+003
3.895078e+002, 2.988705e+003
3.899900e+002, 2.978746e+003
3.904721e+002, 2.973069e+003
3.909542e+002, 2.971000e+003
3.914363e+002, 2.967429e+003
3.919184e+002, 2.960413e+003
3.924005e+002, 2.951454e+003
3.928827e+002, 2.942256e+003
3.933648e+002, 2.932681e+003
3.938469e+002, 2.924273e+003
3.943290e+002, 2.918646e+003
3.948111e+002, 2.914280e+003
3.952932e+002, 2.908599e+003
3.957754e+002, 2.901079e+003
3.962575e+002, 2.893563e+003
3.967396e+002, 2.887336e+003
3.972217e+002, 2.882546e+003
3.977038e+002, 2.879249e+003
3.981859e+002, 2.878954e+003
3.986681e+002, 2.878813e+003
3.991501e+002, 2.876626e+003
3.996323e+002, 2.872905e+003
4.001144e+002, 2.869601e+003
4.005965e+002, 2.867682e+003
4.010786e+002, 2.866808e+003
4.015607e+002, 2.866192e+003
4.020428e+002, 2.866783e+003
4.025250e+002, 2.865941e+003
4.030071e+002, 2.862219e+003
4.034892e+002, 2.857253e+003
4.039713e+002, 2.852807e+003
4.044534e+002, 2.849321e+003
4.049355e+002, 2.846302e+003
4.054177e+002, 2.843019e+003
4.058998e+002, 2.839050e+003
4.063819e+002, 2.837365e+003
4.068640e+002, 2.839998e+003
4.073461e+002, 2.842688e+003
4.078282e+002, 2.842296e+003
4.083104e+002, 2.840173e+003
4.087925e+002, 2.840351e+003
4.092746e+002, 2.845668e+003
4.097567e+002, 2.854516e+003
4.102388e+002, 2.859486e+003
4.107209e+002, 2.856526e+003
4.112031e+002, 2.854731e+003
4.116852e+002, 2.854047e+003
4.121673e+002, 2.855261e+003
4.126494e+002, 2.859359e+003
4.131315e+002, 2.866468e+003
4.136136e+002, 2.875512e+003
4.140958e+002, 2.885493e+003
4.145779e+002, 2.897121e+003
4.150600e+002, 2.906996e+003
4.155421e+002, 2.913647e+003
4.160242e+002, 2.919832e+003
4.165063e+002, 2.925676e+003
4.169885e+002, 2.931915e+003
4.174706e+002, 2.939803e+003
4.179527e+002, 2.950329e+003
4.184348e+002, 2.962989e+003
4.189169e+002, 2.976025e+003
4.193990e+002, 2.988493e+003
4.198812e+002, 3.003411e+003
4.203633e+002, 3.024262e+003
4.208454e+002, 3.046360e+003
4.213275e+002, 3.064642e+003
4.218096e+002, 3.077760e+003
4.222917e+002, 3.090332e+003
4.227739e+002, 3.106734e+003
4.232560e+002, 3.126844e+003
4.237381e+002, 3.149085e+003
4.242202e+002, 3.174275e+003
4.247023e+002, 3.200090e+003
4.251844e+002, 3.223983e+003
4.256666e+002, 3.246777e+003
4.261487e+002, 3.271810e+003
4.266308e+002, 3.302165e+003
4.271129e+002, 3.334841e+003
4.275950e+002, 3.364238e+003
4.280771e+002, 3.390183e+003
4.285593e+002, 3.418635e+003
4.290414e+002, 3.453535e+003
4.295235e+002, 3.492672e+003
4.300056e+002, 3.530153e+003
4.304877e+002, 3.564840e+003
4.309698e+002, 3.600555e+003
4.314520e+002, 3.639572e+003
4.319341e+002, 3.680728e+003
4.324162e+002, 3.721966e+003
4.328983e+002, 3.762553e+003
4.333804e+002, 3.803275e+003
4.338625e+002, 3.844376e+003
4.343447e+002, 3.885544e+003
4.348268e+002, 3.931221e+003
4.353089e+002, 3.986116e+003
4.357910e+002, 4.041682e+003
4.362731e+002, 4.091876e+003
4.367552e+002, 4.137489e+003
4.372374e+002, 4.182095e+003
4.377195e+002, 4.227446e+003
4.382016e+002, 4.273894e+003
4.386837e+002, 4.322081e+003
4.391658e+002, 4.374748e+003
4.396479e+002, 4.425807e+003
4.401301e+002, 4.473546e+003
4.406122e+002, 4.520102e+003
4.410943e+002, 4.568828e+003
4.415764e+002, 4.619397e+003
4.420585e+002, 4.667061e+003
4.425406e+002, 4.706176e+003
4.430227e+002, 4.736523e+003
4.435049e+002, 4.760723e+003
4.439870e+002, 4.776900e+003
4.444691e+002, 4.788690e+003
4.449512e+002, 4.798322e+003
4.454333e+002, 4.803921e+003
4.459154e+002, 4.802565e+003
4.463976e+002, 4.792732e+003
4.468797e+002, 4.774965e+003
4.473618e+002, 4.750533e+003
4.478439e+002, 4.719719e+003
4.483260e+002, 4.681271e+003
4.488081e+002, 4.628683e+003
4.492903e+002, 4.572589e+003
4.497724e+002, 4.519385e+003
4.502545e+002, 4.469374e+003
4.507366e+002, 4.418832e+003
4.512187e+002, 4.363964e+003
4.517008e+002, 4.305990e+003
4.521830e+002, 4.251947e+003
4.526651e+002, 4.203531e+003
4.531472e+002, 4.155699e+003
4.536293e+002, 4.102620e+003
4.541114e+002, 4.048946e+003
4.545935e+002, 4.001803e+003
4.550757e+002, 3.963798e+003
4.555578e+002, 3.930818e+003
4.560399e+002, 3.899438e+003
4.565220e+002, 3.870141e+003
4.570041e+002, 3.844676e+003
4.574862e+002, 3.823898e+003
4.579684e+002, 3.806343e+003
4.584505e+002, 3.791133e+003
4.589326e+002, 3.778289e+003
4.594147e+002, 3.764382e+003
4.598968e+002, 3.744103e+003
4.603789e+002, 3.725997e+003
4.608611e+002, 3.718414e+003
4.613432e+002, 3.720633e+003
4.618253e+002, 3.726356e+003
4.623074e+002, 3.732126e+003
4.627895e+002, 3.738108e+003
4.632716e+002, 3.745131e+003
4.637538e+002, 3.751945e+003
4.642359e+002, 3.761345e+003
4.647180e+002, 3.773493e+003
4.652001e+002, 3.788547e+003
4.656822e+002, 3.806551e+003
4.661643e+002, 3.827601e+003
4.666465e+002, 3.851733e+003
4.671286e+002, 3.879015e+003
4.676107e+002, 3.909780e+003
4.680928e+002, 3.942502e+003
4.685749e+002, 3.976716e+003
4.690570e+002, 4.013469e+003
4.695392e+002, 4.051972e+003
4.700213e+002, 4.093463e+003
4.705034e+002, 4.139830e+003
4.709855e+002, 4.192020e+003
4.714676e+002, 4.247990e+003
4.719497e+002, 4.303790e+003
4.724319e+002, 4.358405e+003
4.729140e+002, 4.416940e+003
4.733961e+002, 4.480367e+003
4.738782e+002, 4.547877e+003
4.743603e+002, 4.619923e+003
4.748424e+002, 4.695594e+003
4.753246e+002, 4.773404e+003
4.758067e+002, 4.850061e+003
4.762888e+002, 4.928617e+003
4.767709e+002, 5.016649e+003
4.772530e+002, 5.114167e+003
4.777351e+002, 5.218979e+003
4.782173e+002, 5.330959e+003
4.786994e+002, 5.449973e+003
4.791815e+002, 5.573307e+003
4.796636e+002, 5.699312e+003
4.801457e+002, 5.834489e+003
4.806278e+002, 5.982577e+003
4.811100e+002, 6.141909e+003
4.815920e+002, 6.310206e+003
4.820742e+002, 6.487094e+003
4.825563e+002, 6.671850e+003
4.830384e+002, 6.864602e+003
4.835205e+002, 7.065613e+003
4.840026e+002, 7.276747e+003
4.844847e+002, 7.494347e+003
4.849669e+002, 7.724522e+003
4.854490e+002, 7.975638e+003
4.859311e+002, 8.241007e+003
4.864132e+002, 8.509318e+003
4.868953e+002, 8.777126e+003
4.873774e+002, 9.045091e+003
4.878596e+002, 9.312793e+003
4.883417e+002, 9.586057e+003
4.888238e+002, 9.847839e+003
4.893059e+002, 1.009975e+004
4.897880e+002, 1.034030e+004
4.902701e+002, 1.056620e+004
4.907523e+002, 1.077943e+004
4.912344e+002, 1.098289e+004
4.917165e+002, 1.117699e+004
4.921986e+002, 1.136394e+004
4.926807e+002, 1.154762e+004
4.931628e+002, 1.172224e+004
4.936450e+002, 1.190839e+004
4.941271e+002, 1.210720e+004
4.946092e+002, 1.232026e+004
4.950913e+002, 1.255160e+004
4.955734e+002, 1.279995e+004
4.960555e+002, 1.305915e+004
4.965377e+002, 1.332558e+004
4.970198e+002, 1.359773e+004
4.975019e+002, 1.387195e+004
4.979840e+002, 1.415022e+004
4.984661e+002, 1.442267e+004
4.989482e+002, 1.469344e+004
4.994304e+002, 1.495308e+004
4.999125e+002, 1.518619e+004
5.003946e+002, 1.539499e+004
5.008767e+002, 1.557190e+004
5.013588e+002, 1.571748e+004
5.018409e+002, 1.582890e+004
5.023231e+002, 1.590734e+004
5.028052e+002, 1.595296e+004
5.032873e+002, 1.595051e+004
5.037694e+002, 1.588331e+004
5.042515e+002, 1.574793e+004
5.047336e+002, 1.558112e+004
5.052158e+002, 1.538939e+004
5.056979e+002, 1.516345e+004
5.061800e+002, 1.489394e+004
5.066621e+002, 1.458959e+004
5.071442e+002, 1.426183e+004
5.076263e+002, 1.391529e+004
5.081085e+002, 1.355427e+004
5.085906e+002, 1.318528e+004
5.090727e+002, 1.280238e+004
5.095548e+002, 1.243161e+004
5.100369e+002, 1.207774e+004
5.105190e+002, 1.173220e+004
5.110012e+002, 1.139152e+004
5.114833e+002, 1.105569e+004
5.119654e+002, 1.072353e+004
5.124475e+002, 1.039203e+004
5.129296e+002, 1.007006e+004
5.134117e+002, 9.774415e+003
5.138939e+002, 9.506026e+003
5.143760e+002, 9.248634e+003
5.148581e+002, 8.998706e+003
5.153402e+002, 8.758130e+003
5.158223e+002, 8.527399e+003
5.163044e+002, 8.306803e+003
5.167866e+002, 8.098342e+003
5.172687e+002, 7.903814e+003
5.177508e+002, 7.720330e+003
5.182329e+002, 7.543511e+003
5.187150e+002, 7.373477e+003
5.191971e+002, 7.213466e+003
5.196793e+002, 7.066851e+003
5.201614e+002, 6.928756e+003
5.206435e+002, 6.790547e+003
5.211256e+002, 6.648342e+003
5.216077e+002, 6.515069e+003
5.220898e+002, 6.397936e+003
5.225720e+002, 6.287604e+003
5.230541e+002, 6.176337e+003
5.235362e+002, 6.064547e+003
5.240183e+002, 5.956474e+003
5.245004e+002, 5.855805e+003
5.249825e+002, 5.761992e+003
5.254647e+002, 5.669736e+003
5.259468e+002, 5.580044e+003
5.264289e+002, 5.491731e+003
5.269110e+002, 5.402250e+003
5.273931e+002, 5.315288e+003
5.278752e+002, 5.235548e+003
5.283574e+002, 5.162603e+003
5.288395e+002, 5.090887e+003
5.293216e+002, 5.015202e+003
5.298037e+002, 4.936589e+003
5.302858e+002, 4.860388e+003
5.307679e+002, 4.787501e+003
5.312501e+002, 4.715438e+003
5.317322e+002, 4.641962e+003
5.322143e+002, 4.569479e+003
5.326964e+002, 4.500205e+003
5.331785e+002, 4.434921e+003
5.336606e+002, 4.370313e+003
5.341428e+002, 4.303614e+003
5.346249e+002, 4.235956e+003
5.351070e+002, 4.168331e+003
5.355891e+002, 4.100666e+003
5.360712e+002, 4.035898e+003
5.365533e+002, 3.977405e+003
5.370355e+002, 3.923994e+003
5.375176e+002, 3.869005e+003
5.379997e+002, 3.809370e+003
5.384818e+002, 3.751849e+003
5.389639e+002, 3.698794e+003
5.394460e+002, 3.648441e+003
5.399282e+002, 3.598594e+003
5.404103e+002, 3.548845e+003
5.408924e+002, 3.499522e+003
5.413745e+002, 3.450964e+003
5.418566e+002, 3.403087e+003
5.423387e+002, 3.358840e+003
5.428209e+002, 3.321063e+003
5.433029e+002, 3.284060e+003
5.437850e+002, 3.246853e+003
5.442672e+002, 3.209864e+003
5.447493e+002, 3.173259e+003
5.452314e+002, 3.137175e+003
5.457135e+002, 3.103141e+003
5.461956e+002, 3.074608e+003
5.466777e+002, 3.050843e+003
5.471599e+002, 3.023808e+003
5.476420e+002, 2.991016e+003
5.481241e+002, 2.959464e+003
5.486062e+002, 2.934619e+003
5.490883e+002, 2.913735e+003
5.495704e+002, 2.892411e+003
5.500526e+002, 2.869631e+003
5.505347e+002, 2.847179e+003
5.510168e+002, 2.825310e+003
5.514989e+002, 2.804650e+003
5.519810e+002, 2.787317e+003
5.524631e+002, 2.773844e+003
5.529453e+002, 2.760091e+003
5.534274e+002, 2.741654e+003
5.539095e+002, 2.718441e+003
5.543916e+002, 2.699157e+003
5.548737e+002, 2.687841e+003
5.553558e+002, 2.674994e+003
5.558380e+002, 2.655009e+003
5.563201e+002, 2.633304e+003
5.568022e+002, 2.617192e+003
5.572843e+002, 2.608243e+003
5.577664e+002, 2.602396e+003
5.582485e+002, 2.595181e+003
5.587307e+002, 2.586606e+003
5.592128e+002, 2.577604e+003
5.596949e+002, 2.567322e+003
5.601770e+002, 2.558000e+003
5.606591e+002, 2.550282e+003
5.611412e+002, 2.543844e+003
5.616234e+002, 2.538300e+003
5.621055e+002, 2.533597e+003
5.625876e+002, 2.529579e+003
5.630697e+002, 2.526080e+003
5.635518e+002, 2.523155e+003
5.640339e+002, 2.520855e+003
5.645161e+002, 2.519070e+003
5.649982e+002, 2.518544e+003
5.654803e+002, 2.520368e+003
5.659624e+002, 2.523931e+003
5.664445e+002, 2.526308e+003
5.669266e+002, 2.525863e+003
5.674088e+002, 2.526552e+003
5.678909e+002, 2.528800e+003
5.683730e+002, 2.533356e+003
5.688551e+002, 2.543079e+003
5.693372e+002, 2.557446e+003
5.698193e+002, 2.570106e+003
5.703015e+002, 2.574275e+003
5.707836e+002, 2.570663e+003
5.712657e+002, 2.572876e+003
5.717478e+002, 2.585476e+003
5.722299e+002, 2.598067e+003
5.727120e+002, 2.608225e+003
5.731942e+002, 2.618196e+003
5.736763e+002, 2.629761e+003
5.741584e+002, 2.643389e+003
5.746405e+002, 2.658965e+003
5.751226e+002, 2.676506e+003
5.756047e+002, 2.695931e+003
5.760869e+002, 2.717057e+003
5.765690e+002, 2.739993e+003
5.770511e+002, 2.763983e+003
5.775332e+002, 2.787824e+003
5.780153e+002, 2.812898e+003
5.784974e+002, 2.841083e+003
5.789796e+002, 2.872712e+003
5.794617e+002, 2.906069e+003
5.799438e+002, 2.940832e+003
5.804259e+002, 2.976772e+003
5.809080e+002, 3.013551e+003
5.813901e+002, 3.051224e+003
5.818723e+002, 3.090771e+003
5.823544e+002, 3.132622e+003
5.828365e+002, 3.177248e+003
5.833186e+002, 3.226552e+003
5.838007e+002, 3.286095e+003
5.842828e+002, 3.342229e+003
5.847650e+002, 3.389455e+003
5.852471e+002, 3.438096e+003
5.857292e+002, 3.496158e+003
5.862113e+002, 3.562051e+003
5.866934e+002, 3.628456e+003
5.871755e+002, 3.689964e+003
5.876577e+002, 3.750593e+003
5.881398e+002, 3.820073e+003
5.886219e+002, 3.900043e+003
5.891040e+002, 3.978087e+003
5.895861e+002, 4.048366e+003
5.900682e+002, 4.119499e+003
5.905504e+002, 4.200263e+003
5.910325e+002, 4.289142e+003
5.915146e+002, 4.375708e+003
5.919967e+002, 4.457221e+003
5.924788e+002, 4.534521e+003
5.929609e+002, 4.607343e+003
5.934431e+002, 4.675660e+003
5.939252e+002, 4.740522e+003
5.944073e+002, 4.802261e+003
5.948894e+002, 4.858759e+003
5.953715e+002, 4.907854e+003
5.958536e+002, 4.950703e+003
5.963358e+002, 4.980196e+003
5.968179e+002, 5.000462e+003
5.973000e+002, 5.005052e+003
5.977821e+002, 4.990466e+003
5.982642e+002, 4.959223e+003
5.987463e+002, 4.913960e+003
5.992285e+002, 4.855646e+003
5.997106e+002, 4.786806e+003
6.001927e+002, 4.709973e+003
6.006748e+002, 4.624839e+003
6.011569e+002, 4.530328e+003
6.016390e+002, 4.423923e+003
6.021212e+002, 4.314077e+003
6.026033e+002, 4.206009e+003
6.030854e+002, 4.097517e+003
6.035675e+002, 3.986458e+003
6.040496e+002, 3.870281e+003
6.045317e+002, 3.756966e+003
6.050139e+002, 3.649930e+003
6.054960e+002, 3.547794e+003
6.059781e+002, 3.449032e+003
6.064602e+002, 3.353643e+003
6.069423e+002, 3.261954e+003
6.074244e+002, 3.174583e+003
6.079066e+002, 3.091691e+003
6.083887e+002, 3.013083e+003
6.088708e+002, 2.941401e+003
6.093529e+002, 2.870950e+003
6.098350e+002, 2.800236e+003
6.103171e+002, 2.731723e+003
6.107993e+002, 2.668179e+003
6.112814e+002, 2.608610e+003
6.117635e+002, 2.549065e+003
6.122456e+002, 2.486176e+003
6.127277e+002, 2.423156e+003
6.132098e+002, 2.366903e+003
6.136920e+002, 2.317617e+003
6.141741e+002, 2.269089e+003
6.146562e+002, 2.219610e+003
6.151383e+002, 2.170334e+003
6.156204e+002, 2.122182e+003
6.161025e+002, 2.074916e+003
6.165847e+002, 2.027775e+003
6.170668e+002, 1.979186e+003
6.175489e+002, 1.932132e+003
6.180310e+002, 1.888493e+003
6.185131e+002, 1.847826e+003
6.189952e+002, 1.809524e+003
6.194774e+002, 1.773314e+003
6.199595e+002, 1.737666e+003
6.204416e+002, 1.700476e+003
6.209237e+002, 1.661257e+003
6.214058e+002, 1.625908e+003
6.218879e+002, 1.596667e+003
6.223701e+002, 1.568752e+003
6.228522e+002, 1.541583e+003
6.233343e+002, 1.515138e+003
6.238164e+002, 1.489635e+003
6.242985e+002, 1.465196e+003
6.247806e+002, 1.441526e+003
6.252628e+002, 1.418247e+003
6.257448e+002, 1.395695e+003
6.262269e+002, 1.374970e+003
6.267090e+002, 1.356111e+003
6.271912e+002, 1.338528e+003
6.276733e+002, 1.321955e+003
6.281554e+002, 1.306396e+003
6.286375e+002, 1.291994e+003
6.291196e+002, 1.279120e+003
6.296017e+002, 1.265614e+003
6.300839e+002, 1.249983e+003
6.305660e+002, 1.234614e+003
6.310481e+002, 1.220793e+003
6.315302e+002, 1.208558e+003
6.320123e+002, 1.198084e+003
6.324944e+002, 1.189505e+003
6.329766e+002, 1.181114e+003
6.334587e+002, 1.169231e+003
6.339408e+002, 1.152311e+003
6.344229e+002, 1.139792e+003
6.349050e+002, 1.135076e+003
6.353871e+002, 1.130650e+003
6.358693e+002, 1.122916e+003
6.363514e+002, 1.113465e+003
6.368335e+002, 1.104560e+003
6.373156e+002, 1.096676e+003
6.377977e+002, 1.089794e+003
6.382798e+002, 1.084118e+003
6.387620e+002, 1.079430e+003
6.392441e+002, 1.075701e+003
6.397262e+002, 1.072866e+003
6.402083e+002, 1.069264e+003
6.406904e+002, 1.063675e+003
6.411725e+002, 1.056689e+003
6.416547e+002, 1.050221e+003
6.421368e+002, 1.044718e+003
6.426189e+002, 1.039120e+003
6.431010e+002, 1.032528e+003
6.435831e+002, 1.026640e+003
6.440652e+002, 1.022791e+003
6.445474e+002, 1.020533e+003
6.450295e+002, 1.018663e+003
6.455116e+002, 1.016656e+003
6.459937e+002, 1.014298e+003
6.464758e+002, 1.010903e+003
6.469579e+002, 1.006488e+003
6.474401e+002, 1.003110e+003
6.479222e+002, 1.001467e+003
6.484043e+002, 1.000092e+003
6.488864e+002, 9.974612e+002
6.493685e+002, 9.942149e+002
6.498506e+002, 9.925520e+002
6.503328e+002, 9.944596e+002
6.508149e+002, 9.951583e+002
6.512970e+002, 9.911503e+002
6.517791e+002, 9.858226e+002
6.522612e+002, 9.835445e+002
6.527433e+002, 9.845085e+002
6.532255e+002, 9.857960e+002
6.537076e+002, 9.851417e+002
6.541897e+002, 9.833583e+002
6.546718e+002, 9.835039e+002
6.551539e+002, 9.860009e+002
6.556360e+002, 9.893950e+002
6.561182e+002, 9.952705e+002
6.566003e+002, 1.000447e+003
6.570824e+002, 1.002302e+003
6.575645e+002, 1.001902e+003
6.580466e+002, 1.002676e+003
6.585287e+002, 1.006418e+003
6.590109e+002, 1.010994e+003
6.594930e+002, 1.014542e+003
6.599751e+002, 1.017302e+003
6.604572e+002, 1.019612e+003
6.609393e+002, 1.021492e+003
6.614214e+002, 1.024385e+003
6.619036e+002, 1.029656e+003
6.623857e+002, 1.037149e+003
6.628678e+002, 1.045034e+003
6.633499e+002, 1.053203e+003
6.638320e+002, 1.061946e+003
6.643141e+002, 1.071763e+003
6.647963e+002, 1.081858e+003
6.652784e+002, 1.090799e+003
6.657605e+002, 1.099280e+003
6.662426e+002, 1.109991e+003
6.667247e+002, 1.125193e+003
6.672068e+002, 1.142704e+003
6.676890e+002, 1.158702e+003
6.681711e+002, 1.173248e+003
6.686532e+002, 1.188157e+003
6.691353e+002, 1.203390e+003
6.696174e+002, 1.219968e+003
6.700995e+002, 1.239153e+003
6.705817e+002, 1.260756e+003
6.710638e+002, 1.281547e+003
6.715459e+002, 1.299912e+003
6.720280e+002, 1.319357e+003
6.725101e+002, 1.341068e+003
6.729922e+002, 1.364160e+003
6.734744e+002, 1.387876e+003
6.739565e+002, 1.412028e+003
6.744386e+002, 1.436759e+003
6.749207e+002, 1.462273e+003
6.754028e+002, 1.488561e+003
6.758849e+002, 1.515876e+003
6.763671e+002, 1.544429e+003
6.768492e+002, 1.573044e+003
6.773313e+002, 1.601998e+003
6.778134e+002, 1.630585e+003
6.782955e+002, 1.658563e+003
6.787776e+002, 1.685786e+003
6.792598e+002, 1.711572e+003
6.797419e+002, 1.737073e+003
6.802240e+002, 1.759431e+003
6.807061e+002, 1.775534e+003
6.811882e+002, 1.787938e+003
6.816703e+002, 1.801768e+003
6.821525e+002, 1.817314e+003
6.826346e+002, 1.829960e+003
6.831167e+002, 1.836129e+003
6.835988e+002, 1.835964e+003
6.840809e+002, 1.829924e+003
6.845630e+002, 1.816215e+003
6.850452e+002, 1.800593e+003
6.855273e+002, 1.784683e+003
6.860094e+002, 1.766326e+003
6.864915e+002, 1.743921e+003
6.869736e+002, 1.717979e+003
6.874557e+002, 1.689946e+003
6.879379e+002, 1.660377e+003
6.884200e+002, 1.628965e+003
6.889021e+002, 1.594501e+003
6.893842e+002, 1.558248e+003
6.898663e+002, 1.523599e+003
6.903484e+002, 1.490931e+003
6.908306e+002, 1.458182e+003
6.913127e+002, 1.423121e+003
6.917948e+002, 1.386777e+003
6.922769e+002, 1.353672e+003
6.927590e+002, 1.325390e+003
6.932411e+002, 1.297950e+003
6.937233e+002, 1.269850e+003
6.942054e+002, 1.243835e+003
6.946875e+002, 1.222663e+003
6.951696e+002, 1.204793e+003
6.956517e+002, 1.186226e+003
6.961339e+002, 1.164839e+003
6.966160e+002, 1.143325e+003
6.970981e+002, 1.124303e+003
6.975802e+002, 1.107601e+003
6.980623e+002, 1.092576e+003
6.985444e+002, 1.079310e+003
6.990266e+002, 1.066435e+003
6.995087e+002, 1.052641e+003
6.999908e+002, 1.038720e+003
7.004729e+002, 1.027973e+003
7.009550e+002, 1.024441e+003
7.014371e+002, 1.017931e+003
7.019193e+002, 1.004991e+003
7.024014e+002, 9.921152e+002
7.028835e+002, 9.833217e+002
7.033656e+002, 9.777418e+002
7.038477e+002, 9.727536e+002
7.043298e+002, 9.672867e+002
7.048120e+002, 9.620013e+002
7.052941e+002, 9.581262e+002
7.057762e+002, 9.552962e+002
7.062583e+002, 9.512582e+002
7.067404e+002, 9.455015e+002
7.072225e+002, 9.409520e+002
7.077046e+002, 9.400414e+002
7.081867e+002, 9.409213e+002
7.086688e+002, 9.387009e+002
7.091509e+002, 9.319749e+002
7.096331e+002, 9.259167e+002
7.101152e+002, 9.207617e+002
7.105973e+002, 9.164140e+002
7.110794e+002, 9.135553e+002
7.115615e+002, 9.112645e+002
7.120436e+002, 9.080979e+002
7.125258e+002, 9.034995e+002
7.130079e+002, 8.978807e+002
7.134900e+002, 8.910731e+002
7.139721e+002, 8.834893e+002
7.144542e+002, 8.776357e+002
7.149363e+002, 8.739828e+002
7.154185e+002, 8.696231e+002
7.159006e+002, 8.628031e+002
7.163827e+002, 8.550778e+002
7.168648e+002, 8.494016e+002
7.173469e+002, 8.463947e+002
7.178290e+002, 8.416371e+002
7.183112e+002, 8.339051e+002
7.187933e+002, 8.252813e+002
7.192754e+002, 8.158585e+002
7.197575e+002, 8.066058e+002
7.202396e+002, 7.991711e+002
7.207217e+002, 7.937616e+002
7.212039e+002, 7.882570e+002
7.216860e+002, 7.802841e+002
7.221681e+002, 7.705922e+002
7.226502e+002, 7.623292e+002
7.231323e+002, 7.556113e+002
7.236144e+002, 7.489221e+002
7.240966e+002, 7.417312e+002
7.245787e+002, 7.344974e+002
7.250608e+002, 7.277736e+002
7.255429e+002, 7.215087e+002
7.260250e+002, 7.156727e+002
7.265071e+002, 7.110745e+002
7.269893e+002, 7.059039e+002
7.274714e+002, 6.988246e+002
7.279535e+002, 6.912250e+002
7.284356e+002, 6.847779e+002
7.289177e+002, 6.796214e+002
7.293998e+002, 6.747917e+002
7.298820e+002, 6.694957e+002
7.303641e+002, 6.642321e+002
7.308462e+002, 6.603287e+002
7.313283e+002, 6.578473e+002
7.318104e+002, 6.552078e+002
7.322925e+002, 6.523793e+002
7.327747e+002, 6.486713e+002
7.332568e+002, 6.432191e+002
7.337389e+002, 6.363204e+002
7.342210e+002, 6.296819e+002
7.347031e+002, 6.224899e+002
7.351852e+002, 6.168563e+002
7.356674e+002, 6.143204e+002
7.361495e+002, 6.125870e+002
7.366316e+002, 6.099684e+002
7.371137e+002, 6.064249e+002
7.375958e+002, 6.024457e+002
7.380779e+002, 5.982097e+002
7.385601e+002, 5.939160e+002
7.390422e+002, 5.897249e+002
7.395243e+002, 5.856808e+002
7.400064e+002, 5.822795e+002
7.404885e+002, 5.797736e+002
7.409706e+002, 5.769633e+002
7.414528e+002, 5.729682e+002
7.419349e+002, 5.684174e+002
7.424170e+002, 5.646562e+002
7.428991e+002, 5.616645e+002
7.433812e+002, 5.594103e+002
7.438633e+002, 5.590817e+002
7.443455e+002, 5.582596e+002
7.448276e+002, 5.553387e+002
7.453097e+002, 5.512136e+002
7.457918e+002, 5.471889e+002
7.462739e+002, 5.436993e+002
7.467560e+002, 5.406116e+002
7.472382e+002, 5.380096e+002
7.477203e+002, 5.356947e+002
7.482024e+002, 5.329194e+002
7.486845e+002, 5.296578e+002
7.491666e+002, 5.269988e+002
7.496487e+002, 5.255642e+002
7.501309e+002, 5.241981e+002
7.506130e+002, 5.211937e+002
7.510951e+002, 5.163848e+002
7.515772e+002, 5.135237e+002
7.520593e+002, 5.144994e+002
7.525414e+002, 5.147949e+002
7.530236e+002, 5.134053e+002
7.535057e+002, 5.109130e+002
7.539878e+002, 5.070858e+002
7.544699e+002, 5.025749e+002
7.549520e+002, 4.994346e+002
7.554341e+002, 4.993452e+002
7.559163e+002, 5.000350e+002
7.563984e+002, 4.978575e+002
7.568805e+002, 4.935871e+002
7.573626e+002, 4.908125e+002
7.578447e+002, 4.901772e+002
7.583268e+002, 4.900161e+002
7.588090e+002, 4.893528e+002
7.592911e+002, 4.880917e+002
7.597732e+002, 4.858605e+002
7.602553e+002, 4.817713e+002
7.607374e+002, 4.783326e+002
7.612195e+002, 4.759620e+002
7.617017e+002, 4.737838e+002
7.621838e+002, 4.712466e+002
7.626659e+002, 4.686895e+002
7.631480e+002, 4.666137e+002
7.636301e+002, 4.651609e+002
7.641122e+002, 4.642877e+002
7.645944e+002, 4.648378e+002
7.650765e+002, 4.654901e+002
7.655586e+002, 4.636743e+002
7.660407e+002, 4.597715e+002
7.665228e+002, 4.563527e+002
7.670049e+002, 4.543915e+002
7.674871e+002, 4.532072e+002
7.679692e+002, 4.517428e+002
7.684513e+002, 4.498884e+002
7.689334e+002, 4.506200e+002
7.694155e+002, 4.580007e+002
7.698976e+002, 4.612537e+002
7.703798e+002, 4.521733e+002
7.708619e+002, 4.428692e+002
7.713440e+002, 4.451988e+002
7.718261e+002, 4.569143e+002
7.723082e+002, 4.641238e+002
7.727903e+002, 4.592226e+002
7.732725e+002, 4.521399e+002
7.737546e+002, 4.501525e+002
7.742367e+002, 4.502875e+002
7.747188e+002, 4.474040e+002
7.752009e+002, 4.413279e+002
7.756830e+002, 4.358801e+002
7.761652e+002, 4.336397e+002
7.766473e+002, 4.332310e+002
7.771294e+002, 4.312632e+002
7.776115e+002, 4.273768e+002
7.780936e+002, 4.241910e+002
7.785757e+002, 4.213360e+002
7.790579e+002, 4.202134e+002
7.795400e+002, 4.228976e+002
7.800221e+002, 4.272628e+002
7.805042e+002, 4.299415e+002
7.809863e+002, 4.308624e+002
7.814684e+002, 4.300844e+002
7.819506e+002, 4.263497e+002
7.824327e+002, 4.221992e+002
7.829148e+002, 4.189687e+002
7.833969e+002, 4.165431e+002
7.838790e+002, 4.148230e+002
7.843611e+002, 4.136459e+002
7.848433e+002, 4.121247e+002
7.853254e+002, 4.083687e+002
7.858075e+002, 4.043069e+002
7.862896e+002, 4.069783e+002
7.867717e+002, 4.164931e+002
7.872538e+002, 4.247260e+002
7.877360e+002, 4.302411e+002
7.882181e+002, 4.321170e+002
7.887002e+002, 4.286406e+002
7.891823e+002, 4.204794e+002
7.896644e+002, 4.134240e+002
7.901465e+002, 4.076764e+002
7.906286e+002, 4.026517e+002
7.911107e+002, 3.976770e+002
7.915928e+002, 3.940014e+002
7.920750e+002, 3.932211e+002
7.925571e+002, 3.942018e+002
7.930392e+002, 3.944821e+002
7.935213e+002, 3.931115e+002
7.940034e+002, 3.915522e+002
7.944855e+002, 3.912658e+002
7.949677e+002, 3.915890e+002
7.954498e+002, 3.915204e+002
7.959319e+002, 3.909210e+002
7.964140e+002, 3.890935e+002
7.968961e+002, 3.856078e+002
7.973782e+002, 3.822639e+002
7.978604e+002, 3.818743e+002
7.983425e+002, 3.846511e+002
7.988246e+002, 3.848980e+002
7.993067e+002, 3.805354e+002
7.997888e+002, 3.774025e+002
8.002709e+002, 3.785521e+002
8.007531e+002, 3.801786e+002
8.012352e+002, 3.789579e+002
8.017173e+002, 3.755196e+002
8.021994e+002, 3.733893e+002
8.026815e+002, 3.744518e+002
8.031636e+002, 3.755966e+002
8.036458e+002, 3.749380e+002
8.041279e+002, 3.736585e+002
8.046100e+002, 3.733593e+002
8.050921e+002, 3.738564e+002
8.055742e+002, 3.737658e+002
8.060563e+002, 3.723120e+002
8.065385e+002, 3.703377e+002
8.070206e+002, 3.691505e+002
8.075027e+002, 3.687065e+002
8.079848e+002, 3.685563e+002
8.084669e+002, 3.688189e+002
8.089490e+002, 3.686596e+002
8.094312e+002, 3.676668e+002
8.099133e+002, 3.661094e+002
8.103954e+002, 3.641414e+002
8.108775e+002, 3.615121e+002
8.113596e+002, 3.602936e+002
8.118417e+002, 3.620237e+002
8.123239e+002, 3.631917e+002
8.128060e+002, 3.621776e+002
8.132881e+002, 3.606576e+002
8.137702e+002, 3.604862e+002
8.142523e+002, 3.614520e+002
8.147344e+002, 3.617991e+002
8.152166e+002, 3.604225e+002
8.156987e+002, 3.585921e+002
8.161808e+002, 3.575949e+002
8.166629e+002, 3.571600e+002
8.171450e+002, 3.566878e+002
8.176271e+002, 3.561188e+002
8.181093e+002, 3.557090e+002
8.185914e+002, 3.556206e+002
8.190735e+002, 3.556714e+002
8.195556e+002, 3.555739e+002
8.200377e+002, 3.553889e+002
8.205198e+002, 3.545709e+002
8.210020e+002, 3.526434e+002
8.214841e+002, 3.509575e+002
8.219662e+002, 3.499648e+002
8.224483e+002, 3.495107e+002
8.229304e+002, 3.496850e+002
8.234125e+002, 3.504412e+002
8.238947e+002, 3.506126e+002
8.243768e+002, 3.497155e+002
8.248589e+002, 3.485008e+002
8.253410e+002, 3.472621e+002
8.258231e+002, 3.458988e+002
8.263052e+002, 3.438930e+002
8.267874e+002, 3.415921e+002
8.272695e+002, 3.402998e+002
8.277516e+002, 3.408438e+002
8.282337e+002, 3.422206e+002
8.287158e+002, 3.434318e+002
8.291979e+002, 3.442902e+002
8.296801e+002, 3.437357e+002
8.301622e+002, 3.416728e+002
8.306443e+002, 3.397077e+002
8.311264e+002, 3.387148e+002
8.316085e+002, 3.379805e+002
8.320906e+002, 3.361392e+002
8.325728e+002, 3.328213e+002
8.330549e+002, 3.311581e+002
8.335370e+002, 3.324180e+002
8.340191e+002, 3.335358e+002
8.345012e+002, 3.337495e+002
8.349833e+002, 3.336206e+002
8.354655e+002, 3.337755e+002
8.359476e+002, 3.340608e+002
8.364297e+002, 3.335942e+002
8.369118e+002, 3.315343e+002
8.373939e+002, 3.295966e+002
8.378760e+002, 3.291087e+002
8.383582e+002, 3.289797e+002
8.388403e+002, 3.276414e+002
8.393224e+002, 3.254307e+002
8.398045e+002, 3.238890e+002
8.402866e+002, 3.237470e+002
8.407687e+002, 3.242706e+002
8.412509e+002, 3.245434e+002
8.417330e+002, 3.246118e+002
8.422151e+002, 3.248539e+002
8.426972e+002, 3.253153e+002
8.431793e+002, 3.251917e+002
8.436614e+002, 3.240328e+002
8.441436e+002, 3.226189e+002
8.446257e+002, 3.217998e+002
8.451078e+002, 3.215666e+002
8.455899e+002, 3.217487e+002
8.460720e+002, 3.239270e+002
8.465541e+002, 3.241434e+002
8.470363e+002, 3.199824e+002
8.475184e+002, 3.157745e+002
8.480005e+002, 3.142350e+002
8.484826e+002, 3.147363e+002
8.489647e+002, 3.156727e+002
8.494468e+002, 3.168213e+002
8.499290e+002, 3.175570e+002
8.504111e+002, 3.175352e+002
8.508932e+002, 3.169463e+002
8.513753e+002, 3.157343e+002
8.518574e+002, 3.141665e+002
8.523395e+002, 3.127664e+002
8.528217e+002, 3.117083e+002
8.533038e+002, 3.108877e+002
8.537859e+002, 3.104038e+002
8.542680e+002, 3.099246e+002
8.547501e+002, 3.078766e+002
8.552322e+002, 3.042587e+002
8.557144e+002, 3.027490e+002
8.561965e+002, 3.045460e+002
8.566786e+002, 3.065327e+002
8.571607e+002, 3.064414e+002
8.576428e+002, 3.047329e+002
8.581249e+002, 3.028387e+002
8.586071e+002, 3.005713e+002
8.590892e+002, 2.985327e+002
8.595713e+002, 2.960443e+002
8.600534e+002, 2.945623e+002
8.605355e+002, 2.954006e+002
8.610176e+002, 2.970656e+002
8.614998e+002, 2.977133e+002
8.619819e+002, 2.971715e+002
8.624640e+002, 2.966613e+002
8.629461e+002, 2.969085e+002
8.634282e+002, 2.970924e+002
8.639103e+002, 2.969203e+002
8.643925e+002, 2.961944e+002
8.648746e+002, 2.943183e+002
8.653567e+002, 2.915266e+002
8.658388e+002, 2.888427e+002
8.663209e+002, 2.867877e+002
8.668030e+002, 2.856773e+002
8.672852e+002, 2.866876e+002
8.677673e+002, 2.892326e+002
8.682494e+002, 2.900615e+002
8.687315e+002, 2.889481e+002
8.692136e+002, 2.872741e+002
8.696957e+002, 2.854343e+002
8.701779e+002, 2.839212e+002
8.706600e+002, 2.836399e+002
8.711421e+002, 2.846147e+002
8.716242e+002, 2.838226e+002
8.721063e+002, 2.796943e+002
8.725884e+002, 2.765617e+002
8.730705e+002, 2.760956e+002
8.735526e+002, 2.759482e+002
8.740347e+002, 2.743924e+002
8.745168e+002, 2.721229e+002
8.749990e+002, 2.710288e+002
8.754811e+002, 2.719699e+002
8.759632e+002, 2.723903e+002
8.764453e+002, 2.708961e+002
8.769274e+002, 2.690506e+002
8.774095e+002, 2.681519e+002
8.778917e+002, 2.676682e+002
8.783738e+002, 2.662831e+002
8.788559e+002, 2.638887e+002
8.793380e+002, 2.621048e+002
8.798201e+002, 2.626046e+002
8.803022e+002, 2.639543e+002
8.807844e+002, 2.636373e+002
8.812665e+002, 2.621197e+002
8.817486e+002, 2.612242e+002
8.822307e+002, 2.612008e+002
8.827128e+002, 2.609727e+002
8.831949e+002, 2.598372e+002
8.836771e+002, 2.581879e+002
8.841592e+002, 2.567911e+002
8.846413e+002, 2.556249e+002
8.851234e+002, 2.549500e+002
8.856055e+002, 2.551739e+002
8.860876e+002, 2.548360e+002
8.865698e+002, 2.530184e+002
8.870519e+002, 2.508379e+002
8.875340e+002, 2.493195e+002
8.880161e+002, 2.484868e+002
8.884982e+002, 2.485791e+002
8.889803e+002, 2.506095e+002
8.894625e+002, 2.521437e+002
8.899446e+002, 2.531044e+002
8.904267e+002, 2.531278e+002
8.909088e+002, 2.512842e+002
8.913909e+002, 2.485053e+002
8.918730e+002, 2.466713e+002
8.923552e+002, 2.463246e+002
8.928373e+002, 2.459733e+002
8.933194e+002, 2.444767e+002
8.938015e+002, 2.426585e+002
8.942836e+002, 2.411870e+002
8.947657e+002, 2.401410e+002
8.952479e+002, 2.400496e+002
8.957300e+002, 2.407472e+002
8.962121e+002, 2.405508e+002
8.966942e+002, 2.379951e+002
8.971763e+002, 2.345399e+002
8.976584e+002, 2.332907e+002
8.981406e+002, 2.340257e+002
8.986227e+002, 2.345472e+002
8.991048e+002, 2.346640e+002
8.995869e+002, 2.344746e+002
9.000690e+002, 2.339998e+002
9.005511e+002, 2.333001e+002
9.010333e+002, 2.324367e+002
9.015154e+002, 2.313981e+002
9.019975e+002, 2.304275e+002
9.024796e+002, 2.293533e+002
9.029617e+002, 2.286696e+002
9.034438e+002, 2.289540e+002
9.039260e+002, 2.291808e+002
9.044081e+002, 2.282979e+002
9.048902e+002, 2.268631e+002
9.053723e+002, 2.264758e+002
9.058544e+002, 2.279528e+002
9.063365e+002, 2.286200e+002
9.068187e+002, 2.269155e+002
9.073008e+002, 2.251865e+002
9.077829e+002, 2.252355e+002
9.082650e+002, 2.259305e+002
9.087471e+002, 2.253990e+002
9.092292e+002, 2.235488e+002
9.097114e+002, 2.221100e+002
9.101935e+002, 2.224160e+002
9.106756e+002, 2.230641e+002
9.111577e+002, 2.223791e+002
9.116398e+002, 2.211134e+002
9.121219e+002, 2.207777e+002
9.126041e+002, 2.213344e+002
9.130862e+002, 2.217789e+002
9.135683e+002, 2.216369e+002
9.140504e+002, 2.211757e+002
9.145325e+002, 2.208199e+002
9.150146e+002, 2.204679e+002
9.154968e+002, 2.192900e+002
9.159789e+002, 2.172373e+002
9.164610e+002, 2.158792e+002
9.169431e+002, 2.157121e+002
9.174252e+002, 2.158242e+002
9.179073e+002, 2.155095e+002
9.183895e+002, 2.148311e+002
9.188716e+002, 2.139524e+002
9.193537e+002, 2.124806e+002
9.198358e+002, 2.118451e+002
9.203179e+002, 2.129805e+002
9.208000e+002, 2.136042e+002
9.212822e+002, 2.120814e+002
9.217643e+002, 2.100695e+002
9.222464e+002, 2.095606e+002
9.227285e+002, 2.105014e+002
9.232106e+002, 2.109371e+002
9.236927e+002, 2.102624e+002
9.241749e+002, 2.095065e+002
9.246570e+002, 2.092955e+002
9.251391e+002, 2.088063e+002
9.256212e+002, 2.067491e+002
9.261033e+002, 2.040733e+002
9.265854e+002, 2.030627e+002
9.270676e+002, 2.044391e+002
9.275497e+002, 2.054976e+002
9.280318e+002, 2.037430e+002
9.285139e+002, 2.014522e+002
9.289960e+002, 2.009031e+002
9.294781e+002, 2.015623e+002
9.299603e+002, 2.027447e+002
9.304424e+002, 2.040108e+002
9.309245e+002, 2.041098e+002
9.314066e+002, 2.020805e+002
9.318887e+002, 1.994545e+002
9.323708e+002, 1.988311e+002
9.328530e+002, 1.997135e+002
9.333351e+002, 2.001526e+002
9.338172e+002, 2.000378e+002
9.342993e+002, 1.993073e+002
9.347814e+002, 1.978676e+002
9.352635e+002, 1.966003e+002
9.357457e+002, 1.965861e+002
9.362278e+002, 1.975155e+002
9.367099e+002, 1.974331e+002
9.371920e+002, 1.959627e+002
9.376741e+002, 1.951861e+002
9.381563e+002, 1.956653e+002
9.386384e+002, 1.961090e+002
9.391205e+002, 1.956526e+002
9.396026e+002, 1.948594e+002
9.400847e+002, 1.948481e+002
9.405668e+002, 1.958818e+002
9.410490e+002, 1.961422e+002
9.415311e+002, 1.948804e+002
9.420132e+002, 1.939039e+002
9.424953e+002, 1.937320e+002
9.429774e+002, 1.937969e+002
9.434595e+002, 1.939063e+002
9.439417e+002, 1.938848e+002
9.444238e+002, 1.932390e+002
9.449059e+002, 1.915778e+002
9.453880e+002, 1.904337e+002
9.458701e+002, 1.908524e+002
9.463522e+002, 1.914245e+002
9.468344e+002, 1.912544e+002
9.473165e+002, 1.906418e+002
9.477986e+002, 1.898862e+002
9.482807e+002, 1.891532e+002
9.487628e+002, 1.887927e+002
9.492449e+002, 1.891324e+002
9.497271e+002, 1.895439e+002
9.502092e+002, 1.896655e+002
9.506913e+002, 1.893349e+002
9.511734e+002, 1.877204e+002
9.516555e+002, 1.854187e+002
9.521376e+002, 1.845710e+002
9.526198e+002, 1.857914e+002
9.531019e+002, 1.872637e+002
9.535840e+002, 1.872014e+002
9.540661e+002, 1.862146e+002
9.545482e+002, 1.857622e+002
9.550303e+002, 1.857635e+002
9.555124e+002, 1.857452e+002
9.559945e+002, 1.856374e+002
9.564766e+002, 1.851964e+002
9.569587e+002, 1.842124e+002
9.574409e+002, 1.832669e+002
9.579230e+002, 1.834300e+002
9.584051e+002, 1.846691e+002
9.588872e+002, 1.850247e+002
9.593693e+002, 1.843248e+002
9.598514e+002, 1.833780e+002
9.603336e+002, 1.820437e+002
9.608157e+002, 1.812584e+002
9.612978e+002, 1.820027e+002
9.617799e+002, 1.836579e+002
9.622620e+002, 1.844812e+002
9.627441e+002, 1.842474e+002
9.632263e+002, 1.838682e+002
9.637084e+002, 1.829253e+002
9.641905e+002, 1.824131e+002
9.646726e+002, 1.834434e+002
9.651547e+002, 1.843129e+002
9.656368e+002, 1.830022e+002
9.661190e+002, 1.801243e+002
9.666011e+002, 1.786161e+002
9.670832e+002, 1.794495e+002
9.675653e+002, 1.804070e+002
9.680474e+002, 1.813204e+002
9.685295e+002, 1.819083e+002
9.690117e+002, 1.818232e+002
9.694938e+002, 1.814180e+002
9.699759e+002, 1.811095e+002
9.704580e+002, 1.809657e+002
9.709401e+002, 1.809451e+002
9.714222e+002, 1.814335e+002
9.719044e+002, 1.813840e+002
9.723865e+002, 1.792769e+002
9.728686e+002, 1.769716e+002
9.733507e+002, 1.766024e+002
9.738328e+002, 1.776916e+002
9.743149e+002, 1.789752e+002
9.747971e+002, 1.799917e+002
9.752792e+002, 1.805298e+002
9.757613e+002, 1.803374e+002
9.762434e+002, 1.796611e+002
9.767255e+002, 1.786309e+002
9.772076e+002, 1.774351e+002
9.776898e+002, 1.764006e+002
9.781719e+002, 1.755979e+002
9.786540e+002, 1.751485e+002
9.791361e+002, 1.751049e+002
9.796182e+002, 1.752052e+002
9.801003e+002, 1.750152e+002
9.805825e+002, 1.747437e+002
9.810646e+002, 1.753373e+002
9.815467e+002, 1.766314e+002
9.820288e+002, 1.772263e+002
9.825109e+002, 1.768453e+002
9.829930e+002, 1.761447e+002
9.834752e+002, 1.754827e+002
9.839573e+002, 1.750876e+002
9.844394e+002, 1.755873e+002
9.849215e+002, 1.769935e+002
9.854036e+002, 1.774109e+002
9.858857e+002, 1.766426e+002
9.863679e+002, 1.760531e+002
9.868500e+002, 1.760316e+002
9.873321e+002, 1.761599e+002
9.878142e+002, 1.761023e+002
9.882963e+002, 1.759292e+002
9.887784e+002, 1.758390e+002
9.892606e+002, 1.757578e+002
9.897427e+002, 1.759950e+002
9.902248e+002, 1.763916e+002
9.907069e+002, 1.775338e+002
9.911890e+002, 1.811222e+002
9.916711e+002, 1.838265e+002
9.921533e+002, 1.813132e+002
9.926354e+002, 1.747988e+002
9.931175e+002, 1.716316e+002
9.935996e+002, 1.746190e+002
9.940817e+002, 1.758955e+002
9.945638e+002, 1.736116e+002
9.950460e+002, 1.716875e+002
9.955281e+002, 1.717543e+002
9.960102e+002, 1.728454e+002
9.964923e+002, 1.745320e+002
9.969744e+002, 1.764610e+002
9.974565e+002, 1.765970e+002
9.979387e+002, 1.724753e+002
9.984208e+002, 1.700112e+002
9.989029e+002, 1.725372e+002
9.993850e+002, 1.752347e+002
9.998671e+002, 1.748713e+002
1.000349e+003, 1.728693e+002
1.000831e+003, 1.712091e+002
1.001313e+003, 1.702603e+002
1.001796e+003, 1.699364e+002
1.002278e+003, 1.703215e+002
1.002760e+003, 1.711476e+002
1.003242e+003, 1.716150e+002
1.003724e+003, 1.730158e+002
1.004206e+003, 1.790029e+002
1.004688e+003, 1.860625e+002
1.005170e+003, 1.863626e+002
1.005653e+003, 1.787159e+002
1.006135e+003, 1.716744e+002
1.006617e+003, 1.711522e+002
1.007099e+003, 1.727363e+002
1.007581e+003, 1.726562e+002
1.008063e+003, 1.718501e+002
1.008545e+003, 1.717217e+002
1.009027e+003, 1.721015e+002
1.009509e+003, 1.720009e+002
1.009992e+003, 1.711102e+002
1.010474e+003, 1.701478e+002
1.010956e+003, 1.697006e+002
1.011438e+003, 1.696008e+002
1.011920e+003, 1.695590e+002
1.012402e+003, 1.696808e+002
1.012884e+003, 1.705279e+002
1.013366e+003, 1.718732e+002
1.013849e+003, 1.723688e+002
1.014331e+003, 1.714457e+002
1.014813e+003, 1.701711e+002
1.015295e+003, 1.697202e+002
1.015777e+003, 1.698210e+002
1.016259e+003, 1.699025e+002
1.016741e+003, 1.699306e+002
1.017223e+003, 1.696496e+002
1.017705e+003, 1.690656e+002
1.018188e+003, 1.685524e+002
1.018670e+003, 1.682810e+002
1.019152e+003, 1.685299e+002
1.019634e+003, 1.695915e+002
1.020116e+003, 1.715313e+002
1.020598e+003, 1.759737e+002
1.021080e+003, 1.826436e+002
1.021562e+003, 1.834452e+002
1.022044e+003, 1.766449e+002
1.022527e+003, 1.703886e+002
1.023009e+003, 1.695344e+002
1.023491e+003, 1.709075e+002
1.023973e+003, 1.690550e+002
1.024455e+003, 1.643334e+002
1.024937e+003, 1.632011e+002
1.025419e+003, 1.661971e+002
1.025901e+003, 1.682700e+002
1.026384e+003, 1.684570e+002
1.026866e+003, 1.677694e+002
1.027348e+003, 1.667172e+002
1.027830e+003, 1.654106e+002
1.028312e+003, 1.639329e+002
1.028794e+003, 1.622234e+002
1.029276e+003, 1.617930e+002
1.029758e+003, 1.631059e+002
1.030240e+003, 1.640574e+002
1.030723e+003, 1.641919e+002
1.031205e+003, 1.640336e+002
1.031687e+003, 1.638466e+002
1.032169e+003, 1.636769e+002
1.032651e+003, 1.636588e+002
1.033133e+003, 1.638517e+002
1.033615e+003, 1.636287e+002
1.034097e+003, 1.624837e+002
1.034579e+003, 1.621075e+002
1.035062e+003, 1.636267e+002
1.035544e+003, 1.647236e+002
1.036026e+003, 1.634355e+002
1.036508e+003, 1.609394e+002
1.036990e+003, 1.597268e+002
1.037472e+003, 1.600277e+002
1.037954e+003, 1.603159e+002
1.038436e+003, 1.603680e+002
1.038919e+003, 1.607731e+002
1.039401e+003, 1.620979e+002
1.039883e+003, 1.632939e+002
1.040365e+003, 1.637269e+002
1.040847e+003, 1.635469e+002
1.041329e+003, 1.629626e+002
1.041811e+003, 1.618231e+002
1.042293e+003, 1.610781e+002
1.042776e+003, 1.618649e+002
1.043258e+003, 1.614719e+002
1.043740e+003, 1.573930e+002
1.044222e+003, 1.539883e+002
1.044704e+003, 1.549048e+002
1.045186e+003, 1.582165e+002
1.045668e+003, 1.601658e+002
1.046150e+003, 1.603703e+002
1.046632e+003, 1.602226e+002
1.047115e+003, 1.596440e+002
1.047597e+003, 1.590414e+002
1.048079e+003, 1.580182e+002
1.048561e+003, 1.574890e+002
1.049043e+003, 1.587506e+002
1.049525e+003, 1.607027e+002
1.050007e+003, 1.611491e+002
1.050489e+003, 1.597036e+002
1.050971e+003, 1.584866e+002
1.051454e+003, 1.582681e+002
1.051936e+003, 1.578394e+002
1.052418e+003, 1.566190e+002
1.052900e+003, 1.552793e+002
1.053382e+003, 1.540323e+002
1.053864e+003, 1.531280e+002
1.054346e+003, 1.530269e+002
1.054828e+003, 1.538069e+002
1.055311e+003, 1.547195e+002
1.055793e+003, 1.564422e+002
1.056275e+003, 1.570827e+002
1.056757e+003, 1.550059e+002
1.057239e+003, 1.525721e+002
1.057721e+003, 1.514634e+002
1.058203e+003, 1.513042e+002
1.058685e+003, 1.512619e+002
1.059167e+003, 1.512011e+002
1.059650e+003, 1.513011e+002
1.060132e+003, 1.517935e+002
1.060614e+003, 1.522227e+002
1.061096e+003, 1.527805e+002
1.061578e+003, 1.528569e+002
1.062060e+003, 1.512593e+002
1.062542e+003, 1.491913e+002
1.063024e+003, 1.489475e+002
1.063506e+003, 1.507140e+002
1.063989e+003, 1.518624e+002
1.064471e+003, 1.507715e+002
1.064953e+003, 1.498436e+002
1.065435e+003, 1.503829e+002
1.065917e+003, 1.511447e+002
1.066399e+003, 1.510878e+002
1.066881e+003, 1.506532e+002
1.067363e+003, 1.507563e+002
1.067846e+003, 1.514224e+002
1.068328e+003, 1.516243e+002
1.068810e+003, 1.507332e+002
1.069292e+003, 1.497457e+002
1.069774e+003, 1.487907e+002
1.070256e+003, 1.482287e+002
1.070738e+003, 1.487483e+002
1.071220e+003, 1.495940e+002
1.071703e+003, 1.494066e+002
1.072185e+003, 1.483002e+002
1.072667e+003, 1.480999e+002
1.073149e+003, 1.500550e+002
1.073631e+003, 1.516617e+002
1.074113e+003, 1.516709e+002
1.074595e+003, 1.509989e+002
1.075077e+003, 1.499120e+002
1.075559e+003, 1.488020e+002
1.076042e+003, 1.482968e+002
1.076524e+003, 1.482474e+002
1.077006e+003, 1.475399e+002
1.077488e+003, 1.452207e+002
1.077970e+003, 1.440606e+002
1.078452e+003, 1.466619e+002
1.078934e+003, 1.494141e+002
1.079416e+003, 1.498631e+002
1.079898e+003, 1.490852e+002
1.080380e+003, 1.481145e+002
1.080863e+003, 1.472970e+002
1.081345e+003, 1.471187e+002
1.081827e+003, 1.478654e+002
1.082309e+003, 1.485672e+002
1.082791e+003, 1.485895e+002
1.083273e+003, 1.486681e+002
1.083755e+003, 1.494488e+002
1.084237e+003, 1.503655e+002
1.084720e+003, 1.508977e+002
1.085202e+003, 1.510016e+002
1.085684e+003, 1.507049e+002
1.086166e+003, 1.499739e+002
1.086648e+003, 1.492517e+002
1.087130e+003, 1.484110e+002
1.087612e+003, 1.480161e+002
1.088094e+003, 1.487559e+002
1.088577e+003, 1.497278e+002
1.089059e+003, 1.502775e+002
1.089541e+003, 1.503238e+002
1.090023e+003, 1.497912e+002
1.090505e+003, 1.486616e+002
1.090987e+003, 1.474974e+002
1.091469e+003, 1.459392e+002
1.091951e+003, 1.451419e+002
1.092433e+003, 1.463304e+002
1.092916e+003, 1.477625e+002
1.093398e+003, 1.481313e+002
1.093880e+003, 1.477371e+002
1.094362e+003, 1.471484e+002
1.094844e+003, 1.464816e+002
1.095326e+003, 1.458749e+002
1.095808e+003, 1.450369e+002
1.096290e+003, 1.447674e+002
1.096772e+003, 1.460904e+002
1.097255e+003, 1.472435e+002
1.097737e+003, 1.470180e+002
1.098219e+003, 1.459964e+002
1.098701e+003, 1.446492e+002
1.099183e+003, 1.432493e+002
1.099665e+003, 1.429095e+002
1.100147e+003, 1.447607e+002
1.100629e+003, 1.458451e+002
1.101112e+003, 1.446714e+002
1.101594e+003, 1.434221e+002
1.102076e+003, 1.431706e+002
1.102558e+003, 1.433821e+002
1.103040e+003, 1.436729e+002
1.103522e+003, 1.438831e+002
1.104004e+003, 1.435406e+002
1.104486e+003, 1.422144e+002
1.104969e+003, 1.414993e+002
1.105451e+003, 1.421614e+002
1.105933e+003, 1.428482e+002
1.106415e+003, 1.433673e+002
1.106897e+003, 1.434766e+002
1.107379e+003, 1.425243e+002
1.107861e+003, 1.411251e+002
1.108343e+003, 1.409259e+002
1.108825e+003, 1.423866e+002
1.109307e+003, 1.430566e+002
1.109790e+003, 1.418423e+002
1.110272e+003, 1.410759e+002
1.110754e+003, 1.419989e+002
1.111236e+003, 1.426780e+002
1.111718e+003, 1.415894e+002
1.112200e+003, 1.396813e+002
1.112682e+003, 1.384364e+002
1.113164e+003, 1.378863e+002
1.113647e+003, 1.377865e+002
1.114129e+003, 1.388483e+002
1.114611e+003, 1.391577e+002
1.115093e+003, 1.376727e+002
1.115575e+003, 1.366980e+002
1.116057e+003, 1.380079e+002
1.116539e+003, 1.395684e+002
1.117021e+003, 1.388371e+002
1.117504e+003, 1.361567e+002
1.117986e+003, 1.340589e+002
1.118468e+003, 1.327095e+002
1.118950e+003, 1.315644e+002
1.119432e+003, 1.305668e+002
1.119914e+003, 1.299129e+002
1.120396e+003, 1.298464e+002
1.120878e+003, 1.298136e+002
1.121360e+003, 1.291718e+002
1.121843e+003, 1.283229e+002
1.122325e+003, 1.285721e+002
1.122807e+003, 1.302419e+002
1.123289e+003, 1.310493e+002
1.123771e+003, 1.308981e+002
1.124253e+003, 1.300640e+002
1.124735e+003, 1.281979e+002
1.125217e+003, 1.269892e+002
1.125699e+003, 1.277649e+002
1.126182e+003, 1.292875e+002
1.126664e+003, 1.294119e+002
1.127146e+003, 1.282126e+002
1.127628e+003, 1.269180e+002
1.128110e+003, 1.254466e+002
1.128592e+003, 1.247093e+002
1.129074e+003, 1.248810e+002
1.129556e+003, 1.255116e+002
1.130039e+003, 1.265095e+002
1.130521e+003, 1.271922e+002
1.131003e+003, 1.266788e+002
1.131485e+003, 1.253744e+002
1.131967e+003, 1.247325e+002
1.132449e+003, 1.247134e+002
1.132931e+003, 1.245321e+002
1.133413e+003, 1.241576e+002
1.133896e+003, 1.243463e+002
1.134378e+003, 1.253274e+002
1.134860e+003, 1.261085e+002
1.135342e+003, 1.259080e+002
1.135824e+003, 1.251142e+002
1.136306e+003, 1.243729e+002
1.136788e+003, 1.236478e+002
1.137270e+003, 1.226513e+002
1.137752e+003, 1.215180e+002
1.138234e+003, 1.209185e+002
1.138717e+003, 1.209442e+002
1.139199e+003, 1.213973e+002
1.139681e+003, 1.221809e+002
1.140163e+003, 1.226339e+002
1.140645e+003, 1.216393e+002
1.141127e+003, 1.201808e+002
1.141609e+003, 1.202480e+002
1.142091e+003, 1.211791e+002
1.142574e+003, 1.215996e+002
1.143056e+003, 1.214546e+002
1.143538e+003, 1.211437e+002
1.144020e+003, 1.208122e+002
1.144502e+003, 1.204418e+002
1.144984e+003, 1.199451e+002
1.145466e+003, 1.195789e+002
1.145948e+003, 1.195303e+002
1.146431e+003, 1.198313e+002
1.146913e+003, 1.209967e+002
1.147395e+003, 1.223250e+002
1.147877e+003, 1.226788e+002
1.148359e+003, 1.218748e+002
1.148841e+003, 1.198730e+002
1.149323e+003, 1.162499e+002
1.149805e+003, 1.139596e+002
1.150287e+003, 1.162325e+002
1.150770e+003, 1.189495e+002
1.151252e+003, 1.192152e+002
1.151734e+003, 1.182851e+002
1.152216e+003, 1.170318e+002
1.152698e+003, 1.159729e+002
1.153180e+003, 1.160061e+002
1.153662e+003, 1.173104e+002
1.154144e+003, 1.183549e+002
1.154626e+003, 1.186224e+002
1.155109e+003, 1.185616e+002
1.155591e+003, 1.182139e+002
1.156073e+003, 1.177026e+002
1.156555e+003, 1.170377e+002
1.157037e+003, 1.162950e+002
1.157519e+003, 1.154196e+002
1.158001e+003, 1.144989e+002
1.158483e+003, 1.140798e+002
1.158966e+003, 1.143089e+002
1.159448e+003, 1.148252e+002
1.159930e+003, 1.162813e+002
1.160412e+003, 1.170850e+002
1.160894e+003, 1.162791e+002
1.161376e+003, 1.152859e+002
1.161858e+003, 1.150993e+002
1.162340e+003, 1.155026e+002
1.162822e+003, 1.161679e+002
1.163305e+003, 1.172160e+002
1.163787e+003, 1.171430e+002
1.164269e+003, 1.153938e+002
1.164751e+003, 1.141218e+002
1.165233e+003, 1.135888e+002
1.165715e+003, 1.136907e+002
1.166197e+003, 1.145894e+002
1.166679e+003, 1.155502e+002
1.167161e+003, 1.156639e+002
1.167644e+003, 1.151577e+002
1.168126e+003, 1.148479e+002
1.168608e+003, 1.147165e+002
1.169090e+003, 1.157185e+002
1.169572e+003, 1.179547e+002
1.170054e+003, 1.187268e+002
1.170536e+003, 1.172735e+002
1.171018e+003, 1.152481e+002
1.171500e+003, 1.136915e+002
1.171983e+003, 1.128923e+002
1.172465e+003, 1.135921e+002
1.172947e+003, 1.153157e+002
1.173429e+003, 1.166785e+002
1.173911e+003, 1.176431e+002
1.174393e+003, 1.179775e+002
1.174875e+003, 1.177498e+002
1.175357e+003, 1.174487e+002
1.175840e+003, 1.172385e+002
1.176322e+003, 1.166632e+002
1.176804e+003, 1.149870e+002
1.177286e+003, 1.135722e+002
1.177768e+003, 1.147448e+002
1.178250e+003, 1.167917e+002
1.178732e+003, 1.171862e+002
1.179214e+003, 1.164868e+002
1.179697e+003, 1.158681e+002
1.180179e+003, 1.156671e+002
1.180661e+003, 1.162404e+002
1.181143e+003, 1.179016e+002
1.181625e+003, 1.189585e+002
1.182107e+003, 1.181386e+002
1.182589e+003, 1.166634e+002
1.183071e+003, 1.144710e+002
1.183553e+003, 1.127735e+002
1.184036e+003, 1.131067e+002
1.184518e+003, 1.146122e+002
1.185000e+003, 1.156732e+002
1.185482e+003, 1.160535e+002
1.185964e+003, 1.162104e+002
1.186446e+003, 1.160666e+002
1.186928e+003, 1.160042e+002
1.187410e+003, 1.160794e+002
1.187892e+003, 1.162592e+002
1.188375e+003, 1.167125e+002
1.188857e+003, 1.171033e+002
1.189339e+003, 1.170484e+002
1.189821e+003, 1.167120e+002
1.190303e+003, 1.165834e+002
1.190785e+003, 1.167254e+002
1.191267e+003, 1.167707e+002
1.191749e+003, 1.170123e+002
1.192232e+003, 1.160927e+002
1.192714e+003, 1.130075e+002
1.193196e+003, 1.112307e+002
1.193678e+003, 1.128786e+002
1.194160e+003, 1.155391e+002
1.194642e+003, 1.162378e+002
1.195124e+003, 1.155160e+002
1.195606e+003, 1.154833e+002
1.196089e+003, 1.161136e+002
1.196571e+003, 1.169182e+002
1.197053e+003, 1.178298e+002
1.197535e+003, 1.179662e+002
1.198017e+003, 1.171483e+002
1.198499e+003, 1.162941e+002
1.198981e+003, 1.159674e+002
1.199463e+003, 1.159562e+002
1.199945e+003, 1.161056e+002
1.200427e+003, 1.162781e+002
1.200910e+003, 1.162165e+002
1.201392e+003, 1.159534e+002
1.201874e+003, 1.152967e+002
1.202356e+003, 1.145411e+002
1.202838e+003, 1.147733e+002
1.203320e+003, 1.160792e+002
1.203802e+003, 1.168317e+002
1.204284e+003, 1.158545e+002
1.204767e+003, 1.147505e+002
1.205249e+003, 1.147642e+002
1.205731e+003, 1.151222e+002
1.206213e+003, 1.153300e+002
1.206695e+003, 1.153985e+002
1.207177e+003, 1.152132e+002
1.207659e+003, 1.149754e+002
1.208141e+003, 1.153543e+002
1.208624e+003, 1.165593e+002
1.209106e+003, 1.169377e+002
1.209588e+003, 1.151823e+002
1.210070e+003, 1.139323e+002
1.210552e+003, 1.137812e+002
1.211034e+003, 1.142004e+002
1.211516e+003, 1.158919e+002
1.211998e+003, 1.171561e+002
1.212480e+003, 1.155267e+002
1.212963e+003, 1.122016e+002
1.213445e+003, 1.120727e+002
1.213927e+003, 1.163124e+002
1.214409e+003, 1.175465e+002
1.214891e+003, 1.147469e+002
1.215373e+003, 1.130122e+002
1.215855e+003, 1.133324e+002
1.216337e+003, 1.148642e+002
1.216819e+003, 1.174525e+002
1.217302e+003, 1.194470e+002
1.217784e+003, 1.186116e+002
1.218266e+003, 1.159355e+002
1.218748e+003, 1.141469e+002
1.219230e+003, 1.132887e+002
1.219712e+003, 1.141327e+002
1.220194e+003, 1.162190e+002
1.220676e+003, 1.170026e+002
1.221159e+003, 1.160639e+002
1.221641e+003, 1.147446e+002
1.222123e+003, 1.137331e+002
1.222605e+003, 1.133831e+002
1.223087e+003, 1.144862e+002
1.223569e+003, 1.159937e+002
1.224051e+003, 1.169862e+002
1.224533e+003, 1.174336e+002
1.225016e+003, 1.169984e+002
1.225498e+003, 1.161083e+002
1.225980e+003, 1.152972e+002
1.226462e+003, 1.148302e+002
1.226944e+003, 1.155327e+002
1.227426e+003, 1.185835e+002
1.227908e+003, 1.201541e+002
1.228390e+003, 1.175309e+002
1.228872e+003, 1.149986e+002
1.229354e+003, 1.142805e+002
1.229837e+003, 1.144211e+002
1.230319e+003, 1.149456e+002
1.230801e+003, 1.156446e+002
1.231283e+003, 1.163331e+002
1.231765e+003, 1.169917e+002
1.232247e+003, 1.167894e+002
1.232729e+003, 1.152916e+002
1.233211e+003, 1.142284e+002
1.233694e+003, 1.136066e+002
1.234176e+003, 1.137274e+002
1.234658e+003, 1.148129e+002
1.235140e+003, 1.160931e+002
1.235622e+003, 1.170316e+002
1.236104e+003, 1.177774e+002
1.236586e+003, 1.186478e+002
1.237068e+003, 1.195108e+002
1.237551e+003, 1.199029e+002
1.238033e+003, 1.197943e+002
1.238515e+003, 1.187306e+002
1.238997e+003, 1.169758e+002
1.239479e+003, 1.157657e+002
1.239961e+003, 1.154966e+002
1.240443e+003, 1.161523e+002
1.240925e+003, 1.179221e+002
1.241407e+003, 1.195664e+002
1.241890e+003, 1.199841e+002
1.242372e+003, 1.196102e+002
1.242854e+003, 1.182266e+002
1.243336e+003, 1.168203e+002
1.243818e+003, 1.166994e+002
1.244300e+003, 1.174697e+002
1.244782e+003, 1.182092e+002
1.245264e+003, 1.187235e+002
1.245746e+003, 1.188311e+002
1.246229e+003, 1.178489e+002
1.246711e+003, 1.176353e+002
1.247193e+003, 1.192733e+002
1.247675e+003, 1.206828e+002
1.248157e+003, 1.210519e+002
1.248639e+003, 1.211062e+002
1.249121e+003, 1.214175e+002
1.249603e+003, 1.216576e+002
1.250085e+003, 1.210701e+002
1.250568e+003, 1.197617e+002
1.251050e+003, 1.198087e+002
1.251532e+003, 1.214284e+002
1.252014e+003, 1.217904e+002
1.252496e+003, 1.206166e+002
1.252978e+003, 1.203488e+002
1.253460e+003, 1.217111e+002
1.253942e+003, 1.222840e+002
1.254425e+003, 1.202851e+002
1.254907e+003, 1.179405e+002
1.255389e+003, 1.187339e+002
1.255871e+003, 1.210312e+002
1.256353e+003, 1.218995e+002
1.256835e+003, 1.219042e+002
1.257317e+003, 1.219662e+002
1.257799e+003, 1.221264e+002
1.258281e+003, 1.221761e+002
1.258764e+003, 1.220871e+002
1.259246e+003, 1.219397e+002
1.259728e+003, 1.216342e+002
1.260210e+003, 1.217952e+002
1.260692e+003, 1.235650e+002
1.261174e+003, 1.247473e+002
1.261656e+003, 1.235492e+002
1.262138e+003, 1.221329e+002
1.262620e+003, 1.225784e+002
1.263103e+003, 1.236583e+002
1.263585e+003, 1.230277e+002
1.264067e+003, 1.210001e+002
1.264549e+003, 1.203860e+002
1.265031e+003, 1.216275e+002
1.265513e+003, 1.229274e+002
1.265995e+003, 1.245432e+002
1.266477e+003, 1.247512e+002
1.266960e+003, 1.229090e+002
1.267442e+003, 1.215038e+002
1.267924e+003, 1.219847e+002
1.268406e+003, 1.229370e+002
1.268888e+003, 1.226141e+002
1.269370e+003, 1.216636e+002
1.269852e+003, 1.213437e+002
1.270334e+003, 1.216938e+002
1.270817e+003, 1.232578e+002
1.271299e+003, 1.254657e+002
1.271781e+003, 1.269273e+002
1.272263e+003, 1.274267e+002
1.272745e+003, 1.271957e+002
1.273227e+003, 1.263185e+002
1.273709e+003, 1.255033e+002
1.274191e+003, 1.250004e+002
1.274673e+003, 1.249011e+002
1.275156e+003, 1.256539e+002
1.275638e+003, 1.263640e+002
1.276120e+003, 1.265134e+002
1.276602e+003, 1.262370e+002
1.277084e+003, 1.249953e+002
1.277566e+003, 1.236124e+002
1.278048e+003, 1.250164e+002
1.278530e+003, 1.298202e+002
1.279012e+003, 1.315016e+002
1.279495e+003, 1.287840e+002
1.279977e+003, 1.277259e+002
1.280459e+003, 1.293494e+002
1.280941e+003, 1.305441e+002
1.281423e+003, 1.301452e+002
1.281905e+003, 1.293802e+002
1.282387e+003, 1.291924e+002
1.282869e+003, 1.293694e+002
1.283352e+003, 1.295712e+002
1.283834e+003, 1.298380e+002
1.284316e+003, 1.302460e+002
1.284798e+003, 1.308017e+002
##END=



