##NAMES=Valentinite
##RRUFFID=R120096
##IDEAL CHEMISTRY=Sb^3+^_2_O_3_
##LOCALITY=China
##OWNER=RRUFF
##SOURCE=Rob Lavinsky
##DESCRIPTION=Radial spray of pale yellow and colorless bladed crystals
##STATUS=The identification of this mineral has been confirmed by single-crystal X-ray diffraction.
##URL=rruff.info/R120096
9.112140e+001, 0.000000e+000
9.160352e+001, 2.386879e+003
9.208563e+001, 2.318850e+003
9.256775e+001, 2.310756e+003
9.304987e+001, 2.395663e+003
9.353198e+001, 2.496851e+003
9.401410e+001, 2.560587e+003
9.449622e+001, 2.591173e+003
9.497833e+001, 2.606115e+003
9.546045e+001, 2.618420e+003
9.594257e+001, 2.627455e+003
9.642468e+001, 2.641855e+003
9.690680e+001, 2.668255e+003
9.738892e+001, 2.695707e+003
9.787103e+001, 2.721189e+003
9.835315e+001, 2.741302e+003
9.883527e+001, 2.756009e+003
9.931738e+001, 2.772641e+003
9.979950e+001, 2.791137e+003
1.002816e+002, 2.817481e+003
1.007637e+002, 2.850924e+003
1.012458e+002, 2.890544e+003
1.017280e+002, 2.935025e+003
1.022101e+002, 2.984266e+003
1.026922e+002, 3.038731e+003
1.031743e+002, 3.099136e+003
1.036564e+002, 3.162409e+003
1.041385e+002, 3.237865e+003
1.046207e+002, 3.335673e+003
1.051028e+002, 3.449565e+003
1.055849e+002, 3.561532e+003
1.060670e+002, 3.672898e+003
1.065491e+002, 3.769932e+003
1.070313e+002, 3.847753e+003
1.075134e+002, 3.908907e+003
1.079955e+002, 3.937435e+003
1.084776e+002, 3.911855e+003
1.089597e+002, 3.824354e+003
1.094418e+002, 3.715589e+003
1.099240e+002, 3.577109e+003
1.104061e+002, 3.433207e+003
1.108882e+002, 3.299941e+003
1.113703e+002, 3.182723e+003
1.118524e+002, 3.082902e+003
1.123345e+002, 3.004099e+003
1.128167e+002, 2.947104e+003
1.132988e+002, 2.915104e+003
1.137809e+002, 2.908559e+003
1.142630e+002, 2.924850e+003
1.147451e+002, 2.961127e+003
1.152272e+002, 3.015446e+003
1.157094e+002, 3.088155e+003
1.161915e+002, 3.179385e+003
1.166736e+002, 3.283881e+003
1.171557e+002, 3.408657e+003
1.176378e+002, 3.553286e+003
1.181199e+002, 3.719654e+003
1.186021e+002, 3.912438e+003
1.190842e+002, 4.134895e+003
1.195663e+002, 4.391788e+003
1.200484e+002, 4.674678e+003
1.205305e+002, 4.996910e+003
1.210126e+002, 5.337361e+003
1.214948e+002, 5.684702e+003
1.219769e+002, 6.039897e+003
1.224590e+002, 6.383271e+003
1.229411e+002, 6.684302e+003
1.234232e+002, 6.953030e+003
1.239053e+002, 7.214345e+003
1.243875e+002, 7.467907e+003
1.248696e+002, 7.719296e+003
1.253517e+002, 7.980600e+003
1.258338e+002, 8.251267e+003
1.263159e+002, 8.538653e+003
1.267980e+002, 8.845993e+003
1.272802e+002, 9.172035e+003
1.277623e+002, 9.506805e+003
1.282444e+002, 9.843945e+003
1.287265e+002, 1.018125e+004
1.292086e+002, 1.052929e+004
1.296907e+002, 1.088532e+004
1.301729e+002, 1.125697e+004
1.306550e+002, 1.164887e+004
1.311371e+002, 1.206123e+004
1.316192e+002, 1.248983e+004
1.321013e+002, 1.292222e+004
1.325834e+002, 1.333525e+004
1.330656e+002, 1.381487e+004
1.335477e+002, 1.434848e+004
1.340298e+002, 1.494186e+004
1.345119e+002, 1.559217e+004
1.349940e+002, 1.629853e+004
1.354761e+002, 1.707646e+004
1.359583e+002, 1.795754e+004
1.364404e+002, 1.891390e+004
1.369225e+002, 2.001671e+004
1.374046e+002, 2.128765e+004
1.378867e+002, 2.270899e+004
1.383688e+002, 2.427149e+004
1.388510e+002, 2.600350e+004
1.393331e+002, 2.782716e+004
1.398152e+002, 2.950006e+004
1.402973e+002, 3.126351e+004
1.407794e+002, 3.261991e+004
1.412615e+002, 3.337468e+004
1.417437e+002, 3.354815e+004
1.422258e+002, 3.321659e+004
1.427079e+002, 3.227651e+004
1.431900e+002, 3.087085e+004
1.436721e+002, 2.940323e+004
1.441542e+002, 2.787820e+004
1.446364e+002, 2.630564e+004
1.451185e+002, 2.468518e+004
1.456006e+002, 2.301250e+004
1.460827e+002, 2.132160e+004
1.465648e+002, 1.955691e+004
1.470469e+002, 1.779740e+004
1.475291e+002, 1.612007e+004
1.480112e+002, 1.454050e+004
1.484933e+002, 1.307035e+004
1.489754e+002, 1.173763e+004
1.494575e+002, 1.053864e+004
1.499396e+002, 9.498063e+003
1.504218e+002, 8.610011e+003
1.509039e+002, 7.846916e+003
1.513860e+002, 7.182723e+003
1.518681e+002, 6.604938e+003
1.523502e+002, 6.106392e+003
1.528323e+002, 5.655813e+003
1.533145e+002, 5.268560e+003
1.537966e+002, 4.921274e+003
1.542787e+002, 4.613945e+003
1.547608e+002, 4.342396e+003
1.552429e+002, 4.098458e+003
1.557250e+002, 3.874842e+003
1.562072e+002, 3.672021e+003
1.566893e+002, 3.494065e+003
1.571714e+002, 3.343003e+003
1.576535e+002, 3.208183e+003
1.581356e+002, 3.086388e+003
1.586177e+002, 2.976884e+003
1.590999e+002, 2.878539e+003
1.595820e+002, 2.790754e+003
1.600641e+002, 2.714795e+003
1.605462e+002, 2.647405e+003
1.610283e+002, 2.590512e+003
1.615104e+002, 2.540564e+003
1.619926e+002, 2.495489e+003
1.624747e+002, 2.455048e+003
1.629568e+002, 2.418819e+003
1.634389e+002, 2.386975e+003
1.639210e+002, 2.359408e+003
1.644031e+002, 2.337365e+003
1.648853e+002, 2.321170e+003
1.653674e+002, 2.310676e+003
1.658495e+002, 2.306358e+003
1.663316e+002, 2.308805e+003
1.668137e+002, 2.316216e+003
1.672958e+002, 2.327712e+003
1.677780e+002, 2.342618e+003
1.682601e+002, 2.359404e+003
1.687422e+002, 2.377161e+003
1.692243e+002, 2.396181e+003
1.697064e+002, 2.417469e+003
1.701885e+002, 2.442039e+003
1.706707e+002, 2.467949e+003
1.711528e+002, 2.493448e+003
1.716349e+002, 2.518837e+003
1.721170e+002, 2.545625e+003
1.725991e+002, 2.573401e+003
1.730812e+002, 2.601860e+003
1.735634e+002, 2.637789e+003
1.740455e+002, 2.687521e+003
1.745276e+002, 2.741091e+003
1.750097e+002, 2.793945e+003
1.754918e+002, 2.846385e+003
1.759739e+002, 2.901527e+003
1.764561e+002, 2.962911e+003
1.769382e+002, 3.033028e+003
1.774203e+002, 3.102688e+003
1.779024e+002, 3.167985e+003
1.783845e+002, 3.235670e+003
1.788666e+002, 3.307423e+003
1.793488e+002, 3.384046e+003
1.798309e+002, 3.467917e+003
1.803130e+002, 3.561537e+003
1.807951e+002, 3.668469e+003
1.812772e+002, 3.778197e+003
1.817593e+002, 3.888408e+003
1.822415e+002, 4.002066e+003
1.827236e+002, 4.121113e+003
1.832057e+002, 4.245962e+003
1.836878e+002, 4.375294e+003
1.841699e+002, 4.507640e+003
1.846520e+002, 4.647342e+003
1.851342e+002, 4.780871e+003
1.856163e+002, 4.913685e+003
1.860984e+002, 5.037519e+003
1.865805e+002, 5.147059e+003
1.870626e+002, 5.241430e+003
1.875447e+002, 5.313861e+003
1.880269e+002, 5.349942e+003
1.885090e+002, 5.352195e+003
1.889911e+002, 5.323124e+003
1.894732e+002, 5.251412e+003
1.899553e+002, 5.150092e+003
1.904374e+002, 5.038864e+003
1.909196e+002, 4.917723e+003
1.914017e+002, 4.798247e+003
1.918838e+002, 4.692481e+003
1.923659e+002, 4.598503e+003
1.928480e+002, 4.522715e+003
1.933301e+002, 4.476748e+003
1.938123e+002, 4.453614e+003
1.942944e+002, 4.427142e+003
1.947765e+002, 4.389462e+003
1.952586e+002, 4.347907e+003
1.957407e+002, 4.310484e+003
1.962228e+002, 4.277341e+003
1.967050e+002, 4.245070e+003
1.971871e+002, 4.204028e+003
1.976692e+002, 4.155551e+003
1.981513e+002, 4.130385e+003
1.986334e+002, 4.145855e+003
1.991155e+002, 4.179403e+003
1.995977e+002, 4.215329e+003
2.000798e+002, 4.252870e+003
2.005619e+002, 4.298675e+003
2.010440e+002, 4.358886e+003
2.015261e+002, 4.434318e+003
2.020082e+002, 4.521789e+003
2.024904e+002, 4.624430e+003
2.029725e+002, 4.737779e+003
2.034546e+002, 4.860354e+003
2.039367e+002, 4.992198e+003
2.044188e+002, 5.135396e+003
2.049009e+002, 5.291312e+003
2.053831e+002, 5.458675e+003
2.058652e+002, 5.643458e+003
2.063473e+002, 5.850009e+003
2.068294e+002, 6.068365e+003
2.073115e+002, 6.290479e+003
2.077936e+002, 6.515654e+003
2.082758e+002, 6.751664e+003
2.087579e+002, 7.005655e+003
2.092400e+002, 7.269500e+003
2.097221e+002, 7.574208e+003
2.102042e+002, 7.920444e+003
2.106863e+002, 8.297006e+003
2.111685e+002, 8.700115e+003
2.116506e+002, 9.127896e+003
2.121327e+002, 9.577975e+003
2.126148e+002, 1.005259e+004
2.130969e+002, 1.056295e+004
2.135790e+002, 1.106849e+004
2.140612e+002, 1.161080e+004
2.145433e+002, 1.212262e+004
2.150254e+002, 1.257723e+004
2.155075e+002, 1.295924e+004
2.159896e+002, 1.324244e+004
2.164717e+002, 1.338542e+004
2.169539e+002, 1.335621e+004
2.174360e+002, 1.322154e+004
2.179181e+002, 1.294620e+004
2.184002e+002, 1.258393e+004
2.188823e+002, 1.216525e+004
2.193644e+002, 1.169803e+004
2.198466e+002, 1.121904e+004
2.203287e+002, 1.077521e+004
2.208108e+002, 1.036417e+004
2.212929e+002, 9.988072e+003
2.217750e+002, 9.648475e+003
2.222571e+002, 9.343721e+003
2.227393e+002, 9.075759e+003
2.232214e+002, 8.847350e+003
2.237035e+002, 8.643771e+003
2.241856e+002, 8.453674e+003
2.246677e+002, 8.276181e+003
2.251498e+002, 8.108046e+003
2.256320e+002, 7.958587e+003
2.261141e+002, 7.815656e+003
2.265962e+002, 7.658964e+003
2.270783e+002, 7.483517e+003
2.275604e+002, 7.298583e+003
2.280425e+002, 7.109939e+003
2.285247e+002, 6.919185e+003
2.290068e+002, 6.725001e+003
2.294889e+002, 6.523949e+003
2.299710e+002, 6.320985e+003
2.304531e+002, 6.125343e+003
2.309352e+002, 5.938896e+003
2.314174e+002, 5.760138e+003
2.318995e+002, 5.585101e+003
2.323816e+002, 5.415741e+003
2.328637e+002, 5.259879e+003
2.333458e+002, 5.124106e+003
2.338279e+002, 5.004929e+003
2.343101e+002, 4.887617e+003
2.347922e+002, 4.767946e+003
2.352743e+002, 4.659758e+003
2.357564e+002, 4.569352e+003
2.362385e+002, 4.494257e+003
2.367206e+002, 4.429756e+003
2.372028e+002, 4.376145e+003
2.376849e+002, 4.331620e+003
2.381670e+002, 4.287066e+003
2.386491e+002, 4.239310e+003
2.391312e+002, 4.196933e+003
2.396133e+002, 4.161664e+003
2.400955e+002, 4.133208e+003
2.405776e+002, 4.110185e+003
2.410597e+002, 4.091132e+003
2.415418e+002, 4.077159e+003
2.420239e+002, 4.074807e+003
2.425060e+002, 4.092324e+003
2.429882e+002, 4.111044e+003
2.434703e+002, 4.123067e+003
2.439524e+002, 4.133080e+003
2.444345e+002, 4.148411e+003
2.449166e+002, 4.173744e+003
2.453987e+002, 4.207048e+003
2.458809e+002, 4.238036e+003
2.463630e+002, 4.261666e+003
2.468451e+002, 4.289755e+003
2.473272e+002, 4.324001e+003
2.478093e+002, 4.363953e+003
2.482914e+002, 4.409223e+003
2.487736e+002, 4.459849e+003
2.492557e+002, 4.514899e+003
2.497378e+002, 4.569772e+003
2.502199e+002, 4.619296e+003
2.507020e+002, 4.676044e+003
2.511841e+002, 4.743248e+003
2.516663e+002, 4.817488e+003
2.521484e+002, 4.893542e+003
2.526305e+002, 4.969250e+003
2.531126e+002, 5.046394e+003
2.535947e+002, 5.132645e+003
2.540768e+002, 5.227330e+003
2.545590e+002, 5.333024e+003
2.550411e+002, 5.456213e+003
2.555232e+002, 5.587917e+003
2.560053e+002, 5.721289e+003
2.564874e+002, 5.852900e+003
2.569695e+002, 5.981057e+003
2.574517e+002, 6.101451e+003
2.579338e+002, 6.215788e+003
2.584159e+002, 6.319083e+003
2.588980e+002, 6.407461e+003
2.593801e+002, 6.486661e+003
2.598622e+002, 6.562726e+003
2.603444e+002, 6.637744e+003
2.608265e+002, 6.711015e+003
2.613086e+002, 6.780562e+003
2.617907e+002, 6.836119e+003
2.622728e+002, 6.906159e+003
2.627549e+002, 6.997590e+003
2.632371e+002, 7.100772e+003
2.637192e+002, 7.204509e+003
2.642013e+002, 7.306248e+003
2.646834e+002, 7.412804e+003
2.651655e+002, 7.534765e+003
2.656476e+002, 7.677077e+003
2.661298e+002, 7.825194e+003
2.666119e+002, 7.980820e+003
2.670940e+002, 8.141809e+003
2.675761e+002, 8.302633e+003
2.680582e+002, 8.463455e+003
2.685403e+002, 8.632874e+003
2.690225e+002, 8.822981e+003
2.695046e+002, 9.039567e+003
2.699867e+002, 9.253674e+003
2.704688e+002, 9.447739e+003
2.709509e+002, 9.649085e+003
2.714330e+002, 9.883042e+003
2.719152e+002, 1.015153e+004
2.723973e+002, 1.043830e+004
2.728794e+002, 1.072638e+004
2.733615e+002, 1.101733e+004
2.738436e+002, 1.132508e+004
2.743257e+002, 1.164806e+004
2.748079e+002, 1.199094e+004
2.752900e+002, 1.235748e+004
2.757721e+002, 1.274833e+004
2.762542e+002, 1.314887e+004
2.767363e+002, 1.354623e+004
2.772184e+002, 1.394448e+004
2.777006e+002, 1.437910e+004
2.781827e+002, 1.485766e+004
2.786648e+002, 1.536357e+004
2.791469e+002, 1.589205e+004
2.796290e+002, 1.643915e+004
2.801111e+002, 1.698866e+004
2.805933e+002, 1.753858e+004
2.810754e+002, 1.807903e+004
2.815575e+002, 1.859367e+004
2.820396e+002, 1.910776e+004
2.825217e+002, 1.956592e+004
2.830038e+002, 1.994593e+004
2.834860e+002, 2.024562e+004
2.839681e+002, 2.045489e+004
2.844502e+002, 2.055725e+004
2.849323e+002, 2.056797e+004
2.854144e+002, 2.053326e+004
2.858965e+002, 2.044038e+004
2.863787e+002, 2.033650e+004
2.868608e+002, 2.023375e+004
2.873429e+002, 2.013816e+004
2.878250e+002, 2.007007e+004
2.883071e+002, 2.003704e+004
2.887892e+002, 2.003552e+004
2.892714e+002, 2.005976e+004
2.897535e+002, 2.011038e+004
2.902356e+002, 2.017171e+004
2.907177e+002, 2.025043e+004
2.911998e+002, 2.033486e+004
2.916819e+002, 2.039513e+004
2.921641e+002, 2.042386e+004
2.926462e+002, 2.042733e+004
2.931283e+002, 2.041687e+004
2.936104e+002, 2.039313e+004
2.940925e+002, 2.033846e+004
2.945746e+002, 2.024234e+004
2.950568e+002, 2.011126e+004
2.955389e+002, 1.996050e+004
2.960210e+002, 1.979565e+004
2.965031e+002, 1.959961e+004
2.969852e+002, 1.935029e+004
2.974673e+002, 1.905786e+004
2.979495e+002, 1.873535e+004
2.984316e+002, 1.838874e+004
2.989137e+002, 1.801510e+004
2.993958e+002, 1.760496e+004
2.998779e+002, 1.715302e+004
3.003600e+002, 1.668875e+004
3.008422e+002, 1.622793e+004
3.013243e+002, 1.576894e+004
3.018064e+002, 1.531575e+004
3.022885e+002, 1.486259e+004
3.027706e+002, 1.441600e+004
3.032527e+002, 1.398605e+004
3.037349e+002, 1.357237e+004
3.042170e+002, 1.315528e+004
3.046991e+002, 1.271503e+004
3.051812e+002, 1.227154e+004
3.056633e+002, 1.185277e+004
3.061454e+002, 1.146668e+004
3.066276e+002, 1.109746e+004
3.071097e+002, 1.073249e+004
3.075918e+002, 1.037271e+004
3.080739e+002, 1.002026e+004
3.085560e+002, 9.676225e+003
3.090381e+002, 9.345197e+003
3.095203e+002, 9.033115e+003
3.100024e+002, 8.739929e+003
3.104845e+002, 8.453593e+003
3.109666e+002, 8.163229e+003
3.114487e+002, 7.871866e+003
3.119308e+002, 7.597311e+003
3.124130e+002, 7.346571e+003
3.128951e+002, 7.111792e+003
3.133772e+002, 6.887265e+003
3.138593e+002, 6.671832e+003
3.143414e+002, 6.466235e+003
3.148235e+002, 6.269919e+003
3.153057e+002, 6.083352e+003
3.157878e+002, 5.906296e+003
3.162699e+002, 5.741838e+003
3.167520e+002, 5.581577e+003
3.172341e+002, 5.416849e+003
3.177162e+002, 5.252089e+003
3.181984e+002, 5.096993e+003
3.186805e+002, 4.958613e+003
3.191626e+002, 4.830960e+003
3.196447e+002, 4.704403e+003
3.201268e+002, 4.578150e+003
3.206089e+002, 4.457306e+003
3.210911e+002, 4.345878e+003
3.215732e+002, 4.240960e+003
3.220553e+002, 4.139908e+003
3.225374e+002, 4.042346e+003
3.230195e+002, 3.947393e+003
3.235016e+002, 3.853241e+003
3.239838e+002, 3.759266e+003
3.244659e+002, 3.673124e+003
3.249480e+002, 3.602197e+003
3.254301e+002, 3.538180e+003
3.259122e+002, 3.471342e+003
3.263943e+002, 3.400077e+003
3.268765e+002, 3.328679e+003
3.273586e+002, 3.260126e+003
3.278407e+002, 3.193823e+003
3.283228e+002, 3.127997e+003
3.288049e+002, 3.061994e+003
3.292870e+002, 2.996826e+003
3.297692e+002, 2.932763e+003
3.302513e+002, 2.870032e+003
3.307334e+002, 2.810881e+003
3.312155e+002, 2.758180e+003
3.316976e+002, 2.709897e+003
3.321797e+002, 2.660805e+003
3.326619e+002, 2.609379e+003
3.331440e+002, 2.559961e+003
3.336261e+002, 2.517004e+003
3.341082e+002, 2.478841e+003
3.345903e+002, 2.441862e+003
3.350724e+002, 2.404793e+003
3.355546e+002, 2.368769e+003
3.360367e+002, 2.335520e+003
3.365188e+002, 2.305322e+003
3.370009e+002, 2.276540e+003
3.374830e+002, 2.249436e+003
3.379651e+002, 2.222767e+003
3.384473e+002, 2.194044e+003
3.389294e+002, 2.160997e+003
3.394115e+002, 2.129059e+003
3.398936e+002, 2.103475e+003
3.403757e+002, 2.083462e+003
3.408578e+002, 2.063833e+003
3.413400e+002, 2.041989e+003
3.418221e+002, 2.020290e+003
3.423042e+002, 2.002227e+003
3.427863e+002, 1.988144e+003
3.432684e+002, 1.974937e+003
3.437505e+002, 1.961935e+003
3.442327e+002, 1.948648e+003
3.447148e+002, 1.933464e+003
3.451969e+002, 1.915418e+003
3.456790e+002, 1.897095e+003
3.461611e+002, 1.881457e+003
3.466432e+002, 1.868116e+003
3.471254e+002, 1.855891e+003
3.476075e+002, 1.845575e+003
3.480896e+002, 1.835699e+003
3.485717e+002, 1.824578e+003
3.490538e+002, 1.811997e+003
3.495359e+002, 1.798753e+003
3.500181e+002, 1.784158e+003
3.505002e+002, 1.769335e+003
3.509823e+002, 1.758594e+003
3.514644e+002, 1.758476e+003
3.519465e+002, 1.757160e+003
3.524286e+002, 1.743872e+003
3.529108e+002, 1.721282e+003
3.533929e+002, 1.702344e+003
3.538750e+002, 1.694525e+003
3.543571e+002, 1.693156e+003
3.548392e+002, 1.686079e+003
3.553214e+002, 1.670403e+003
3.558035e+002, 1.656414e+003
3.562856e+002, 1.650020e+003
3.567677e+002, 1.647413e+003
3.572498e+002, 1.641558e+003
3.577319e+002, 1.630220e+003
3.582141e+002, 1.616483e+003
3.586962e+002, 1.604095e+003
3.591783e+002, 1.593114e+003
3.596604e+002, 1.583058e+003
3.601425e+002, 1.574855e+003
3.606246e+002, 1.566905e+003
3.611068e+002, 1.557338e+003
3.615889e+002, 1.546064e+003
3.620710e+002, 1.535336e+003
3.625531e+002, 1.527413e+003
3.630352e+002, 1.522163e+003
3.635173e+002, 1.514444e+003
3.639995e+002, 1.502123e+003
3.644816e+002, 1.489661e+003
3.649637e+002, 1.478931e+003
3.654458e+002, 1.469764e+003
3.659279e+002, 1.461448e+003
3.664100e+002, 1.453597e+003
3.668922e+002, 1.446397e+003
3.673743e+002, 1.440687e+003
3.678564e+002, 1.438144e+003
3.683385e+002, 1.434596e+003
3.688206e+002, 1.429521e+003
3.693027e+002, 1.423153e+003
3.697849e+002, 1.415273e+003
3.702670e+002, 1.405956e+003
3.707491e+002, 1.396529e+003
3.712312e+002, 1.389053e+003
3.717133e+002, 1.384970e+003
3.721954e+002, 1.378412e+003
3.726776e+002, 1.366437e+003
3.731597e+002, 1.354669e+003
3.736418e+002, 1.346876e+003
3.741239e+002, 1.342706e+003
3.746060e+002, 1.339174e+003
3.750881e+002, 1.333698e+003
3.755703e+002, 1.326429e+003
3.760524e+002, 1.321881e+003
3.765345e+002, 1.323428e+003
3.770166e+002, 1.323758e+003
3.774987e+002, 1.320488e+003
3.779808e+002, 1.315167e+003
3.784630e+002, 1.310186e+003
3.789451e+002, 1.306647e+003
3.794272e+002, 1.303805e+003
3.799093e+002, 1.299733e+003
3.803914e+002, 1.292283e+003
3.808735e+002, 1.287288e+003
3.813557e+002, 1.286860e+003
3.818378e+002, 1.287329e+003
3.823199e+002, 1.285950e+003
3.828020e+002, 1.282372e+003
3.832841e+002, 1.278074e+003
3.837662e+002, 1.274850e+003
3.842484e+002, 1.273005e+003
3.847305e+002, 1.269948e+003
3.852126e+002, 1.263920e+003
3.856947e+002, 1.258308e+003
3.861768e+002, 1.253792e+003
3.866589e+002, 1.250542e+003
3.871411e+002, 1.248913e+003
3.876232e+002, 1.249462e+003
3.881053e+002, 1.251231e+003
3.885874e+002, 1.250672e+003
3.890695e+002, 1.246614e+003
3.895516e+002, 1.242343e+003
3.900338e+002, 1.237948e+003
3.905159e+002, 1.234056e+003
3.909980e+002, 1.231201e+003
3.914801e+002, 1.229536e+003
3.919622e+002, 1.229005e+003
3.924443e+002, 1.229964e+003
3.929265e+002, 1.232647e+003
3.934086e+002, 1.234530e+003
3.938907e+002, 1.234444e+003
3.943728e+002, 1.234292e+003
3.948549e+002, 1.234658e+003
3.953370e+002, 1.235786e+003
3.958192e+002, 1.238336e+003
3.963013e+002, 1.244115e+003
3.967834e+002, 1.251620e+003
3.972655e+002, 1.255297e+003
3.977476e+002, 1.253584e+003
3.982297e+002, 1.252086e+003
3.987119e+002, 1.253335e+003
3.991940e+002, 1.256670e+003
3.996761e+002, 1.261752e+003
4.001582e+002, 1.269053e+003
4.006403e+002, 1.276824e+003
4.011224e+002, 1.282760e+003
4.016046e+002, 1.287084e+003
4.020867e+002, 1.292958e+003
4.025688e+002, 1.302000e+003
4.030509e+002, 1.312291e+003
4.035330e+002, 1.321170e+003
4.040151e+002, 1.328568e+003
4.044973e+002, 1.337013e+003
4.049794e+002, 1.348738e+003
4.054615e+002, 1.361911e+003
4.059436e+002, 1.373038e+003
4.064257e+002, 1.381423e+003
4.069078e+002, 1.389628e+003
4.073900e+002, 1.399342e+003
4.078721e+002, 1.410594e+003
4.083542e+002, 1.423213e+003
4.088363e+002, 1.436489e+003
4.093184e+002, 1.451737e+003
4.098005e+002, 1.470865e+003
4.102827e+002, 1.492875e+003
4.107648e+002, 1.513532e+003
4.112469e+002, 1.530257e+003
4.117290e+002, 1.545960e+003
4.122111e+002, 1.567805e+003
4.126932e+002, 1.597948e+003
4.131754e+002, 1.627596e+003
4.136575e+002, 1.652969e+003
4.141396e+002, 1.678291e+003
4.146217e+002, 1.708666e+003
4.151038e+002, 1.744677e+003
4.155859e+002, 1.782999e+003
4.160681e+002, 1.820764e+003
4.165502e+002, 1.858085e+003
4.170323e+002, 1.892791e+003
4.175144e+002, 1.920903e+003
4.179965e+002, 1.950919e+003
4.184786e+002, 1.985384e+003
4.189608e+002, 2.024310e+003
4.194429e+002, 2.067507e+003
4.199250e+002, 2.114853e+003
4.204071e+002, 2.166313e+003
4.208892e+002, 2.222093e+003
4.213713e+002, 2.285236e+003
4.218535e+002, 2.348000e+003
4.223356e+002, 2.408817e+003
4.228177e+002, 2.470372e+003
4.232998e+002, 2.534296e+003
4.237819e+002, 2.601118e+003
4.242640e+002, 2.669715e+003
4.247462e+002, 2.737840e+003
4.252283e+002, 2.805074e+003
4.257104e+002, 2.882264e+003
4.261925e+002, 2.979133e+003
4.266746e+002, 3.076004e+003
4.271567e+002, 3.167693e+003
4.276389e+002, 3.255680e+003
4.281210e+002, 3.340966e+003
4.286031e+002, 3.423339e+003
4.290852e+002, 3.506597e+003
4.295673e+002, 3.598749e+003
4.300494e+002, 3.702417e+003
4.305316e+002, 3.805952e+003
4.310137e+002, 3.903775e+003
4.314958e+002, 4.002050e+003
4.319779e+002, 4.104644e+003
4.324600e+002, 4.211816e+003
4.329421e+002, 4.319895e+003
4.334243e+002, 4.427094e+003
4.339064e+002, 4.533068e+003
4.343885e+002, 4.636784e+003
4.348706e+002, 4.738091e+003
4.353527e+002, 4.838294e+003
4.358348e+002, 4.939647e+003
4.363170e+002, 5.040604e+003
4.367991e+002, 5.139499e+003
4.372812e+002, 5.235834e+003
4.377633e+002, 5.329460e+003
4.382454e+002, 5.420396e+003
4.387275e+002, 5.508823e+003
4.392097e+002, 5.594585e+003
4.396918e+002, 5.679593e+003
4.401739e+002, 5.758176e+003
4.406560e+002, 5.821034e+003
4.411381e+002, 5.869054e+003
4.416202e+002, 5.908112e+003
4.421024e+002, 5.945152e+003
4.425845e+002, 5.971071e+003
4.430666e+002, 5.975817e+003
4.435487e+002, 5.958492e+003
4.440308e+002, 5.921973e+003
4.445129e+002, 5.867550e+003
4.449951e+002, 5.795349e+003
4.454772e+002, 5.707441e+003
4.459593e+002, 5.600720e+003
4.464414e+002, 5.485275e+003
4.469235e+002, 5.360818e+003
4.474056e+002, 5.230474e+003
4.478878e+002, 5.098490e+003
4.483699e+002, 4.966305e+003
4.488520e+002, 4.832474e+003
4.493341e+002, 4.693741e+003
4.498162e+002, 4.549130e+003
4.502983e+002, 4.403041e+003
4.507805e+002, 4.244648e+003
4.512626e+002, 4.095165e+003
4.517447e+002, 3.968886e+003
4.522268e+002, 3.860862e+003
4.527089e+002, 3.755097e+003
4.531910e+002, 3.641037e+003
4.536732e+002, 3.522156e+003
4.541553e+002, 3.414157e+003
4.546374e+002, 3.320800e+003
4.551195e+002, 3.232637e+003
4.556016e+002, 3.146605e+003
4.560837e+002, 3.065412e+003
4.565659e+002, 2.991662e+003
4.570480e+002, 2.925330e+003
4.575301e+002, 2.866570e+003
4.580122e+002, 2.817332e+003
4.584943e+002, 2.777243e+003
4.589764e+002, 2.736181e+003
4.594586e+002, 2.691312e+003
4.599407e+002, 2.649531e+003
4.604228e+002, 2.614601e+003
4.609049e+002, 2.584861e+003
4.613870e+002, 2.557006e+003
4.618691e+002, 2.528425e+003
4.623513e+002, 2.503713e+003
4.628334e+002, 2.491406e+003
4.633155e+002, 2.490947e+003
4.637976e+002, 2.487109e+003
4.642797e+002, 2.472507e+003
4.647618e+002, 2.455828e+003
4.652440e+002, 2.448027e+003
4.657261e+002, 2.448994e+003
4.662082e+002, 2.452438e+003
4.666903e+002, 2.453072e+003
4.671724e+002, 2.456729e+003
4.676545e+002, 2.472853e+003
4.681367e+002, 2.501399e+003
4.686188e+002, 2.531013e+003
4.691009e+002, 2.553279e+003
4.695830e+002, 2.570494e+003
4.700651e+002, 2.595002e+003
4.705472e+002, 2.628278e+003
4.710294e+002, 2.665521e+003
4.715115e+002, 2.706468e+003
4.719936e+002, 2.750234e+003
4.724757e+002, 2.795603e+003
4.729578e+002, 2.842255e+003
4.734399e+002, 2.891682e+003
4.739221e+002, 2.945697e+003
4.744042e+002, 3.004571e+003
4.748863e+002, 3.066580e+003
4.753684e+002, 3.132121e+003
4.758505e+002, 3.200455e+003
4.763326e+002, 3.268834e+003
4.768148e+002, 3.340157e+003
4.772969e+002, 3.419150e+003
4.777790e+002, 3.507597e+003
4.782611e+002, 3.604200e+003
4.787432e+002, 3.704841e+003
4.792253e+002, 3.807410e+003
4.797075e+002, 3.919110e+003
4.801896e+002, 4.042847e+003
4.806717e+002, 4.173772e+003
4.811538e+002, 4.309047e+003
4.816359e+002, 4.449080e+003
4.821180e+002, 4.597349e+003
4.826002e+002, 4.758048e+003
4.830823e+002, 4.927493e+003
4.835644e+002, 5.097853e+003
4.840465e+002, 5.267326e+003
4.845286e+002, 5.441632e+003
4.850107e+002, 5.627840e+003
4.854929e+002, 5.817720e+003
4.859750e+002, 6.003297e+003
4.864571e+002, 6.182590e+003
4.869392e+002, 6.357131e+003
4.874213e+002, 6.526686e+003
4.879034e+002, 6.692434e+003
4.883856e+002, 6.856405e+003
4.888677e+002, 7.020529e+003
4.893498e+002, 7.179406e+003
4.898319e+002, 7.327386e+003
4.903140e+002, 7.464760e+003
4.907961e+002, 7.598431e+003
4.912783e+002, 7.719222e+003
4.917604e+002, 7.847220e+003
4.922425e+002, 7.993853e+003
4.927246e+002, 8.154343e+003
4.932067e+002, 8.319931e+003
4.936888e+002, 8.486882e+003
4.941710e+002, 8.659849e+003
4.946531e+002, 8.844737e+003
4.951352e+002, 9.048670e+003
4.956173e+002, 9.241689e+003
4.960994e+002, 9.430290e+003
4.965815e+002, 9.603494e+003
4.970637e+002, 9.752147e+003
4.975458e+002, 9.880791e+003
4.980279e+002, 1.000075e+004
4.985100e+002, 1.011924e+004
4.989921e+002, 1.022910e+004
4.994742e+002, 1.031644e+004
4.999564e+002, 1.038560e+004
5.004385e+002, 1.041914e+004
5.009206e+002, 1.040335e+004
5.014027e+002, 1.036056e+004
5.018848e+002, 1.030415e+004
5.023669e+002, 1.023320e+004
5.028491e+002, 1.013779e+004
5.033312e+002, 1.001289e+004
5.038133e+002, 9.858381e+003
5.042954e+002, 9.670047e+003
5.047775e+002, 9.444490e+003
5.052596e+002, 9.204495e+003
5.057418e+002, 8.957906e+003
5.062239e+002, 8.704986e+003
5.067060e+002, 8.442267e+003
5.071881e+002, 8.165850e+003
5.076702e+002, 7.898316e+003
5.081523e+002, 7.656518e+003
5.086345e+002, 7.429117e+003
5.091166e+002, 7.195870e+003
5.095987e+002, 6.952794e+003
5.100808e+002, 6.713951e+003
5.105629e+002, 6.488930e+003
5.110450e+002, 6.278763e+003
5.115272e+002, 6.080731e+003
5.120093e+002, 5.896683e+003
5.124914e+002, 5.719581e+003
5.129735e+002, 5.544292e+003
5.134556e+002, 5.375391e+003
5.139377e+002, 5.218229e+003
5.144199e+002, 5.074957e+003
5.149020e+002, 4.940212e+003
5.153841e+002, 4.809868e+003
5.158662e+002, 4.684702e+003
5.163483e+002, 4.560120e+003
5.168304e+002, 4.431672e+003
5.173126e+002, 4.309136e+003
5.177947e+002, 4.195622e+003
5.182768e+002, 4.090164e+003
5.187589e+002, 3.990846e+003
5.192410e+002, 3.896848e+003
5.197231e+002, 3.809785e+003
5.202053e+002, 3.733835e+003
5.206874e+002, 3.670102e+003
5.211695e+002, 3.603116e+003
5.216516e+002, 3.527665e+003
5.221337e+002, 3.452732e+003
5.226158e+002, 3.383886e+003
5.230980e+002, 3.320195e+003
5.235801e+002, 3.258882e+003
5.240622e+002, 3.198887e+003
5.245443e+002, 3.141245e+003
5.250264e+002, 3.087478e+003
5.255085e+002, 3.037135e+003
5.259907e+002, 2.991138e+003
5.264728e+002, 2.951051e+003
5.269549e+002, 2.912016e+003
5.274370e+002, 2.866823e+003
5.279191e+002, 2.814565e+003
5.284012e+002, 2.760076e+003
5.288834e+002, 2.700057e+003
5.293655e+002, 2.641150e+003
5.298476e+002, 2.590084e+003
5.303297e+002, 2.544136e+003
5.308118e+002, 2.495019e+003
5.312939e+002, 2.437915e+003
5.317761e+002, 2.376834e+003
5.322582e+002, 2.321888e+003
5.327403e+002, 2.274505e+003
5.332224e+002, 2.231168e+003
5.337045e+002, 2.194852e+003
5.341866e+002, 2.159470e+003
5.346688e+002, 2.121605e+003
5.351509e+002, 2.081281e+003
5.356330e+002, 2.039556e+003
5.361151e+002, 1.996190e+003
5.365972e+002, 1.953105e+003
5.370793e+002, 1.915101e+003
5.375615e+002, 1.883081e+003
5.380436e+002, 1.853316e+003
5.385257e+002, 1.826509e+003
5.390078e+002, 1.800597e+003
5.394899e+002, 1.774219e+003
5.399720e+002, 1.747234e+003
5.404542e+002, 1.719211e+003
5.409363e+002, 1.687378e+003
5.414184e+002, 1.655771e+003
5.419005e+002, 1.630977e+003
5.423826e+002, 1.612938e+003
5.428647e+002, 1.596243e+003
5.433469e+002, 1.578280e+003
5.438290e+002, 1.559510e+003
5.443111e+002, 1.540698e+003
5.447932e+002, 1.520495e+003
5.452753e+002, 1.503432e+003
5.457574e+002, 1.490994e+003
5.462396e+002, 1.481232e+003
5.467217e+002, 1.473493e+003
5.472038e+002, 1.467022e+003
5.476859e+002, 1.459937e+003
5.481680e+002, 1.450634e+003
5.486501e+002, 1.440103e+003
5.491323e+002, 1.433078e+003
5.496144e+002, 1.433438e+003
5.500965e+002, 1.430565e+003
5.505786e+002, 1.419114e+003
5.510607e+002, 1.407626e+003
5.515428e+002, 1.403783e+003
5.520250e+002, 1.406851e+003
5.525071e+002, 1.409055e+003
5.529892e+002, 1.403710e+003
5.534713e+002, 1.393658e+003
5.539534e+002, 1.386914e+003
5.544355e+002, 1.383723e+003
5.549177e+002, 1.382843e+003
5.553998e+002, 1.385262e+003
5.558819e+002, 1.388717e+003
5.563640e+002, 1.389792e+003
5.568461e+002, 1.388042e+003
5.573282e+002, 1.387216e+003
5.578104e+002, 1.387797e+003
5.582925e+002, 1.390632e+003
5.587746e+002, 1.398103e+003
5.592567e+002, 1.409632e+003
5.597388e+002, 1.420080e+003
5.602209e+002, 1.426279e+003
5.607031e+002, 1.429450e+003
5.611852e+002, 1.433474e+003
5.616673e+002, 1.436718e+003
5.621494e+002, 1.443431e+003
5.626315e+002, 1.456661e+003
5.631136e+002, 1.471042e+003
5.635958e+002, 1.482377e+003
5.640779e+002, 1.491090e+003
5.645600e+002, 1.500099e+003
5.650421e+002, 1.511582e+003
5.655242e+002, 1.524726e+003
5.660063e+002, 1.536260e+003
5.664885e+002, 1.544393e+003
5.669706e+002, 1.555936e+003
5.674527e+002, 1.575023e+003
5.679348e+002, 1.596230e+003
5.684169e+002, 1.615917e+003
5.688990e+002, 1.634036e+003
5.693812e+002, 1.652949e+003
5.698633e+002, 1.674669e+003
5.703454e+002, 1.697282e+003
5.708275e+002, 1.715774e+003
5.713096e+002, 1.730795e+003
5.717917e+002, 1.752772e+003
5.722739e+002, 1.787966e+003
5.727560e+002, 1.829925e+003
5.732381e+002, 1.867184e+003
5.737202e+002, 1.898395e+003
5.742023e+002, 1.931266e+003
5.746844e+002, 1.966665e+003
5.751666e+002, 2.004006e+003
5.756487e+002, 2.042633e+003
5.761308e+002, 2.082899e+003
5.766129e+002, 2.125688e+003
5.770950e+002, 2.171682e+003
5.775771e+002, 2.220359e+003
5.780593e+002, 2.271149e+003
5.785414e+002, 2.325322e+003
5.790235e+002, 2.378095e+003
5.795056e+002, 2.422393e+003
5.799877e+002, 2.471798e+003
5.804698e+002, 2.537011e+003
5.809520e+002, 2.611905e+003
5.814341e+002, 2.682312e+003
5.819162e+002, 2.740323e+003
5.823983e+002, 2.794433e+003
5.828804e+002, 2.854391e+003
5.833625e+002, 2.920300e+003
5.838447e+002, 2.990970e+003
5.843268e+002, 3.066184e+003
5.848089e+002, 3.145785e+003
5.852910e+002, 3.232402e+003
5.857731e+002, 3.324672e+003
5.862552e+002, 3.407057e+003
5.867374e+002, 3.467645e+003
5.872195e+002, 3.529123e+003
5.877016e+002, 3.605270e+003
5.881837e+002, 3.689507e+003
5.886658e+002, 3.770032e+003
5.891479e+002, 3.843330e+003
5.896301e+002, 3.913940e+003
5.901122e+002, 3.988320e+003
5.905943e+002, 4.067355e+003
5.910764e+002, 4.141265e+003
5.915585e+002, 4.209582e+003
5.920406e+002, 4.273097e+003
5.925228e+002, 4.335060e+003
5.930049e+002, 4.390940e+003
5.934870e+002, 4.435856e+003
5.939691e+002, 4.468682e+003
5.944512e+002, 4.489355e+003
5.949333e+002, 4.498679e+003
5.954155e+002, 4.496073e+003
5.958976e+002, 4.478663e+003
5.963797e+002, 4.445798e+003
5.968618e+002, 4.400598e+003
5.973439e+002, 4.344401e+003
5.978260e+002, 4.276502e+003
5.983082e+002, 4.198347e+003
5.987903e+002, 4.108832e+003
5.992724e+002, 4.012136e+003
5.997545e+002, 3.906843e+003
6.002366e+002, 3.796691e+003
6.007188e+002, 3.685761e+003
6.012009e+002, 3.574342e+003
6.016830e+002, 3.461684e+003
6.021651e+002, 3.346435e+003
6.026472e+002, 3.230000e+003
6.031293e+002, 3.117553e+003
6.036115e+002, 3.009643e+003
6.040936e+002, 2.904805e+003
6.045757e+002, 2.803594e+003
6.050578e+002, 2.704831e+003
6.055399e+002, 2.605978e+003
6.060220e+002, 2.509028e+003
6.065042e+002, 2.418740e+003
6.069863e+002, 2.339413e+003
6.074684e+002, 2.266635e+003
6.079505e+002, 2.192174e+003
6.084326e+002, 2.116076e+003
6.089147e+002, 2.045620e+003
6.093969e+002, 1.983293e+003
6.098790e+002, 1.926058e+003
6.103611e+002, 1.871964e+003
6.108432e+002, 1.820530e+003
6.113253e+002, 1.769214e+003
6.118074e+002, 1.716192e+003
6.122896e+002, 1.664838e+003
6.127717e+002, 1.617583e+003
6.132538e+002, 1.573007e+003
6.137359e+002, 1.528532e+003
6.142180e+002, 1.483360e+003
6.147001e+002, 1.438939e+003
6.151823e+002, 1.396460e+003
6.156644e+002, 1.355851e+003
6.161465e+002, 1.318605e+003
6.166286e+002, 1.286222e+003
6.171107e+002, 1.255539e+003
6.175928e+002, 1.226821e+003
6.180750e+002, 1.198822e+003
6.185571e+002, 1.170059e+003
6.190392e+002, 1.140374e+003
6.195213e+002, 1.111264e+003
6.200034e+002, 1.083152e+003
6.204855e+002, 1.056641e+003
6.209677e+002, 1.033485e+003
6.214498e+002, 1.013898e+003
6.219319e+002, 9.946416e+002
6.224140e+002, 9.739059e+002
6.228961e+002, 9.528069e+002
6.233782e+002, 9.337186e+002
6.238604e+002, 9.171530e+002
6.243425e+002, 9.007258e+002
6.248246e+002, 8.835499e+002
6.253067e+002, 8.670970e+002
6.257888e+002, 8.524017e+002
6.262709e+002, 8.392477e+002
6.267531e+002, 8.265547e+002
6.272352e+002, 8.138462e+002
6.277173e+002, 8.018040e+002
6.281994e+002, 7.920223e+002
6.286815e+002, 7.848956e+002
6.291636e+002, 7.777577e+002
6.296458e+002, 7.711517e+002
6.301279e+002, 7.636327e+002
6.306100e+002, 7.538116e+002
6.310921e+002, 7.428255e+002
6.315742e+002, 7.326793e+002
6.320563e+002, 7.238553e+002
6.325385e+002, 7.159689e+002
6.330206e+002, 7.084366e+002
6.335027e+002, 7.017360e+002
6.339848e+002, 6.974938e+002
6.344669e+002, 6.958600e+002
6.349490e+002, 6.936027e+002
6.354312e+002, 6.881954e+002
6.359133e+002, 6.803548e+002
6.363954e+002, 6.733862e+002
6.368775e+002, 6.669522e+002
6.373596e+002, 6.620144e+002
6.378417e+002, 6.602610e+002
6.383239e+002, 6.586903e+002
6.388060e+002, 6.543864e+002
6.392881e+002, 6.482188e+002
6.397702e+002, 6.436149e+002
6.402523e+002, 6.429099e+002
6.407344e+002, 6.441533e+002
6.412166e+002, 6.437769e+002
6.416987e+002, 6.417379e+002
6.421808e+002, 6.388001e+002
6.426629e+002, 6.344453e+002
6.431450e+002, 6.302821e+002
6.436271e+002, 6.284462e+002
6.441093e+002, 6.281474e+002
6.445914e+002, 6.264388e+002
6.450735e+002, 6.212648e+002
6.455556e+002, 6.165153e+002
6.460377e+002, 6.135443e+002
6.465198e+002, 6.122957e+002
6.470020e+002, 6.133983e+002
6.474841e+002, 6.166097e+002
6.479662e+002, 6.198448e+002
6.484483e+002, 6.212629e+002
6.489304e+002, 6.210499e+002
6.494125e+002, 6.203980e+002
6.498947e+002, 6.183408e+002
6.503768e+002, 6.177117e+002
6.508589e+002, 6.214998e+002
6.513410e+002, 6.248206e+002
6.518231e+002, 6.229399e+002
6.523052e+002, 6.168832e+002
6.527874e+002, 6.127230e+002
6.532695e+002, 6.138647e+002
6.537516e+002, 6.180424e+002
6.542337e+002, 6.239678e+002
6.547158e+002, 6.308711e+002
6.551979e+002, 6.347325e+002
6.556801e+002, 6.340674e+002
6.561622e+002, 6.320181e+002
6.566443e+002, 6.317594e+002
6.571264e+002, 6.333114e+002
6.576085e+002, 6.364529e+002
6.580906e+002, 6.415592e+002
6.585728e+002, 6.475264e+002
6.590549e+002, 6.552277e+002
6.595370e+002, 6.630221e+002
6.600191e+002, 6.687846e+002
6.605012e+002, 6.725792e+002
6.609833e+002, 6.768954e+002
6.614655e+002, 6.844371e+002
6.619476e+002, 6.937001e+002
6.624297e+002, 6.988156e+002
6.629118e+002, 6.988914e+002
6.633939e+002, 7.021005e+002
6.638760e+002, 7.126644e+002
6.643582e+002, 7.253161e+002
6.648403e+002, 7.329412e+002
6.653224e+002, 7.360428e+002
6.658045e+002, 7.416859e+002
6.662866e+002, 7.516636e+002
6.667687e+002, 7.637358e+002
6.672509e+002, 7.773772e+002
6.677330e+002, 7.920076e+002
6.682151e+002, 8.068965e+002
6.686972e+002, 8.218350e+002
6.691793e+002, 8.367228e+002
6.696614e+002, 8.516395e+002
6.701436e+002, 8.665747e+002
6.706257e+002, 8.813965e+002
6.711078e+002, 8.964733e+002
6.715899e+002, 9.107518e+002
6.720720e+002, 9.229595e+002
6.725541e+002, 9.350731e+002
6.730363e+002, 9.487577e+002
6.735184e+002, 9.640162e+002
6.740005e+002, 9.798634e+002
6.744826e+002, 9.957003e+002
6.749647e+002, 1.012251e+003
6.754468e+002, 1.031056e+003
6.759290e+002, 1.051250e+003
6.764111e+002, 1.070486e+003
6.768932e+002, 1.088019e+003
6.773753e+002, 1.103827e+003
6.778574e+002, 1.117809e+003
6.783395e+002, 1.129976e+003
6.788217e+002, 1.140059e+003
6.793038e+002, 1.147870e+003
6.797859e+002, 1.153677e+003
6.802680e+002, 1.156562e+003
6.807501e+002, 1.158083e+003
6.812322e+002, 1.159931e+003
6.817144e+002, 1.162038e+003
6.821965e+002, 1.162761e+003
6.826786e+002, 1.162527e+003
6.831607e+002, 1.159193e+003
6.836428e+002, 1.148142e+003
6.841249e+002, 1.130019e+003
6.846071e+002, 1.110479e+003
6.850892e+002, 1.090829e+003
6.855713e+002, 1.071461e+003
6.860534e+002, 1.052793e+003
6.865355e+002, 1.034966e+003
6.870176e+002, 1.016503e+003
6.874998e+002, 9.987283e+002
6.879819e+002, 9.788236e+002
6.884640e+002, 9.541167e+002
6.889461e+002, 9.282145e+002
6.894282e+002, 9.039196e+002
6.899103e+002, 8.820649e+002
6.903925e+002, 8.629567e+002
6.908746e+002, 8.478776e+002
6.913567e+002, 8.348379e+002
6.918388e+002, 8.187468e+002
6.923209e+002, 7.994596e+002
6.928030e+002, 7.809225e+002
6.932852e+002, 7.640204e+002
6.937673e+002, 7.484467e+002
6.942494e+002, 7.338179e+002
6.947315e+002, 7.201489e+002
6.952136e+002, 7.077585e+002
6.956957e+002, 6.971719e+002
6.961779e+002, 6.871644e+002
6.966600e+002, 6.775814e+002
6.971421e+002, 6.682025e+002
6.976242e+002, 6.582692e+002
6.981063e+002, 6.481061e+002
6.985884e+002, 6.394808e+002
6.990706e+002, 6.339943e+002
6.995527e+002, 6.305673e+002
7.000348e+002, 6.262070e+002
7.005169e+002, 6.208722e+002
7.009990e+002, 6.146939e+002
7.014811e+002, 6.068721e+002
7.019633e+002, 5.993452e+002
7.024454e+002, 5.936520e+002
7.029275e+002, 5.895690e+002
7.034096e+002, 5.865155e+002
7.038917e+002, 5.858947e+002
7.043738e+002, 5.842599e+002
7.048560e+002, 5.787134e+002
7.053381e+002, 5.721860e+002
7.058202e+002, 5.685265e+002
7.063023e+002, 5.677377e+002
7.067844e+002, 5.670259e+002
7.072665e+002, 5.645194e+002
7.077487e+002, 5.606385e+002
7.082308e+002, 5.562861e+002
7.087129e+002, 5.510854e+002
7.091950e+002, 5.473126e+002
7.096771e+002, 5.465112e+002
7.101592e+002, 5.454974e+002
7.106414e+002, 5.416808e+002
7.111235e+002, 5.362901e+002
7.116056e+002, 5.319086e+002
7.120877e+002, 5.291031e+002
7.125698e+002, 5.270074e+002
7.130519e+002, 5.265287e+002
7.135341e+002, 5.257604e+002
7.140162e+002, 5.215737e+002
7.144983e+002, 5.146085e+002
7.149804e+002, 5.085650e+002
7.154625e+002, 5.055715e+002
7.159446e+002, 5.044002e+002
7.164268e+002, 5.025453e+002
7.169089e+002, 4.999786e+002
7.173910e+002, 4.967813e+002
7.178731e+002, 4.923817e+002
7.183552e+002, 4.880932e+002
7.188373e+002, 4.848020e+002
7.193195e+002, 4.818726e+002
7.198016e+002, 4.782166e+002
7.202837e+002, 4.734466e+002
7.207658e+002, 4.692437e+002
7.212479e+002, 4.670822e+002
7.217300e+002, 4.654151e+002
7.222122e+002, 4.622364e+002
7.226943e+002, 4.579661e+002
7.231764e+002, 4.545385e+002
7.236585e+002, 4.528090e+002
7.241406e+002, 4.516367e+002
7.246227e+002, 4.494130e+002
7.251049e+002, 4.461286e+002
7.255870e+002, 4.415191e+002
7.260691e+002, 4.336015e+002
7.265512e+002, 4.276398e+002
7.270333e+002, 4.270955e+002
7.275154e+002, 4.282778e+002
7.279976e+002, 4.273786e+002
7.284797e+002, 4.241174e+002
7.289618e+002, 4.213446e+002
7.294439e+002, 4.201396e+002
7.299260e+002, 4.200398e+002
7.304081e+002, 4.218583e+002
7.308903e+002, 4.243065e+002
7.313724e+002, 4.241354e+002
7.318545e+002, 4.204933e+002
7.323366e+002, 4.155186e+002
7.328187e+002, 4.112946e+002
7.333008e+002, 4.078203e+002
7.337830e+002, 4.049226e+002
7.342651e+002, 4.023939e+002
7.347472e+002, 4.009084e+002
7.352293e+002, 4.021331e+002
7.357114e+002, 4.032098e+002
7.361935e+002, 4.020597e+002
7.366757e+002, 3.989374e+002
7.371578e+002, 3.952326e+002
7.376399e+002, 3.902142e+002
7.381220e+002, 3.862377e+002
7.386041e+002, 3.858102e+002
7.390862e+002, 3.870833e+002
7.395684e+002, 3.871511e+002
7.400505e+002, 3.856317e+002
7.405326e+002, 3.836450e+002
7.410147e+002, 3.819446e+002
7.414968e+002, 3.805172e+002
7.419789e+002, 3.794140e+002
7.424611e+002, 3.788653e+002
7.429432e+002, 3.777282e+002
7.434253e+002, 3.750528e+002
7.439074e+002, 3.728554e+002
7.443895e+002, 3.725955e+002
7.448716e+002, 3.734838e+002
7.453538e+002, 3.741933e+002
7.458359e+002, 3.746956e+002
7.463180e+002, 3.744348e+002
7.468001e+002, 3.729407e+002
7.472822e+002, 3.707285e+002
7.477643e+002, 3.678175e+002
7.482465e+002, 3.646521e+002
7.487286e+002, 3.623843e+002
7.492107e+002, 3.615490e+002
7.496928e+002, 3.614231e+002
7.501749e+002, 3.610471e+002
7.506570e+002, 3.604312e+002
7.511392e+002, 3.591453e+002
7.516213e+002, 3.565425e+002
7.521034e+002, 3.547773e+002
7.525855e+002, 3.554790e+002
7.530676e+002, 3.569211e+002
7.535497e+002, 3.571138e+002
7.540319e+002, 3.560125e+002
7.545140e+002, 3.542109e+002
7.549961e+002, 3.510497e+002
7.554782e+002, 3.480587e+002
7.559603e+002, 3.461438e+002
7.564424e+002, 3.450219e+002
7.569246e+002, 3.443466e+002
7.574067e+002, 3.439575e+002
7.578888e+002, 3.435824e+002
7.583709e+002, 3.429597e+002
7.588530e+002, 3.421915e+002
7.593351e+002, 3.416983e+002
7.598173e+002, 3.415476e+002
7.602994e+002, 3.410522e+002
7.607815e+002, 3.398193e+002
7.612636e+002, 3.386789e+002
7.617457e+002, 3.386641e+002
7.622278e+002, 3.394022e+002
7.627100e+002, 3.390591e+002
7.631921e+002, 3.364885e+002
7.636742e+002, 3.345667e+002
7.641563e+002, 3.341749e+002
7.646384e+002, 3.345150e+002
7.651205e+002, 3.357729e+002
7.656027e+002, 3.371364e+002
7.660848e+002, 3.365654e+002
7.665669e+002, 3.330208e+002
7.670490e+002, 3.287459e+002
7.675311e+002, 3.268712e+002
7.680132e+002, 3.269426e+002
7.684954e+002, 3.263414e+002
7.689775e+002, 3.248087e+002
7.694596e+002, 3.234786e+002
7.699417e+002, 3.228789e+002
7.704238e+002, 3.228047e+002
7.709059e+002, 3.229599e+002
7.713881e+002, 3.234474e+002
7.718702e+002, 3.237377e+002
7.723523e+002, 3.240812e+002
7.728344e+002, 3.239395e+002
7.733165e+002, 3.225248e+002
7.737986e+002, 3.208821e+002
7.742808e+002, 3.205492e+002
7.747629e+002, 3.214750e+002
7.752450e+002, 3.216935e+002
7.757271e+002, 3.192940e+002
7.762092e+002, 3.160257e+002
7.766913e+002, 3.144464e+002
7.771735e+002, 3.142840e+002
7.776556e+002, 3.146393e+002
7.781377e+002, 3.153376e+002
7.786198e+002, 3.156860e+002
7.791019e+002, 3.149225e+002
7.795840e+002, 3.134289e+002
7.800662e+002, 3.133076e+002
7.805483e+002, 3.162600e+002
7.810304e+002, 3.173322e+002
7.815125e+002, 3.143320e+002
7.819946e+002, 3.113387e+002
7.824767e+002, 3.110475e+002
7.829589e+002, 3.119953e+002
7.834410e+002, 3.108905e+002
7.839231e+002, 3.063344e+002
7.844052e+002, 3.027743e+002
7.848873e+002, 3.037244e+002
7.853694e+002, 3.065670e+002
7.858516e+002, 3.085960e+002
7.863337e+002, 3.096016e+002
7.868158e+002, 3.093832e+002
7.872979e+002, 3.078896e+002
7.877800e+002, 3.066862e+002
7.882621e+002, 3.083256e+002
7.887443e+002, 3.126259e+002
7.892264e+002, 3.136451e+002
7.897085e+002, 3.099573e+002
7.901906e+002, 3.069286e+002
7.906727e+002, 3.059559e+002
7.911548e+002, 3.064138e+002
7.916370e+002, 3.084957e+002
7.921191e+002, 3.117884e+002
7.926012e+002, 3.131963e+002
7.930833e+002, 3.108805e+002
7.935654e+002, 3.083427e+002
7.940475e+002, 3.066073e+002
7.945297e+002, 3.054940e+002
7.950118e+002, 3.055807e+002
7.954939e+002, 3.061691e+002
7.959760e+002, 3.047775e+002
7.964581e+002, 2.997303e+002
7.969402e+002, 2.941136e+002
7.974224e+002, 2.928805e+002
7.979045e+002, 2.954251e+002
7.983866e+002, 2.981141e+002
7.988687e+002, 3.008073e+002
7.993508e+002, 3.019756e+002
7.998329e+002, 3.003159e+002
8.003151e+002, 2.974993e+002
8.007972e+002, 2.968455e+002
8.012793e+002, 2.994453e+002
8.017614e+002, 2.998633e+002
8.022435e+002, 2.955334e+002
8.027256e+002, 2.923831e+002
8.032078e+002, 2.933441e+002
8.036899e+002, 2.955440e+002
8.041720e+002, 2.956328e+002
8.046541e+002, 2.935899e+002
8.051362e+002, 2.923135e+002
8.056183e+002, 2.942184e+002
8.061005e+002, 2.965687e+002
8.065826e+002, 2.962187e+002
8.070647e+002, 2.942007e+002
8.075468e+002, 2.928016e+002
8.080289e+002, 2.923967e+002
8.085110e+002, 2.921801e+002
8.089932e+002, 2.915211e+002
8.094753e+002, 2.908538e+002
8.099574e+002, 2.914672e+002
8.104395e+002, 2.937332e+002
8.109216e+002, 2.956621e+002
8.114037e+002, 2.973332e+002
8.118859e+002, 2.983561e+002
8.123680e+002, 2.982014e+002
8.128501e+002, 2.974211e+002
8.133322e+002, 2.969422e+002
8.138143e+002, 2.969613e+002
8.142964e+002, 2.960950e+002
8.147786e+002, 2.932227e+002
8.152607e+002, 2.902287e+002
8.157428e+002, 2.873153e+002
8.162249e+002, 2.853993e+002
8.167070e+002, 2.861575e+002
8.171891e+002, 2.895228e+002
8.176713e+002, 2.934783e+002
8.181534e+002, 2.968972e+002
8.186355e+002, 2.993073e+002
8.191176e+002, 2.992805e+002
8.195997e+002, 2.971465e+002
8.200818e+002, 2.955706e+002
8.205640e+002, 2.950715e+002
8.210461e+002, 2.946665e+002
8.215282e+002, 2.936734e+002
8.220103e+002, 2.922497e+002
8.224924e+002, 2.908210e+002
8.229745e+002, 2.888391e+002
8.234567e+002, 2.880652e+002
8.239388e+002, 2.897400e+002
8.244209e+002, 2.911916e+002
8.249030e+002, 2.915096e+002
8.253851e+002, 2.910555e+002
8.258672e+002, 2.902531e+002
8.263494e+002, 2.891746e+002
8.268315e+002, 2.879203e+002
8.273136e+002, 2.856292e+002
8.277957e+002, 2.840437e+002
8.282778e+002, 2.856068e+002
8.287599e+002, 2.886255e+002
8.292421e+002, 2.900716e+002
8.297242e+002, 2.893745e+002
8.302063e+002, 2.873718e+002
8.306884e+002, 2.843447e+002
8.311705e+002, 2.814188e+002
8.316526e+002, 2.822469e+002
8.321348e+002, 2.870298e+002
8.326169e+002, 2.890098e+002
8.330990e+002, 2.869576e+002
8.335811e+002, 2.833055e+002
8.340632e+002, 2.784901e+002
8.345453e+002, 2.737355e+002
8.350275e+002, 2.718149e+002
8.355096e+002, 2.737027e+002
8.359917e+002, 2.756646e+002
8.364738e+002, 2.789230e+002
8.369559e+002, 2.807912e+002
8.374380e+002, 2.788824e+002
8.379202e+002, 2.759350e+002
8.384023e+002, 2.751641e+002
8.388844e+002, 2.767632e+002
8.393665e+002, 2.784801e+002
8.398486e+002, 2.794324e+002
8.403307e+002, 2.795762e+002
8.408129e+002, 2.783040e+002
8.412950e+002, 2.763701e+002
8.417771e+002, 2.752157e+002
8.422592e+002, 2.750524e+002
8.427413e+002, 2.756402e+002
8.432234e+002, 2.769023e+002
8.437056e+002, 2.783442e+002
8.441877e+002, 2.790172e+002
8.446698e+002, 2.789135e+002
8.451519e+002, 2.779439e+002
8.456340e+002, 2.756220e+002
8.461161e+002, 2.738521e+002
8.465983e+002, 2.738031e+002
8.470804e+002, 2.743583e+002
8.475625e+002, 2.739054e+002
8.480446e+002, 2.723775e+002
8.485267e+002, 2.709826e+002
8.490089e+002, 2.698122e+002
8.494910e+002, 2.687233e+002
8.499731e+002, 2.670847e+002
8.504552e+002, 2.659621e+002
8.509373e+002, 2.669708e+002
8.514194e+002, 2.693918e+002
8.519016e+002, 2.707724e+002
8.523837e+002, 2.699449e+002
8.528658e+002, 2.681888e+002
8.533479e+002, 2.659113e+002
8.538300e+002, 2.638443e+002
8.543121e+002, 2.637534e+002
8.547943e+002, 2.652831e+002
8.552764e+002, 2.662592e+002
8.557585e+002, 2.657391e+002
8.562406e+002, 2.646141e+002
8.567227e+002, 2.641806e+002
8.572048e+002, 2.643002e+002
8.576870e+002, 2.627359e+002
8.581691e+002, 2.587314e+002
8.586512e+002, 2.561400e+002
8.591333e+002, 2.563597e+002
8.596154e+002, 2.575612e+002
8.600975e+002, 2.582914e+002
8.605797e+002, 2.586421e+002
8.610618e+002, 2.591877e+002
8.615439e+002, 2.607156e+002
8.620260e+002, 2.611265e+002
8.625081e+002, 2.583154e+002
8.629902e+002, 2.562346e+002
8.634724e+002, 2.586483e+002
8.639545e+002, 2.628477e+002
8.644366e+002, 2.639578e+002
8.649187e+002, 2.608671e+002
8.654008e+002, 2.576003e+002
8.658829e+002, 2.571422e+002
8.663651e+002, 2.576385e+002
8.668472e+002, 2.570335e+002
8.673293e+002, 2.556404e+002
8.678114e+002, 2.539525e+002
8.682935e+002, 2.522490e+002
8.687756e+002, 2.516024e+002
8.692578e+002, 2.530085e+002
8.697399e+002, 2.554353e+002
8.702220e+002, 2.561085e+002
8.707041e+002, 2.549106e+002
8.711862e+002, 2.544967e+002
8.716683e+002, 2.553097e+002
8.721505e+002, 2.560767e+002
8.726326e+002, 2.560757e+002
8.731147e+002, 2.557463e+002
8.735968e+002, 2.559763e+002
8.740789e+002, 2.570985e+002
8.745610e+002, 2.569493e+002
8.750432e+002, 2.548224e+002
8.755253e+002, 2.524278e+002
8.760074e+002, 2.494008e+002
8.764895e+002, 2.468595e+002
8.769716e+002, 2.459174e+002
8.774537e+002, 2.463125e+002
8.779359e+002, 2.468600e+002
8.784180e+002, 2.472749e+002
8.789001e+002, 2.475039e+002
8.793822e+002, 2.477041e+002
8.798643e+002, 2.475678e+002
8.803464e+002, 2.463361e+002
8.808286e+002, 2.444933e+002
8.813107e+002, 2.433272e+002
8.817928e+002, 2.433028e+002
8.822749e+002, 2.439579e+002
8.827570e+002, 2.451595e+002
8.832391e+002, 2.464884e+002
8.837213e+002, 2.461543e+002
8.842034e+002, 2.443141e+002
8.846855e+002, 2.441257e+002
8.851676e+002, 2.466596e+002
8.856497e+002, 2.482917e+002
8.861318e+002, 2.457961e+002
8.866140e+002, 2.406729e+002
8.870961e+002, 2.381206e+002
8.875782e+002, 2.393308e+002
8.880603e+002, 2.400527e+002
8.885424e+002, 2.400371e+002
8.890245e+002, 2.398434e+002
8.895067e+002, 2.392007e+002
8.899888e+002, 2.387929e+002
8.904709e+002, 2.398587e+002
8.909530e+002, 2.424088e+002
8.914351e+002, 2.437136e+002
8.919172e+002, 2.424962e+002
8.923994e+002, 2.408293e+002
8.928815e+002, 2.391598e+002
8.933636e+002, 2.377325e+002
8.938457e+002, 2.366974e+002
8.943278e+002, 2.361106e+002
8.948099e+002, 2.361844e+002
8.952921e+002, 2.371015e+002
8.957742e+002, 2.379105e+002
8.962563e+002, 2.374542e+002
8.967384e+002, 2.364263e+002
8.972205e+002, 2.359823e+002
8.977026e+002, 2.360833e+002
8.981848e+002, 2.364845e+002
8.986669e+002, 2.370762e+002
8.991490e+002, 2.373073e+002
8.996311e+002, 2.365023e+002
9.001132e+002, 2.350929e+002
9.005953e+002, 2.348554e+002
9.010775e+002, 2.359164e+002
9.015596e+002, 2.367443e+002
9.020417e+002, 2.372000e+002
9.025238e+002, 2.371510e+002
9.030059e+002, 2.363994e+002
9.034880e+002, 2.352043e+002
9.039702e+002, 2.340168e+002
9.044523e+002, 2.326858e+002
9.049344e+002, 2.319831e+002
9.054165e+002, 2.323844e+002
9.058986e+002, 2.327938e+002
9.063807e+002, 2.324816e+002
9.068629e+002, 2.324667e+002
9.073450e+002, 2.342218e+002
9.078271e+002, 2.371644e+002
9.083092e+002, 2.387942e+002
9.087913e+002, 2.381796e+002
9.092734e+002, 2.368119e+002
9.097556e+002, 2.346056e+002
9.102377e+002, 2.325845e+002
9.107198e+002, 2.316497e+002
9.112019e+002, 2.316180e+002
9.116840e+002, 2.321460e+002
9.121661e+002, 2.330662e+002
9.126483e+002, 2.339636e+002
9.131304e+002, 2.344473e+002
9.136125e+002, 2.347402e+002
9.140946e+002, 2.354209e+002
9.145767e+002, 2.362090e+002
9.150588e+002, 2.361373e+002
9.155410e+002, 2.350835e+002
9.160231e+002, 2.333811e+002
9.165052e+002, 2.310672e+002
9.169873e+002, 2.292093e+002
9.174694e+002, 2.305871e+002
9.179515e+002, 2.354185e+002
9.184337e+002, 2.370984e+002
9.189158e+002, 2.349592e+002
9.193979e+002, 2.324544e+002
9.198800e+002, 2.302826e+002
9.203621e+002, 2.292089e+002
9.208442e+002, 2.306657e+002
9.213264e+002, 2.342186e+002
9.218085e+002, 2.351689e+002
9.222906e+002, 2.307617e+002
9.227727e+002, 2.282670e+002
9.232548e+002, 2.295739e+002
9.237369e+002, 2.310578e+002
9.242191e+002, 2.309657e+002
9.247012e+002, 2.300088e+002
9.251833e+002, 2.292197e+002
9.256654e+002, 2.287113e+002
9.261475e+002, 2.285210e+002
9.266296e+002, 2.293972e+002
9.271118e+002, 2.297270e+002
9.275939e+002, 2.279184e+002
9.280760e+002, 2.256826e+002
9.285581e+002, 2.249769e+002
9.290402e+002, 2.256560e+002
9.295223e+002, 2.264198e+002
9.300045e+002, 2.266894e+002
9.304866e+002, 2.269667e+002
9.309687e+002, 2.278549e+002
9.314508e+002, 2.289573e+002
9.319329e+002, 2.294620e+002
9.324150e+002, 2.296278e+002
9.328972e+002, 2.306912e+002
9.333793e+002, 2.328250e+002
9.338614e+002, 2.342246e+002
9.343435e+002, 2.331497e+002
9.348256e+002, 2.306282e+002
9.353077e+002, 2.287693e+002
9.357899e+002, 2.276414e+002
9.362720e+002, 2.289440e+002
9.367541e+002, 2.331764e+002
9.372362e+002, 2.358956e+002
9.377183e+002, 2.347283e+002
9.382004e+002, 2.314697e+002
9.386826e+002, 2.286193e+002
9.391647e+002, 2.261664e+002
9.396468e+002, 2.245321e+002
9.401289e+002, 2.239744e+002
9.406110e+002, 2.236109e+002
9.410931e+002, 2.232489e+002
9.415753e+002, 2.230884e+002
9.420574e+002, 2.233369e+002
9.425395e+002, 2.238847e+002
9.430216e+002, 2.245155e+002
9.435037e+002, 2.255058e+002
9.439858e+002, 2.257279e+002
9.444680e+002, 2.245665e+002
9.449501e+002, 2.232675e+002
9.454322e+002, 2.219421e+002
9.459143e+002, 2.209555e+002
9.463964e+002, 2.209366e+002
9.468785e+002, 2.216478e+002
9.473607e+002, 2.218047e+002
9.478428e+002, 2.202941e+002
9.483249e+002, 2.196536e+002
9.488070e+002, 2.228968e+002
9.492891e+002, 2.262195e+002
9.497712e+002, 2.253509e+002
9.502534e+002, 2.219314e+002
9.507355e+002, 2.193949e+002
9.512176e+002, 2.187437e+002
9.516997e+002, 2.193440e+002
9.521818e+002, 2.213948e+002
9.526639e+002, 2.235702e+002
9.531461e+002, 2.236189e+002
9.536282e+002, 2.224909e+002
9.541103e+002, 2.228040e+002
9.545924e+002, 2.244784e+002
9.550745e+002, 2.248805e+002
9.555566e+002, 2.226775e+002
9.560388e+002, 2.199615e+002
9.565209e+002, 2.196548e+002
9.570030e+002, 2.213014e+002
9.574851e+002, 2.230236e+002
9.579672e+002, 2.248162e+002
9.584493e+002, 2.242014e+002
9.589315e+002, 2.201686e+002
9.594136e+002, 2.175514e+002
9.598957e+002, 2.204273e+002
9.603778e+002, 2.261647e+002
9.608599e+002, 2.277260e+002
9.613420e+002, 2.240285e+002
9.618242e+002, 2.216516e+002
9.623063e+002, 2.208750e+002
9.627884e+002, 2.208104e+002
9.632705e+002, 2.215983e+002
9.637526e+002, 2.224303e+002
9.642347e+002, 2.223682e+002
9.647169e+002, 2.215764e+002
9.651990e+002, 2.212675e+002
9.656811e+002, 2.218986e+002
9.661632e+002, 2.223166e+002
9.666453e+002, 2.221782e+002
9.671274e+002, 2.222189e+002
9.676096e+002, 2.235385e+002
9.680917e+002, 2.247485e+002
9.685738e+002, 2.236547e+002
9.690559e+002, 2.202842e+002
9.695380e+002, 2.178295e+002
9.700201e+002, 2.172882e+002
9.705023e+002, 2.174521e+002
9.709844e+002, 2.188331e+002
9.714665e+002, 2.198969e+002
9.719486e+002, 2.190143e+002
9.724307e+002, 2.169701e+002
9.729128e+002, 2.152053e+002
9.733950e+002, 2.141310e+002
9.738771e+002, 2.142328e+002
9.743592e+002, 2.172522e+002
9.748413e+002, 2.201076e+002
9.753234e+002, 2.195438e+002
9.758055e+002, 2.173815e+002
9.762877e+002, 2.162052e+002
9.767698e+002, 2.161884e+002
9.772519e+002, 2.165335e+002
9.777340e+002, 2.168967e+002
9.782161e+002, 2.167319e+002
9.786982e+002, 2.142465e+002
9.791804e+002, 2.114594e+002
9.796625e+002, 2.132133e+002
9.801446e+002, 2.181060e+002
9.806267e+002, 2.210209e+002
9.811088e+002, 2.210194e+002
9.815909e+002, 2.209000e+002
9.820731e+002, 2.226847e+002
9.825552e+002, 2.248066e+002
9.830373e+002, 2.239698e+002
9.835194e+002, 2.206964e+002
9.840015e+002, 2.190254e+002
9.844836e+002, 2.190646e+002
9.849658e+002, 2.183653e+002
9.854479e+002, 2.160450e+002
9.859300e+002, 2.138277e+002
9.864121e+002, 2.133286e+002
9.868942e+002, 2.141516e+002
9.873763e+002, 2.150958e+002
9.878585e+002, 2.163599e+002
9.883406e+002, 2.162515e+002
9.888227e+002, 2.142298e+002
9.893048e+002, 2.122788e+002
9.897869e+002, 2.108093e+002
9.902690e+002, 2.106330e+002
9.907512e+002, 2.135145e+002
9.912333e+002, 2.189287e+002
9.917154e+002, 2.198884e+002
9.921975e+002, 2.126946e+002
9.926796e+002, 2.089473e+002
9.931617e+002, 2.113164e+002
9.936439e+002, 2.146123e+002
9.941260e+002, 2.172616e+002
9.946081e+002, 2.189404e+002
9.950902e+002, 2.186512e+002
9.955723e+002, 2.162738e+002
9.960544e+002, 2.155548e+002
9.965366e+002, 2.188007e+002
9.970187e+002, 2.206035e+002
9.975008e+002, 2.185114e+002
9.979829e+002, 2.163555e+002
9.984650e+002, 2.170654e+002
9.989471e+002, 2.190693e+002
9.994293e+002, 2.193300e+002
9.999114e+002, 2.173475e+002
1.000393e+003, 2.160410e+002
1.000876e+003, 2.168521e+002
1.001358e+003, 2.176810e+002
1.001840e+003, 2.176493e+002
1.002322e+003, 2.172627e+002
1.002804e+003, 2.167413e+002
1.003286e+003, 2.163111e+002
1.003768e+003, 2.165089e+002
1.004250e+003, 2.175388e+002
1.004733e+003, 2.180982e+002
1.005215e+003, 2.165482e+002
1.005697e+003, 2.152810e+002
1.006179e+003, 2.168954e+002
1.006661e+003, 2.193523e+002
1.007143e+003, 2.198317e+002
1.007625e+003, 2.185429e+002
1.008107e+003, 2.172713e+002
1.008589e+003, 2.167234e+002
1.009072e+003, 2.168245e+002
1.009554e+003, 2.185391e+002
1.010036e+003, 2.200215e+002
1.010518e+003, 2.180528e+002
1.011000e+003, 2.145069e+002
1.011482e+003, 2.131584e+002
1.011964e+003, 2.144053e+002
1.012446e+003, 2.166907e+002
1.012929e+003, 2.193247e+002
1.013411e+003, 2.212563e+002
1.013893e+003, 2.206752e+002
1.014375e+003, 2.187687e+002
1.014857e+003, 2.177494e+002
1.015339e+003, 2.175892e+002
1.015821e+003, 2.181802e+002
1.016303e+003, 2.193394e+002
1.016785e+003, 2.199796e+002
1.017268e+003, 2.193000e+002
1.017750e+003, 2.180901e+002
1.018232e+003, 2.177231e+002
1.018714e+003, 2.179387e+002
1.019196e+003, 2.174913e+002
1.019678e+003, 2.164647e+002
1.020160e+003, 2.160568e+002
1.020642e+003, 2.165890e+002
1.021125e+003, 2.170126e+002
1.021607e+003, 2.164482e+002
1.022089e+003, 2.153535e+002
1.022571e+003, 2.147045e+002
1.023053e+003, 2.144909e+002
1.023535e+003, 2.146340e+002
1.024017e+003, 2.151377e+002
1.024499e+003, 2.160090e+002
1.024981e+003, 2.173836e+002
1.025464e+003, 2.180131e+002
1.025946e+003, 2.164603e+002
1.026428e+003, 2.138388e+002
1.026910e+003, 2.142218e+002
1.027392e+003, 2.182153e+002
1.027874e+003, 2.188246e+002
1.028356e+003, 2.148183e+002
1.028838e+003, 2.125689e+002
1.029321e+003, 2.149276e+002
1.029803e+003, 2.177704e+002
1.030285e+003, 2.166855e+002
1.030767e+003, 2.129457e+002
1.031249e+003, 2.125876e+002
1.031731e+003, 2.170231e+002
1.032213e+003, 2.194849e+002
1.032695e+003, 2.197656e+002
1.033177e+003, 2.177402e+002
1.033660e+003, 2.114285e+002
1.034142e+003, 2.060584e+002
1.034624e+003, 2.078948e+002
1.035106e+003, 2.154966e+002
1.035588e+003, 2.198314e+002
1.036070e+003, 2.199878e+002
1.036552e+003, 2.189690e+002
1.037034e+003, 2.159931e+002
1.037516e+003, 2.132572e+002
1.037999e+003, 2.112887e+002
1.038481e+003, 2.102692e+002
1.038963e+003, 2.108664e+002
1.039445e+003, 2.127582e+002
1.039927e+003, 2.134100e+002
1.040409e+003, 2.113549e+002
1.040891e+003, 2.106688e+002
1.041373e+003, 2.128376e+002
1.041855e+003, 2.145006e+002
1.042338e+003, 2.136558e+002
1.042820e+003, 2.122776e+002
1.043302e+003, 2.128204e+002
1.043784e+003, 2.148916e+002
1.044266e+003, 2.154200e+002
1.044748e+003, 2.134564e+002
1.045230e+003, 2.113999e+002
1.045712e+003, 2.081742e+002
1.046195e+003, 2.063221e+002
1.046677e+003, 2.076652e+002
1.047159e+003, 2.102995e+002
1.047641e+003, 2.128315e+002
1.048123e+003, 2.149240e+002
1.048605e+003, 2.150635e+002
1.049087e+003, 2.115544e+002
1.049569e+003, 2.088853e+002
1.050052e+003, 2.073573e+002
1.050534e+003, 2.071950e+002
1.051016e+003, 2.104141e+002
1.051498e+003, 2.137175e+002
1.051980e+003, 2.123217e+002
1.052462e+003, 2.071706e+002
1.052944e+003, 2.051916e+002
1.053426e+003, 2.096900e+002
1.053908e+003, 2.131508e+002
1.054391e+003, 2.134858e+002
1.054873e+003, 2.128526e+002
1.055355e+003, 2.119750e+002
1.055837e+003, 2.109758e+002
1.056319e+003, 2.094639e+002
1.056801e+003, 2.077948e+002
1.057283e+003, 2.077305e+002
1.057765e+003, 2.108127e+002
1.058248e+003, 2.128242e+002
1.058730e+003, 2.116664e+002
1.059212e+003, 2.101149e+002
1.059694e+003, 2.098227e+002
1.060176e+003, 2.099057e+002
1.060658e+003, 2.092133e+002
1.061140e+003, 2.078183e+002
1.061622e+003, 2.065422e+002
1.062104e+003, 2.056147e+002
1.062587e+003, 2.048046e+002
1.063069e+003, 2.034920e+002
1.063551e+003, 2.028895e+002
1.064033e+003, 2.043291e+002
1.064515e+003, 2.064289e+002
1.064997e+003, 2.075523e+002
1.065479e+003, 2.078005e+002
1.065961e+003, 2.083891e+002
1.066443e+003, 2.100005e+002
1.066926e+003, 2.107365e+002
1.067408e+003, 2.095767e+002
1.067890e+003, 2.076008e+002
1.068372e+003, 2.037515e+002
1.068854e+003, 2.006602e+002
1.069336e+003, 2.026403e+002
1.069818e+003, 2.080231e+002
1.070300e+003, 2.102692e+002
1.070782e+003, 2.067018e+002
1.071265e+003, 2.039704e+002
1.071747e+003, 2.062030e+002
1.072229e+003, 2.087513e+002
1.072711e+003, 2.090303e+002
1.073193e+003, 2.079841e+002
1.073675e+003, 2.059907e+002
1.074157e+003, 2.037946e+002
1.074639e+003, 2.030711e+002
1.075122e+003, 2.044765e+002
1.075604e+003, 2.058643e+002
1.076086e+003, 2.066990e+002
1.076568e+003, 2.067073e+002
1.077050e+003, 2.047613e+002
1.077532e+003, 2.026802e+002
1.078014e+003, 2.024612e+002
1.078496e+003, 2.036977e+002
1.078979e+003, 2.050895e+002
1.079461e+003, 2.063387e+002
1.079943e+003, 2.070240e+002
1.080425e+003, 2.062625e+002
1.080907e+003, 2.057215e+002
1.081389e+003, 2.059937e+002
1.081871e+003, 2.071959e+002
1.082353e+003, 2.107226e+002
1.082835e+003, 2.148563e+002
1.083318e+003, 2.156670e+002
1.083800e+003, 2.123250e+002
1.084282e+003, 2.094483e+002
1.084764e+003, 2.095768e+002
1.085246e+003, 2.099425e+002
1.085728e+003, 2.092378e+002
1.086210e+003, 2.081108e+002
1.086692e+003, 2.065353e+002
1.087175e+003, 2.052134e+002
1.087657e+003, 2.054959e+002
1.088139e+003, 2.075087e+002
1.088621e+003, 2.094461e+002
1.089103e+003, 2.109583e+002
1.089585e+003, 2.117365e+002
1.090067e+003, 2.117163e+002
1.090549e+003, 2.108385e+002
1.091031e+003, 2.082657e+002
1.091514e+003, 2.052249e+002
1.091996e+003, 2.030929e+002
1.092478e+003, 2.022448e+002
1.092960e+003, 2.035126e+002
1.093442e+003, 2.091361e+002
1.093924e+003, 2.132332e+002
1.094406e+003, 2.130212e+002
1.094888e+003, 2.112493e+002
1.095370e+003, 2.083382e+002
1.095853e+003, 2.058352e+002
1.096335e+003, 2.059348e+002
1.096817e+003, 2.082944e+002
1.097299e+003, 2.103318e+002
1.097781e+003, 2.117492e+002
1.098263e+003, 2.118234e+002
1.098745e+003, 2.092291e+002
1.099227e+003, 2.065324e+002
1.099709e+003, 2.048783e+002
1.100192e+003, 2.039613e+002
1.100674e+003, 2.035417e+002
1.101156e+003, 2.035039e+002
1.101638e+003, 2.037197e+002
1.102120e+003, 2.043802e+002
1.102602e+003, 2.044548e+002
1.103084e+003, 2.027268e+002
1.103566e+003, 2.016025e+002
1.104049e+003, 2.026088e+002
1.104531e+003, 2.040891e+002
1.105013e+003, 2.049362e+002
1.105495e+003, 2.050456e+002
1.105977e+003, 2.042713e+002
1.106459e+003, 2.024218e+002
1.106941e+003, 2.008801e+002
1.107423e+003, 1.990150e+002
1.107906e+003, 1.986812e+002
1.108388e+003, 2.016071e+002
1.108870e+003, 2.049536e+002
1.109352e+003, 2.075118e+002
1.109834e+003, 2.089398e+002
1.110316e+003, 2.083586e+002
1.110798e+003, 2.056069e+002
1.111280e+003, 2.037595e+002
1.111762e+003, 2.042198e+002
1.112245e+003, 2.038371e+002
1.112727e+003, 2.012118e+002
1.113209e+003, 1.988253e+002
1.113691e+003, 1.977767e+002
1.114173e+003, 1.977042e+002
1.114655e+003, 1.984696e+002
1.115137e+003, 1.999642e+002
1.115619e+003, 2.007760e+002
1.116102e+003, 2.001145e+002
1.116584e+003, 2.002031e+002
1.117066e+003, 2.023634e+002
1.117548e+003, 2.033139e+002
1.118030e+003, 2.010487e+002
1.118512e+003, 1.980433e+002
1.118994e+003, 1.966023e+002
1.119476e+003, 1.963816e+002
1.119958e+003, 1.959424e+002
1.120441e+003, 1.948892e+002
1.120923e+003, 1.950198e+002
1.121405e+003, 1.974090e+002
1.121887e+003, 1.985005e+002
1.122369e+003, 1.966153e+002
1.122851e+003, 1.947022e+002
1.123333e+003, 1.953565e+002
1.123815e+003, 1.970165e+002
1.124297e+003, 1.958188e+002
1.124780e+003, 1.912866e+002
1.125262e+003, 1.903950e+002
1.125744e+003, 1.943898e+002
1.126226e+003, 1.975986e+002
1.126708e+003, 1.993590e+002
1.127190e+003, 1.988709e+002
1.127672e+003, 1.948000e+002
1.128154e+003, 1.905608e+002
1.128636e+003, 1.915723e+002
1.129119e+003, 1.969869e+002
1.129601e+003, 1.996120e+002
1.130083e+003, 1.992574e+002
1.130565e+003, 1.982214e+002
1.131047e+003, 1.966639e+002
1.131529e+003, 1.948654e+002
1.132011e+003, 1.928097e+002
1.132493e+003, 1.917013e+002
1.132976e+003, 1.931624e+002
1.133458e+003, 1.956589e+002
1.133940e+003, 1.938556e+002
1.134422e+003, 1.883223e+002
1.134904e+003, 1.869211e+002
1.135386e+003, 1.897710e+002
1.135868e+003, 1.916913e+002
1.136350e+003, 1.913009e+002
1.136833e+003, 1.912365e+002
1.137315e+003, 1.935082e+002
1.137797e+003, 1.962319e+002
1.138279e+003, 1.959157e+002
1.138761e+003, 1.934864e+002
1.139243e+003, 1.919774e+002
1.139725e+003, 1.912908e+002
1.140207e+003, 1.910437e+002
1.140689e+003, 1.910804e+002
1.141172e+003, 1.908285e+002
1.141654e+003, 1.900284e+002
1.142136e+003, 1.897287e+002
1.142618e+003, 1.917699e+002
1.143100e+003, 1.942088e+002
1.143582e+003, 1.927960e+002
1.144064e+003, 1.896926e+002
1.144546e+003, 1.900763e+002
1.145029e+003, 1.930287e+002
1.145511e+003, 1.938291e+002
1.145993e+003, 1.913990e+002
1.146475e+003, 1.893190e+002
1.146957e+003, 1.901870e+002
1.147439e+003, 1.919382e+002
1.147921e+003, 1.930901e+002
1.148403e+003, 1.935161e+002
1.148885e+003, 1.924995e+002
1.149368e+003, 1.909069e+002
1.149850e+003, 1.903151e+002
1.150332e+003, 1.907317e+002
1.150814e+003, 1.910280e+002
1.151296e+003, 1.907616e+002
1.151778e+003, 1.902218e+002
1.152260e+003, 1.889613e+002
1.152742e+003, 1.882099e+002
1.153224e+003, 1.892599e+002
1.153707e+003, 1.908802e+002
1.154189e+003, 1.924822e+002
1.154671e+003, 1.933342e+002
1.155153e+003, 1.915396e+002
1.155635e+003, 1.866714e+002
1.156117e+003, 1.836090e+002
1.156599e+003, 1.850601e+002
1.157081e+003, 1.868659e+002
1.157563e+003, 1.882347e+002
1.158046e+003, 1.890263e+002
1.158528e+003, 1.888132e+002
1.159010e+003, 1.881888e+002
1.159492e+003, 1.882093e+002
1.159974e+003, 1.887089e+002
1.160456e+003, 1.878822e+002
1.160938e+003, 1.840822e+002
1.161420e+003, 1.818722e+002
1.161903e+003, 1.818296e+002
1.162385e+003, 1.828437e+002
1.162867e+003, 1.854588e+002
1.163349e+003, 1.880986e+002
1.163831e+003, 1.900139e+002
1.164313e+003, 1.907628e+002
1.164795e+003, 1.887438e+002
1.165277e+003, 1.831965e+002
1.165760e+003, 1.815639e+002
1.166242e+003, 1.854319e+002
1.166724e+003, 1.881140e+002
1.167206e+003, 1.883571e+002
1.167688e+003, 1.879929e+002
1.168170e+003, 1.877944e+002
1.168652e+003, 1.879702e+002
1.169134e+003, 1.890828e+002
1.169616e+003, 1.905436e+002
1.170099e+003, 1.887786e+002
1.170581e+003, 1.837122e+002
1.171063e+003, 1.823233e+002
1.171545e+003, 1.850599e+002
1.172027e+003, 1.876710e+002
1.172509e+003, 1.888810e+002
1.172991e+003, 1.894113e+002
1.173473e+003, 1.898375e+002
1.173956e+003, 1.897895e+002
1.174438e+003, 1.879373e+002
1.174920e+003, 1.852664e+002
1.175402e+003, 1.855041e+002
1.175884e+003, 1.877911e+002
1.176366e+003, 1.888820e+002
1.176848e+003, 1.885134e+002
1.177330e+003, 1.884903e+002
1.177813e+003, 1.895307e+002
1.178295e+003, 1.897859e+002
1.178777e+003, 1.864659e+002
1.179259e+003, 1.832040e+002
1.179741e+003, 1.860593e+002
1.180223e+003, 1.907658e+002
1.180705e+003, 1.910782e+002
1.181187e+003, 1.882315e+002
1.181669e+003, 1.849729e+002
1.182151e+003, 1.824283e+002
1.182634e+003, 1.824129e+002
1.183116e+003, 1.866232e+002
1.183598e+003, 1.901551e+002
1.184080e+003, 1.892760e+002
1.184562e+003, 1.877422e+002
1.185044e+003, 1.878517e+002
1.185526e+003, 1.887661e+002
1.186008e+003, 1.900535e+002
1.186490e+003, 1.911855e+002
1.186973e+003, 1.909182e+002
1.187455e+003, 1.889236e+002
1.187937e+003, 1.879371e+002
1.188419e+003, 1.890892e+002
1.188901e+003, 1.904001e+002
1.189383e+003, 1.922073e+002
1.189865e+003, 1.932495e+002
1.190347e+003, 1.929179e+002
1.190830e+003, 1.914451e+002
1.191312e+003, 1.884427e+002
1.191794e+003, 1.844656e+002
1.192276e+003, 1.821984e+002
1.192758e+003, 1.816621e+002
1.193240e+003, 1.830814e+002
1.193722e+003, 1.878180e+002
1.194204e+003, 1.902243e+002
1.194687e+003, 1.883947e+002
1.195169e+003, 1.859792e+002
1.195651e+003, 1.853009e+002
1.196133e+003, 1.852291e+002
1.196615e+003, 1.836621e+002
1.197097e+003, 1.811840e+002
1.197579e+003, 1.818126e+002
1.198061e+003, 1.853494e+002
1.198543e+003, 1.881933e+002
1.199026e+003, 1.899239e+002
1.199508e+003, 1.891428e+002
1.199990e+003, 1.855489e+002
1.200472e+003, 1.827750e+002
1.200954e+003, 1.839121e+002
1.201436e+003, 1.864809e+002
1.201918e+003, 1.867207e+002
1.202400e+003, 1.856930e+002
1.202883e+003, 1.857876e+002
1.203365e+003, 1.862821e+002
1.203847e+003, 1.848869e+002
1.204329e+003, 1.820323e+002
1.204811e+003, 1.803925e+002
1.205293e+003, 1.809273e+002
1.205775e+003, 1.818889e+002
1.206257e+003, 1.821940e+002
1.206740e+003, 1.823460e+002
1.207222e+003, 1.832329e+002
1.207704e+003, 1.836247e+002
1.208186e+003, 1.814077e+002
1.208668e+003, 1.785441e+002
1.209150e+003, 1.781513e+002
1.209632e+003, 1.800915e+002
1.210114e+003, 1.818965e+002
1.210596e+003, 1.831049e+002
1.211078e+003, 1.838771e+002
1.211561e+003, 1.847236e+002
1.212043e+003, 1.844869e+002
1.212525e+003, 1.816430e+002
1.213007e+003, 1.788615e+002
1.213489e+003, 1.776161e+002
1.213971e+003, 1.776607e+002
1.214453e+003, 1.791229e+002
1.214935e+003, 1.818126e+002
1.215417e+003, 1.820098e+002
1.215900e+003, 1.786884e+002
1.216382e+003, 1.767584e+002
1.216864e+003, 1.766013e+002
1.217346e+003, 1.774672e+002
1.217828e+003, 1.793171e+002
1.218310e+003, 1.811783e+002
1.218792e+003, 1.824019e+002
1.219274e+003, 1.828713e+002
1.219757e+003, 1.821672e+002
1.220239e+003, 1.805739e+002
1.220721e+003, 1.792743e+002
1.221203e+003, 1.783210e+002
1.221685e+003, 1.781615e+002
1.222167e+003, 1.786842e+002
1.222649e+003, 1.790787e+002
1.223131e+003, 1.790498e+002
1.223614e+003, 1.786424e+002
1.224096e+003, 1.775522e+002
1.224578e+003, 1.771451e+002
1.225060e+003, 1.797539e+002
1.225542e+003, 1.831493e+002
1.226024e+003, 1.853496e+002
1.226506e+003, 1.860367e+002
1.226988e+003, 1.843224e+002
1.227470e+003, 1.809574e+002
1.227953e+003, 1.778871e+002
1.228435e+003, 1.756428e+002
1.228917e+003, 1.743021e+002
1.229399e+003, 1.739027e+002
1.229881e+003, 1.744151e+002
1.230363e+003, 1.773477e+002
1.230845e+003, 1.794572e+002
1.231327e+003, 1.778003e+002
1.231810e+003, 1.750633e+002
1.232292e+003, 1.745790e+002
1.232774e+003, 1.758165e+002
1.233256e+003, 1.766032e+002
1.233738e+003, 1.769328e+002
1.234220e+003, 1.768128e+002
1.234702e+003, 1.761621e+002
1.235184e+003, 1.752228e+002
1.235667e+003, 1.738194e+002
1.236149e+003, 1.732143e+002
1.236631e+003, 1.743564e+002
1.237113e+003, 1.750976e+002
1.237595e+003, 1.724197e+002
1.238077e+003, 1.681345e+002
1.238559e+003, 1.680094e+002
1.239041e+003, 1.712115e+002
1.239523e+003, 1.740693e+002
1.240005e+003, 1.761460e+002
1.240488e+003, 1.758528e+002
1.240970e+003, 1.733481e+002
1.241452e+003, 1.714012e+002
1.241934e+003, 1.713707e+002
1.242416e+003, 1.719855e+002
1.242898e+003, 1.719756e+002
1.243380e+003, 1.721511e+002
1.243862e+003, 1.736775e+002
1.244344e+003, 1.755328e+002
1.244827e+003, 1.769093e+002
1.245309e+003, 1.775792e+002
1.245791e+003, 1.770729e+002
1.246273e+003, 1.756108e+002
1.246755e+003, 1.743226e+002
1.247237e+003, 1.733132e+002
1.247719e+003, 1.731188e+002
1.248201e+003, 1.746714e+002
1.248684e+003, 1.759092e+002
1.249166e+003, 1.765880e+002
1.249648e+003, 1.763053e+002
1.250130e+003, 1.739695e+002
1.250612e+003, 1.714787e+002
1.251094e+003, 1.718932e+002
1.251576e+003, 1.744113e+002
1.252058e+003, 1.732259e+002
1.252541e+003, 1.672943e+002
1.253023e+003, 1.657496e+002
1.253505e+003, 1.692388e+002
1.253987e+003, 1.723974e+002
1.254469e+003, 1.740049e+002
1.254951e+003, 1.737648e+002
1.255433e+003, 1.714017e+002
1.255915e+003, 1.690057e+002
1.256397e+003, 1.694699e+002
1.256880e+003, 1.711238e+002
1.257362e+003, 1.700428e+002
1.257844e+003, 1.680664e+002
1.258326e+003, 1.696166e+002
1.258808e+003, 1.731935e+002
1.259290e+003, 1.745451e+002
1.259772e+003, 1.732813e+002
1.260254e+003, 1.718766e+002
1.260737e+003, 1.713000e+002
1.261219e+003, 1.709089e+002
1.261701e+003, 1.696980e+002
1.262183e+003, 1.694854e+002
1.262665e+003, 1.726414e+002
1.263147e+003, 1.755409e+002
1.263629e+003, 1.746329e+002
1.264111e+003, 1.724199e+002
1.264594e+003, 1.728016e+002
1.265076e+003, 1.753424e+002
1.265558e+003, 1.768691e+002
1.266040e+003, 1.771912e+002
1.266522e+003, 1.772163e+002
1.267004e+003, 1.770870e+002
1.267486e+003, 1.760367e+002
1.267968e+003, 1.737146e+002
1.268450e+003, 1.713139e+002
1.268932e+003, 1.693295e+002
1.269415e+003, 1.683566e+002
1.269897e+003, 1.693245e+002
1.270379e+003, 1.711759e+002
1.270861e+003, 1.711083e+002
1.271343e+003, 1.698853e+002
1.271825e+003, 1.702383e+002
1.272307e+003, 1.714375e+002
1.272789e+003, 1.701542e+002
1.273271e+003, 1.669555e+002
1.273754e+003, 1.666798e+002
1.274236e+003, 1.710390e+002
1.274718e+003, 1.752457e+002
1.275200e+003, 1.762129e+002
1.275682e+003, 1.760781e+002
1.276164e+003, 1.761037e+002
1.276646e+003, 1.754753e+002
1.277128e+003, 1.724915e+002
1.277611e+003, 1.694029e+002
1.278093e+003, 1.692936e+002
1.278575e+003, 1.712589e+002
1.279057e+003, 1.717529e+002
1.279539e+003, 1.703324e+002
1.280021e+003, 1.703392e+002
1.280503e+003, 1.724054e+002
1.280985e+003, 1.739608e+002
1.281468e+003, 1.746356e+002
1.281950e+003, 1.755242e+002
1.282432e+003, 1.771412e+002
1.282914e+003, 1.784005e+002
1.283396e+003, 1.783825e+002
1.283878e+003, 1.775449e+002
1.284360e+003, 1.761675e+002
1.284842e+003, 1.747840e+002
1.285324e+003, 1.749230e+002
##END=



