##NAMES=Valentinite
##RRUFFID=R060516
##IDEAL CHEMISTRY=Sb^3+^_2_O_3_
##LOCALITY=Sombrerete, Zacatecas, Mexico
##OWNER=RRUFF
##SOURCE=Michael Scott
##DESCRIPTION=Colorless prismatic single crystals, adamantine luster, associated with pyrite and black metallic, elongated jamesonite.
##STATUS=The identification of this mineral is confirmed by single-crystal X-ray diffraction and chemical analysis.
##URL=rruff.info/R060516
##MEASURED CHEMISTRY=Sb_2.00_O_3_
8.930109e+001, 0.000000e+000
8.978320e+001, 1.231891e+004
9.026532e+001, 1.218314e+004
9.074744e+001, 1.217321e+004
9.122955e+001, 1.233130e+004
9.171167e+001, 1.256950e+004
9.219379e+001, 1.279404e+004
9.267590e+001, 1.300974e+004
9.315802e+001, 1.319083e+004
9.364014e+001, 1.329342e+004
9.412225e+001, 1.334495e+004
9.460437e+001, 1.341609e+004
9.508649e+001, 1.353015e+004
9.556860e+001, 1.366642e+004
9.605072e+001, 1.378945e+004
9.653284e+001, 1.390795e+004
9.701495e+001, 1.403929e+004
9.749707e+001, 1.419517e+004
9.797919e+001, 1.437461e+004
9.846130e+001, 1.457708e+004
9.894342e+001, 1.480043e+004
9.942554e+001, 1.504541e+004
9.990765e+001, 1.532393e+004
1.003898e+002, 1.564402e+004
1.008719e+002, 1.598342e+004
1.013540e+002, 1.632145e+004
1.018361e+002, 1.667332e+004
1.023182e+002, 1.698313e+004
1.028004e+002, 1.723588e+004
1.032825e+002, 1.742951e+004
1.037646e+002, 1.757646e+004
1.042467e+002, 1.765110e+004
1.047288e+002, 1.769377e+004
1.052109e+002, 1.779553e+004
1.056931e+002, 1.795506e+004
1.061752e+002, 1.817081e+004
1.066573e+002, 1.845153e+004
1.071394e+002, 1.886784e+004
1.076215e+002, 1.923017e+004
1.081036e+002, 1.957841e+004
1.085858e+002, 1.989052e+004
1.090679e+002, 2.002378e+004
1.095500e+002, 1.990837e+004
1.100321e+002, 1.967740e+004
1.105142e+002, 1.940391e+004
1.109963e+002, 1.900796e+004
1.114785e+002, 1.866055e+004
1.119606e+002, 1.836711e+004
1.124427e+002, 1.812729e+004
1.129248e+002, 1.797557e+004
1.134069e+002, 1.793183e+004
1.138890e+002, 1.796607e+004
1.143712e+002, 1.805413e+004
1.148533e+002, 1.818777e+004
1.153354e+002, 1.837522e+004
1.158175e+002, 1.862325e+004
1.162996e+002, 1.893698e+004
1.167817e+002, 1.928445e+004
1.172639e+002, 1.962710e+004
1.177460e+002, 2.000558e+004
1.182281e+002, 2.047166e+004
1.187102e+002, 2.101321e+004
1.191923e+002, 2.166875e+004
1.196744e+002, 2.243607e+004
1.201566e+002, 2.329739e+004
1.206387e+002, 2.435540e+004
1.211208e+002, 2.562790e+004
1.216029e+002, 2.713396e+004
1.220850e+002, 2.890562e+004
1.225671e+002, 3.100736e+004
1.230493e+002, 3.336151e+004
1.235314e+002, 3.593468e+004
1.240135e+002, 3.879407e+004
1.244956e+002, 4.170264e+004
1.249777e+002, 4.444420e+004
1.254598e+002, 4.703448e+004
1.259420e+002, 4.948536e+004
1.264241e+002, 5.170171e+004
1.269062e+002, 5.379427e+004
1.273883e+002, 5.596363e+004
1.278704e+002, 5.825192e+004
1.283525e+002, 6.063253e+004
1.288347e+002, 6.309501e+004
1.293168e+002, 6.564581e+004
1.297989e+002, 6.819228e+004
1.302810e+002, 7.071186e+004
1.307631e+002, 7.318272e+004
1.312452e+002, 7.560602e+004
1.317274e+002, 7.793845e+004
1.322095e+002, 8.024188e+004
1.326916e+002, 8.260449e+004
1.331737e+002, 8.502040e+004
1.336558e+002, 8.768775e+004
1.341379e+002, 9.074190e+004
1.346201e+002, 9.418864e+004
1.351022e+002, 9.836096e+004
1.355843e+002, 1.031948e+005
1.360664e+002, 1.087710e+005
1.365485e+002, 1.155284e+005
1.370306e+002, 1.234965e+005
1.375128e+002, 1.327013e+005
1.379949e+002, 1.434501e+005
1.384770e+002, 1.558563e+005
1.389591e+002, 1.695192e+005
1.394412e+002, 1.847908e+005
1.399233e+002, 2.016787e+005
1.404055e+002, 2.187470e+005
1.408876e+002, 2.375332e+005
1.413697e+002, 2.549430e+005
1.418518e+002, 2.666005e+005
1.423339e+002, 2.732391e+005
1.428160e+002, 2.724531e+005
1.432982e+002, 2.621780e+005
1.437803e+002, 2.394930e+005
1.442624e+002, 2.167067e+005
1.447445e+002, 1.930630e+005
1.452266e+002, 1.695571e+005
1.457087e+002, 1.494901e+005
1.461909e+002, 1.332641e+005
1.466730e+002, 1.195211e+005
1.471551e+002, 1.076684e+005
1.476372e+002, 9.851095e+004
1.481193e+002, 9.008595e+004
1.486014e+002, 8.237758e+004
1.490836e+002, 7.540427e+004
1.495657e+002, 6.892485e+004
1.500478e+002, 6.298307e+004
1.505299e+002, 5.763939e+004
1.510120e+002, 5.289103e+004
1.514941e+002, 4.888296e+004
1.519763e+002, 4.534715e+004
1.524584e+002, 4.232878e+004
1.529405e+002, 3.979537e+004
1.534226e+002, 3.750281e+004
1.539047e+002, 3.547730e+004
1.543868e+002, 3.365941e+004
1.548690e+002, 3.201680e+004
1.553511e+002, 3.058802e+004
1.558332e+002, 2.928925e+004
1.563153e+002, 2.813464e+004
1.567974e+002, 2.711796e+004
1.572795e+002, 2.618931e+004
1.577617e+002, 2.535333e+004
1.582438e+002, 2.459397e+004
1.587259e+002, 2.389969e+004
1.592080e+002, 2.327556e+004
1.596901e+002, 2.270938e+004
1.601722e+002, 2.220334e+004
1.606544e+002, 2.175652e+004
1.611365e+002, 2.135144e+004
1.616186e+002, 2.098675e+004
1.621007e+002, 2.066133e+004
1.625828e+002, 2.036523e+004
1.630649e+002, 2.009671e+004
1.635471e+002, 1.985963e+004
1.640292e+002, 1.965570e+004
1.645113e+002, 1.948486e+004
1.649934e+002, 1.934567e+004
1.654755e+002, 1.923483e+004
1.659576e+002, 1.915536e+004
1.664398e+002, 1.911209e+004
1.669219e+002, 1.910779e+004
1.674040e+002, 1.913853e+004
1.678861e+002, 1.919741e+004
1.683682e+002, 1.928322e+004
1.688503e+002, 1.941330e+004
1.693325e+002, 1.959892e+004
1.698146e+002, 1.983730e+004
1.702967e+002, 2.012030e+004
1.707788e+002, 2.046379e+004
1.712609e+002, 2.084354e+004
1.717430e+002, 2.123307e+004
1.722252e+002, 2.163171e+004
1.727073e+002, 2.204928e+004
1.731894e+002, 2.249639e+004
1.736715e+002, 2.297262e+004
1.741536e+002, 2.345991e+004
1.746357e+002, 2.395146e+004
1.751179e+002, 2.445774e+004
1.756000e+002, 2.499360e+004
1.760821e+002, 2.555586e+004
1.765642e+002, 2.614307e+004
1.770463e+002, 2.674547e+004
1.775284e+002, 2.737112e+004
1.780106e+002, 2.803371e+004
1.784927e+002, 2.872897e+004
1.789748e+002, 2.947194e+004
1.794569e+002, 3.026784e+004
1.799390e+002, 3.112192e+004
1.804211e+002, 3.203960e+004
1.809033e+002, 3.304141e+004
1.813854e+002, 3.412962e+004
1.818675e+002, 3.528225e+004
1.823496e+002, 3.648429e+004
1.828317e+002, 3.774093e+004
1.833138e+002, 3.912975e+004
1.837960e+002, 4.064780e+004
1.842781e+002, 4.229343e+004
1.847602e+002, 4.405487e+004
1.852423e+002, 4.594036e+004
1.857244e+002, 4.787598e+004
1.862065e+002, 4.990395e+004
1.866887e+002, 5.197399e+004
1.871708e+002, 5.396371e+004
1.876529e+002, 5.589335e+004
1.881350e+002, 5.765815e+004
1.886171e+002, 5.910628e+004
1.890992e+002, 6.024570e+004
1.895814e+002, 6.093677e+004
1.900635e+002, 6.108980e+004
1.905456e+002, 6.071436e+004
1.910277e+002, 5.985346e+004
1.915098e+002, 5.845510e+004
1.919919e+002, 5.666329e+004
1.924741e+002, 5.469696e+004
1.929562e+002, 5.255309e+004
1.934383e+002, 5.047250e+004
1.939204e+002, 4.858848e+004
1.944025e+002, 4.690536e+004
1.948846e+002, 4.550116e+004
1.953668e+002, 4.439413e+004
1.958489e+002, 4.356084e+004
1.963310e+002, 4.294863e+004
1.968131e+002, 4.255680e+004
1.972952e+002, 4.239166e+004
1.977773e+002, 4.246529e+004
1.982595e+002, 4.277982e+004
1.987416e+002, 4.330248e+004
1.992237e+002, 4.404675e+004
1.997058e+002, 4.497650e+004
2.001879e+002, 4.599096e+004
2.006700e+002, 4.710189e+004
2.011522e+002, 4.829078e+004
2.016343e+002, 4.956113e+004
2.021164e+002, 5.091905e+004
2.025985e+002, 5.229886e+004
2.030806e+002, 5.366213e+004
2.035627e+002, 5.504559e+004
2.040449e+002, 5.654456e+004
2.045270e+002, 5.816004e+004
2.050091e+002, 5.988689e+004
2.054912e+002, 6.170876e+004
2.059733e+002, 6.361339e+004
2.064554e+002, 6.568167e+004
2.069376e+002, 6.792373e+004
2.074197e+002, 7.032902e+004
2.079018e+002, 7.292027e+004
2.083839e+002, 7.566430e+004
2.088660e+002, 7.869398e+004
2.093481e+002, 8.203738e+004
2.098303e+002, 8.568249e+004
2.103124e+002, 8.976236e+004
2.107945e+002, 9.429288e+004
2.112766e+002, 9.925588e+004
2.117587e+002, 1.047653e+005
2.122408e+002, 1.108812e+005
2.127230e+002, 1.174560e+005
2.132051e+002, 1.245204e+005
2.136872e+002, 1.321936e+005
2.141693e+002, 1.400385e+005
2.146514e+002, 1.481606e+005
2.151335e+002, 1.564101e+005
2.156157e+002, 1.638840e+005
2.160978e+002, 1.710086e+005
2.165799e+002, 1.766748e+005
2.170620e+002, 1.803218e+005
2.175441e+002, 1.820539e+005
2.180262e+002, 1.813603e+005
2.185084e+002, 1.778814e+005
2.189905e+002, 1.718680e+005
2.194726e+002, 1.647541e+005
2.199547e+002, 1.560072e+005
2.204368e+002, 1.468853e+005
2.209189e+002, 1.381800e+005
2.214011e+002, 1.296643e+005
2.218832e+002, 1.219806e+005
2.223653e+002, 1.151394e+005
2.228474e+002, 1.091616e+005
2.233295e+002, 1.038408e+005
2.238116e+002, 9.934913e+004
2.242938e+002, 9.542120e+004
2.247759e+002, 9.194630e+004
2.252580e+002, 8.903420e+004
2.257401e+002, 8.638335e+004
2.262222e+002, 8.399634e+004
2.267043e+002, 8.185188e+004
2.271865e+002, 7.976139e+004
2.276686e+002, 7.778352e+004
2.281507e+002, 7.583264e+004
2.286328e+002, 7.388561e+004
2.291149e+002, 7.195127e+004
2.295970e+002, 7.000864e+004
2.300792e+002, 6.805716e+004
2.305613e+002, 6.609808e+004
2.310434e+002, 6.419667e+004
2.315255e+002, 6.236770e+004
2.320076e+002, 6.061123e+004
2.324897e+002, 5.894663e+004
2.329719e+002, 5.737202e+004
2.334540e+002, 5.590057e+004
2.339361e+002, 5.451598e+004
2.344182e+002, 5.322944e+004
2.349003e+002, 5.205951e+004
2.353824e+002, 5.101895e+004
2.358646e+002, 5.007613e+004
2.363467e+002, 4.921471e+004
2.368288e+002, 4.842698e+004
2.373109e+002, 4.773702e+004
2.377930e+002, 4.715504e+004
2.382751e+002, 4.666634e+004
2.387573e+002, 4.624292e+004
2.392394e+002, 4.587154e+004
2.397215e+002, 4.558250e+004
2.402036e+002, 4.539008e+004
2.406857e+002, 4.531542e+004
2.411678e+002, 4.528757e+004
2.416500e+002, 4.530097e+004
2.421321e+002, 4.536152e+004
2.426142e+002, 4.548670e+004
2.430963e+002, 4.567898e+004
2.435784e+002, 4.593289e+004
2.440605e+002, 4.625100e+004
2.445427e+002, 4.666320e+004
2.450248e+002, 4.706577e+004
2.455069e+002, 4.744370e+004
2.459890e+002, 4.782027e+004
2.464711e+002, 4.823801e+004
2.469532e+002, 4.870164e+004
2.474354e+002, 4.920613e+004
2.479175e+002, 4.974454e+004
2.483996e+002, 5.031847e+004
2.488817e+002, 5.093199e+004
2.493638e+002, 5.158441e+004
2.498459e+002, 5.227796e+004
2.503281e+002, 5.301214e+004
2.508102e+002, 5.377239e+004
2.512923e+002, 5.460311e+004
2.517744e+002, 5.552948e+004
2.522565e+002, 5.654740e+004
2.527386e+002, 5.763903e+004
2.532208e+002, 5.879343e+004
2.537029e+002, 6.002923e+004
2.541850e+002, 6.140289e+004
2.546671e+002, 6.294781e+004
2.551492e+002, 6.457266e+004
2.556313e+002, 6.624718e+004
2.561135e+002, 6.796627e+004
2.565956e+002, 6.973230e+004
2.570777e+002, 7.157266e+004
2.575598e+002, 7.340911e+004
2.580419e+002, 7.515064e+004
2.585240e+002, 7.681689e+004
2.590062e+002, 7.830211e+004
2.594883e+002, 7.959623e+004
2.599704e+002, 8.068126e+004
2.604525e+002, 8.150617e+004
2.609346e+002, 8.201385e+004
2.614167e+002, 8.232159e+004
2.618989e+002, 8.253599e+004
2.623810e+002, 8.261352e+004
2.628631e+002, 8.270848e+004
2.633452e+002, 8.283361e+004
2.638273e+002, 8.299309e+004
2.643094e+002, 8.328567e+004
2.647916e+002, 8.371474e+004
2.652737e+002, 8.428008e+004
2.657558e+002, 8.498738e+004
2.662379e+002, 8.582952e+004
2.667200e+002, 8.682949e+004
2.672021e+002, 8.801753e+004
2.676843e+002, 8.938011e+004
2.681664e+002, 9.082089e+004
2.686485e+002, 9.231914e+004
2.691306e+002, 9.393031e+004
2.696127e+002, 9.567681e+004
2.700948e+002, 9.754513e+004
2.705770e+002, 9.957642e+004
2.710591e+002, 1.017725e+005
2.715412e+002, 1.041142e+005
2.720233e+002, 1.065939e+005
2.725054e+002, 1.091786e+005
2.729875e+002, 1.118813e+005
2.734697e+002, 1.146786e+005
2.739518e+002, 1.175838e+005
2.744339e+002, 1.206651e+005
2.749160e+002, 1.239389e+005
2.753981e+002, 1.273756e+005
2.758802e+002, 1.309662e+005
2.763624e+002, 1.346528e+005
2.768445e+002, 1.385178e+005
2.773266e+002, 1.426090e+005
2.778087e+002, 1.469303e+005
2.782908e+002, 1.514238e+005
2.787729e+002, 1.560614e+005
2.792551e+002, 1.608939e+005
2.797372e+002, 1.659410e+005
2.802193e+002, 1.712369e+005
2.807014e+002, 1.766553e+005
2.811835e+002, 1.821665e+005
2.816656e+002, 1.877720e+005
2.821478e+002, 1.935528e+005
2.826299e+002, 1.995245e+005
2.831120e+002, 2.056488e+005
2.835941e+002, 2.118993e+005
2.840762e+002, 2.183092e+005
2.845583e+002, 2.246970e+005
2.850405e+002, 2.310265e+005
2.855226e+002, 2.373050e+005
2.860047e+002, 2.436021e+005
2.864868e+002, 2.499231e+005
2.869689e+002, 2.562466e+005
2.874510e+002, 2.625487e+005
2.879332e+002, 2.688284e+005
2.884153e+002, 2.751386e+005
2.888974e+002, 2.814114e+005
2.893795e+002, 2.876621e+005
2.898616e+002, 2.937758e+005
2.903438e+002, 2.997609e+005
2.908259e+002, 3.055414e+005
2.913080e+002, 3.111424e+005
2.917901e+002, 3.164796e+005
2.922722e+002, 3.213811e+005
2.927543e+002, 3.257633e+005
2.932365e+002, 3.296314e+005
2.937186e+002, 3.330078e+005
2.942007e+002, 3.358662e+005
2.946828e+002, 3.380720e+005
2.951649e+002, 3.395184e+005
2.956470e+002, 3.401995e+005
2.961292e+002, 3.401469e+005
2.966113e+002, 3.393857e+005
2.970934e+002, 3.378744e+005
2.975755e+002, 3.355261e+005
2.980576e+002, 3.323318e+005
2.985397e+002, 3.283712e+005
2.990219e+002, 3.235417e+005
2.995040e+002, 3.179497e+005
2.999861e+002, 3.118645e+005
3.004682e+002, 3.052871e+005
3.009503e+002, 2.983665e+005
3.014324e+002, 2.911360e+005
3.019146e+002, 2.836730e+005
3.023967e+002, 2.759781e+005
3.028788e+002, 2.680533e+005
3.033609e+002, 2.599504e+005
3.038430e+002, 2.518469e+005
3.043251e+002, 2.437402e+005
3.048073e+002, 2.357444e+005
3.052894e+002, 2.278059e+005
3.057715e+002, 2.200265e+005
3.062536e+002, 2.124287e+005
3.067357e+002, 2.051262e+005
3.072178e+002, 1.980215e+005
3.077000e+002, 1.911149e+005
3.081821e+002, 1.844027e+005
3.086642e+002, 1.778777e+005
3.091463e+002, 1.715160e+005
3.096284e+002, 1.653658e+005
3.101105e+002, 1.594101e+005
3.105927e+002, 1.536961e+005
3.110748e+002, 1.482295e+005
3.115569e+002, 1.429722e+005
3.120390e+002, 1.379268e+005
3.125211e+002, 1.330698e+005
3.130032e+002, 1.283498e+005
3.134854e+002, 1.237643e+005
3.139675e+002, 1.193741e+005
3.144496e+002, 1.152242e+005
3.149317e+002, 1.112647e+005
3.154138e+002, 1.074374e+005
3.158959e+002, 1.037604e+005
3.163781e+002, 1.002199e+005
3.168602e+002, 9.684763e+004
3.173423e+002, 9.362727e+004
3.178244e+002, 9.056023e+004
3.183065e+002, 8.767841e+004
3.187886e+002, 8.490886e+004
3.192708e+002, 8.224902e+004
3.197529e+002, 7.970138e+004
3.202350e+002, 7.726372e+004
3.207171e+002, 7.496786e+004
3.211992e+002, 7.278448e+004
3.216813e+002, 7.070642e+004
3.221635e+002, 6.873927e+004
3.226456e+002, 6.685977e+004
3.231277e+002, 6.507457e+004
3.236098e+002, 6.337184e+004
3.240919e+002, 6.172518e+004
3.245740e+002, 6.015983e+004
3.250562e+002, 5.864381e+004
3.255383e+002, 5.717295e+004
3.260204e+002, 5.575086e+004
3.265025e+002, 5.435942e+004
3.269846e+002, 5.298152e+004
3.274667e+002, 5.164489e+004
3.279489e+002, 5.036159e+004
3.284310e+002, 4.913589e+004
3.289131e+002, 4.795746e+004
3.293952e+002, 4.682274e+004
3.298773e+002, 4.573249e+004
3.303594e+002, 4.466204e+004
3.308416e+002, 4.360605e+004
3.313237e+002, 4.258629e+004
3.318058e+002, 4.162164e+004
3.322879e+002, 4.071393e+004
3.327700e+002, 3.985284e+004
3.332521e+002, 3.902994e+004
3.337343e+002, 3.824405e+004
3.342164e+002, 3.748855e+004
3.346985e+002, 3.677370e+004
3.351806e+002, 3.608515e+004
3.356627e+002, 3.541090e+004
3.361448e+002, 3.474641e+004
3.366270e+002, 3.412830e+004
3.371091e+002, 3.356688e+004
3.375912e+002, 3.305246e+004
3.380733e+002, 3.255852e+004
3.385554e+002, 3.209030e+004
3.390375e+002, 3.164160e+004
3.395197e+002, 3.121025e+004
3.400018e+002, 3.080026e+004
3.404839e+002, 3.039940e+004
3.409660e+002, 3.001211e+004
3.414481e+002, 2.964053e+004
3.419302e+002, 2.930043e+004
3.424124e+002, 2.899040e+004
3.428945e+002, 2.868891e+004
3.433766e+002, 2.837823e+004
3.438587e+002, 2.807029e+004
3.443408e+002, 2.781479e+004
3.448229e+002, 2.761862e+004
3.453051e+002, 2.743639e+004
3.457872e+002, 2.722313e+004
3.462693e+002, 2.698546e+004
3.467514e+002, 2.676010e+004
3.472335e+002, 2.655809e+004
3.477156e+002, 2.637117e+004
3.481978e+002, 2.618962e+004
3.486799e+002, 2.601355e+004
3.491620e+002, 2.584156e+004
3.496441e+002, 2.566841e+004
3.501262e+002, 2.549921e+004
3.506083e+002, 2.535070e+004
3.510905e+002, 2.522836e+004
3.515726e+002, 2.510892e+004
3.520547e+002, 2.495680e+004
3.525368e+002, 2.478296e+004
3.530189e+002, 2.462071e+004
3.535010e+002, 2.449676e+004
3.539832e+002, 2.438872e+004
3.544653e+002, 2.427111e+004
3.549474e+002, 2.414155e+004
3.554295e+002, 2.400641e+004
3.559116e+002, 2.386191e+004
3.563937e+002, 2.371580e+004
3.568759e+002, 2.358196e+004
3.573580e+002, 2.348077e+004
3.578401e+002, 2.337913e+004
3.583222e+002, 2.325231e+004
3.588043e+002, 2.310265e+004
3.592864e+002, 2.295093e+004
3.597686e+002, 2.280497e+004
3.602507e+002, 2.266250e+004
3.607328e+002, 2.252362e+004
3.612149e+002, 2.238920e+004
3.616970e+002, 2.225457e+004
3.621791e+002, 2.212056e+004
3.626613e+002, 2.198473e+004
3.631434e+002, 2.184176e+004
3.636255e+002, 2.167832e+004
3.641076e+002, 2.151626e+004
3.645897e+002, 2.136528e+004
3.650718e+002, 2.123217e+004
3.655540e+002, 2.110041e+004
3.660361e+002, 2.097138e+004
3.665182e+002, 2.084102e+004
3.670003e+002, 2.070450e+004
3.674824e+002, 2.055489e+004
3.679645e+002, 2.040607e+004
3.684467e+002, 2.025854e+004
3.689288e+002, 2.011475e+004
3.694109e+002, 1.997814e+004
3.698930e+002, 1.985091e+004
3.703751e+002, 1.972979e+004
3.708572e+002, 1.961287e+004
3.713394e+002, 1.950748e+004
3.718215e+002, 1.939623e+004
3.723036e+002, 1.927400e+004
3.727857e+002, 1.914507e+004
3.732678e+002, 1.902243e+004
3.737499e+002, 1.890228e+004
3.742321e+002, 1.879262e+004
3.747142e+002, 1.870065e+004
3.751963e+002, 1.863102e+004
3.756784e+002, 1.855413e+004
3.761605e+002, 1.846456e+004
3.766426e+002, 1.837484e+004
3.771248e+002, 1.831292e+004
3.776069e+002, 1.828448e+004
3.780890e+002, 1.824453e+004
3.785711e+002, 1.817304e+004
3.790532e+002, 1.807551e+004
3.795353e+002, 1.799772e+004
3.800175e+002, 1.794118e+004
3.804996e+002, 1.789380e+004
3.809817e+002, 1.784482e+004
3.814638e+002, 1.779490e+004
3.819459e+002, 1.774702e+004
3.824280e+002, 1.770167e+004
3.829102e+002, 1.765939e+004
3.833923e+002, 1.762410e+004
3.838744e+002, 1.759473e+004
3.843565e+002, 1.756476e+004
3.848386e+002, 1.752933e+004
3.853207e+002, 1.749034e+004
3.858029e+002, 1.745208e+004
3.862850e+002, 1.741414e+004
3.867671e+002, 1.737921e+004
3.872492e+002, 1.735264e+004
3.877313e+002, 1.733105e+004
3.882134e+002, 1.730734e+004
3.886956e+002, 1.727578e+004
3.891777e+002, 1.724283e+004
3.896598e+002, 1.721514e+004
3.901419e+002, 1.719271e+004
3.906240e+002, 1.716990e+004
3.911061e+002, 1.714777e+004
3.915883e+002, 1.712164e+004
3.920704e+002, 1.708661e+004
3.925525e+002, 1.704121e+004
3.930346e+002, 1.698738e+004
3.935167e+002, 1.692318e+004
3.939988e+002, 1.685047e+004
3.944810e+002, 1.677378e+004
3.949631e+002, 1.669403e+004
3.954452e+002, 1.661114e+004
3.959273e+002, 1.652657e+004
3.964094e+002, 1.644350e+004
3.968915e+002, 1.634867e+004
3.973737e+002, 1.623732e+004
3.978558e+002, 1.611337e+004
3.983379e+002, 1.598165e+004
3.988200e+002, 1.583520e+004
3.993021e+002, 1.568840e+004
3.997842e+002, 1.554270e+004
4.002664e+002, 1.539804e+004
4.007485e+002, 1.525559e+004
4.012306e+002, 1.511836e+004
4.017127e+002, 1.498180e+004
4.021948e+002, 1.484289e+004
4.026769e+002, 1.469819e+004
4.031591e+002, 1.455797e+004
4.036412e+002, 1.442094e+004
4.041233e+002, 1.428985e+004
4.046054e+002, 1.416808e+004
4.050875e+002, 1.405770e+004
4.055696e+002, 1.395439e+004
4.060518e+002, 1.385860e+004
4.065339e+002, 1.377075e+004
4.070160e+002, 1.367886e+004
4.074981e+002, 1.358203e+004
4.079802e+002, 1.348704e+004
4.084623e+002, 1.340114e+004
4.089445e+002, 1.332417e+004
4.094266e+002, 1.325621e+004
4.099087e+002, 1.319704e+004
4.103908e+002, 1.314737e+004
4.108729e+002, 1.311237e+004
4.113550e+002, 1.309170e+004
4.118372e+002, 1.307445e+004
4.123193e+002, 1.305214e+004
4.128014e+002, 1.302728e+004
4.132835e+002, 1.300338e+004
4.137656e+002, 1.297877e+004
4.142477e+002, 1.296268e+004
4.147299e+002, 1.297114e+004
4.152120e+002, 1.299619e+004
4.156941e+002, 1.301866e+004
4.161762e+002, 1.302331e+004
4.166583e+002, 1.302520e+004
4.171404e+002, 1.303642e+004
4.176226e+002, 1.305717e+004
4.181047e+002, 1.308531e+004
4.185868e+002, 1.311848e+004
4.190689e+002, 1.315879e+004
4.195510e+002, 1.320973e+004
4.200331e+002, 1.328254e+004
4.205153e+002, 1.335159e+004
4.209974e+002, 1.340085e+004
4.214795e+002, 1.343824e+004
4.219616e+002, 1.348167e+004
4.224437e+002, 1.354250e+004
4.229258e+002, 1.360557e+004
4.234080e+002, 1.366405e+004
4.238901e+002, 1.371621e+004
4.243722e+002, 1.377167e+004
4.248543e+002, 1.382466e+004
4.253364e+002, 1.388501e+004
4.258185e+002, 1.396244e+004
4.263007e+002, 1.406936e+004
4.267828e+002, 1.417692e+004
4.272649e+002, 1.428028e+004
4.277470e+002, 1.438022e+004
4.282291e+002, 1.448585e+004
4.287112e+002, 1.459888e+004
4.291934e+002, 1.471305e+004
4.296755e+002, 1.482618e+004
4.301576e+002, 1.493622e+004
4.306397e+002, 1.505225e+004
4.311218e+002, 1.517498e+004
4.316039e+002, 1.530219e+004
4.320861e+002, 1.543187e+004
4.325682e+002, 1.556383e+004
4.330503e+002, 1.570089e+004
4.335324e+002, 1.584702e+004
4.340145e+002, 1.599959e+004
4.344966e+002, 1.614767e+004
4.349788e+002, 1.629111e+004
4.354609e+002, 1.643822e+004
4.359430e+002, 1.659935e+004
4.364251e+002, 1.677166e+004
4.369072e+002, 1.694608e+004
4.373893e+002, 1.712298e+004
4.378715e+002, 1.730006e+004
4.383536e+002, 1.747275e+004
4.388357e+002, 1.764320e+004
4.393178e+002, 1.781727e+004
4.397999e+002, 1.800538e+004
4.402820e+002, 1.819432e+004
4.407642e+002, 1.837010e+004
4.412463e+002, 1.853324e+004
4.417284e+002, 1.868741e+004
4.422105e+002, 1.883788e+004
4.426926e+002, 1.898011e+004
4.431747e+002, 1.910999e+004
4.436569e+002, 1.923262e+004
4.441390e+002, 1.933514e+004
4.446211e+002, 1.941184e+004
4.451032e+002, 1.946496e+004
4.455853e+002, 1.949850e+004
4.460674e+002, 1.950871e+004
4.465496e+002, 1.950450e+004
4.470317e+002, 1.948826e+004
4.475138e+002, 1.945830e+004
4.479959e+002, 1.942294e+004
4.484780e+002, 1.938082e+004
4.489601e+002, 1.933492e+004
4.494423e+002, 1.928663e+004
4.499244e+002, 1.923326e+004
4.504065e+002, 1.918504e+004
4.508886e+002, 1.914343e+004
4.513707e+002, 1.910840e+004
4.518528e+002, 1.907796e+004
4.523350e+002, 1.905150e+004
4.528171e+002, 1.903039e+004
4.532992e+002, 1.901029e+004
4.537813e+002, 1.899065e+004
4.542634e+002, 1.899635e+004
4.547455e+002, 1.903009e+004
4.552277e+002, 1.908079e+004
4.557098e+002, 1.913532e+004
4.561919e+002, 1.919393e+004
4.566740e+002, 1.926379e+004
4.571561e+002, 1.934699e+004
4.576382e+002, 1.944131e+004
4.581204e+002, 1.953713e+004
4.586025e+002, 1.963708e+004
4.590846e+002, 1.975321e+004
4.595667e+002, 1.990517e+004
4.600488e+002, 2.007542e+004
4.605309e+002, 2.024182e+004
4.610131e+002, 2.039970e+004
4.614952e+002, 2.055917e+004
4.619773e+002, 2.071537e+004
4.624594e+002, 2.087804e+004
4.629415e+002, 2.106385e+004
4.634236e+002, 2.128815e+004
4.639058e+002, 2.152552e+004
4.643879e+002, 2.176829e+004
4.648700e+002, 2.201401e+004
4.653521e+002, 2.226989e+004
4.658342e+002, 2.254556e+004
4.663163e+002, 2.282850e+004
4.667985e+002, 2.310974e+004
4.672806e+002, 2.336447e+004
4.677627e+002, 2.366135e+004
4.682448e+002, 2.401088e+004
4.687269e+002, 2.439596e+004
4.692090e+002, 2.479553e+004
4.696912e+002, 2.520376e+004
4.701733e+002, 2.564510e+004
4.706554e+002, 2.612791e+004
4.711375e+002, 2.665002e+004
4.716196e+002, 2.718942e+004
4.721017e+002, 2.774456e+004
4.725839e+002, 2.832269e+004
4.730660e+002, 2.894276e+004
4.735481e+002, 2.960243e+004
4.740302e+002, 3.028153e+004
4.745123e+002, 3.097402e+004
4.749944e+002, 3.169839e+004
4.754766e+002, 3.248688e+004
4.759587e+002, 3.333513e+004
4.764408e+002, 3.421745e+004
4.769229e+002, 3.511641e+004
4.774050e+002, 3.603875e+004
4.778871e+002, 3.698163e+004
4.783693e+002, 3.794800e+004
4.788514e+002, 3.896079e+004
4.793335e+002, 4.003161e+004
4.798156e+002, 4.116521e+004
4.802977e+002, 4.235350e+004
4.807798e+002, 4.358480e+004
4.812620e+002, 4.489055e+004
4.817441e+002, 4.628313e+004
4.822262e+002, 4.776039e+004
4.827083e+002, 4.931913e+004
4.831904e+002, 5.096051e+004
4.836725e+002, 5.268718e+004
4.841547e+002, 5.449004e+004
4.846368e+002, 5.636103e+004
4.851189e+002, 5.831053e+004
4.856010e+002, 6.036530e+004
4.860831e+002, 6.248626e+004
4.865652e+002, 6.463323e+004
4.870474e+002, 6.681183e+004
4.875295e+002, 6.904036e+004
4.880116e+002, 7.133881e+004
4.884937e+002, 7.364620e+004
4.889758e+002, 7.590056e+004
4.894579e+002, 7.810343e+004
4.899401e+002, 8.026279e+004
4.904222e+002, 8.238953e+004
4.909043e+002, 8.447900e+004
4.913864e+002, 8.659077e+004
4.918685e+002, 8.872949e+004
4.923506e+002, 9.091943e+004
4.928328e+002, 9.317289e+004
4.933149e+002, 9.548439e+004
4.937970e+002, 9.788442e+004
4.942791e+002, 1.003863e+005
4.947612e+002, 1.029619e+005
4.952433e+002, 1.056451e+005
4.957255e+002, 1.084078e+005
4.962076e+002, 1.112101e+005
4.966897e+002, 1.140920e+005
4.971718e+002, 1.169564e+005
4.976539e+002, 1.197188e+005
4.981360e+002, 1.223551e+005
4.986182e+002, 1.248315e+005
4.991003e+002, 1.271429e+005
4.995824e+002, 1.292613e+005
5.000645e+002, 1.311420e+005
5.005466e+002, 1.328424e+005
5.010287e+002, 1.341670e+005
5.015109e+002, 1.350920e+005
5.019930e+002, 1.356035e+005
5.024751e+002, 1.356730e+005
5.029572e+002, 1.352411e+005
5.034393e+002, 1.344217e+005
5.039214e+002, 1.332239e+005
5.044036e+002, 1.316598e+005
5.048857e+002, 1.297223e+005
5.053678e+002, 1.273195e+005
5.058499e+002, 1.246622e+005
5.063320e+002, 1.218028e+005
5.068141e+002, 1.187334e+005
5.072963e+002, 1.155911e+005
5.077784e+002, 1.123210e+005
5.082605e+002, 1.090205e+005
5.087426e+002, 1.057019e+005
5.092247e+002, 1.023719e+005
5.097068e+002, 9.913231e+004
5.101890e+002, 9.601980e+004
5.106711e+002, 9.298279e+004
5.111532e+002, 8.997206e+004
5.116353e+002, 8.699132e+004
5.121174e+002, 8.414106e+004
5.125995e+002, 8.145042e+004
5.130817e+002, 7.889801e+004
5.135638e+002, 7.646327e+004
5.140459e+002, 7.414524e+004
5.145280e+002, 7.193707e+004
5.150101e+002, 6.983583e+004
5.154922e+002, 6.783432e+004
5.159744e+002, 6.595327e+004
5.164565e+002, 6.419963e+004
5.169386e+002, 6.253034e+004
5.174207e+002, 6.093011e+004
5.179028e+002, 5.940622e+004
5.183849e+002, 5.797029e+004
5.188671e+002, 5.665349e+004
5.193492e+002, 5.539532e+004
5.198313e+002, 5.415957e+004
5.203134e+002, 5.295965e+004
5.207955e+002, 5.183823e+004
5.212776e+002, 5.081533e+004
5.217598e+002, 4.983627e+004
5.222419e+002, 4.888093e+004
5.227240e+002, 4.794161e+004
5.232061e+002, 4.703991e+004
5.236882e+002, 4.617437e+004
5.241703e+002, 4.534275e+004
5.246525e+002, 4.454324e+004
5.251346e+002, 4.377221e+004
5.256167e+002, 4.302156e+004
5.260988e+002, 4.230082e+004
5.265809e+002, 4.159816e+004
5.270630e+002, 4.088697e+004
5.275452e+002, 4.017573e+004
5.280273e+002, 3.949679e+004
5.285094e+002, 3.887509e+004
5.289915e+002, 3.828827e+004
5.294736e+002, 3.769908e+004
5.299557e+002, 3.710171e+004
5.304379e+002, 3.652846e+004
5.309200e+002, 3.600790e+004
5.314021e+002, 3.550857e+004
5.318842e+002, 3.499635e+004
5.323663e+002, 3.444481e+004
5.328484e+002, 3.390570e+004
5.333306e+002, 3.340370e+004
5.338127e+002, 3.292274e+004
5.342948e+002, 3.244244e+004
5.347769e+002, 3.194257e+004
5.352590e+002, 3.145717e+004
5.357411e+002, 3.099703e+004
5.362233e+002, 3.056343e+004
5.367054e+002, 3.012378e+004
5.371875e+002, 2.966992e+004
5.376696e+002, 2.923410e+004
5.381517e+002, 2.883787e+004
5.386339e+002, 2.848796e+004
5.391160e+002, 2.813293e+004
5.395981e+002, 2.776751e+004
5.400802e+002, 2.740958e+004
5.405623e+002, 2.707527e+004
5.410444e+002, 2.676262e+004
5.415266e+002, 2.645132e+004
5.420087e+002, 2.612794e+004
5.424908e+002, 2.581068e+004
5.429729e+002, 2.553355e+004
5.434550e+002, 2.529244e+004
5.439371e+002, 2.506201e+004
5.444193e+002, 2.482461e+004
5.449014e+002, 2.459162e+004
5.453835e+002, 2.436975e+004
5.458656e+002, 2.415932e+004
5.463477e+002, 2.396505e+004
5.468298e+002, 2.380315e+004
5.473120e+002, 2.364730e+004
5.477941e+002, 2.347673e+004
5.482762e+002, 2.326215e+004
5.487583e+002, 2.306640e+004
5.492404e+002, 2.290087e+004
5.497225e+002, 2.275447e+004
5.502047e+002, 2.260847e+004
5.506868e+002, 2.245919e+004
5.511689e+002, 2.231662e+004
5.516510e+002, 2.218304e+004
5.521331e+002, 2.205880e+004
5.526152e+002, 2.195423e+004
5.530974e+002, 2.187390e+004
5.535795e+002, 2.179202e+004
5.540616e+002, 2.168327e+004
5.545437e+002, 2.155555e+004
5.550258e+002, 2.145449e+004
5.555079e+002, 2.138374e+004
5.559901e+002, 2.133102e+004
5.564722e+002, 2.128850e+004
5.569543e+002, 2.125323e+004
5.574364e+002, 2.121733e+004
5.579185e+002, 2.117074e+004
5.584006e+002, 2.113530e+004
5.588828e+002, 2.113161e+004
5.593649e+002, 2.115165e+004
5.598470e+002, 2.117703e+004
5.603291e+002, 2.119826e+004
5.608112e+002, 2.122417e+004
5.612933e+002, 2.126113e+004
5.617755e+002, 2.130906e+004
5.622576e+002, 2.135314e+004
5.627397e+002, 2.138054e+004
5.632218e+002, 2.141133e+004
5.637039e+002, 2.145470e+004
5.641860e+002, 2.151025e+004
5.646682e+002, 2.158157e+004
5.651503e+002, 2.167478e+004
5.656324e+002, 2.177761e+004
5.661145e+002, 2.187204e+004
5.665966e+002, 2.195772e+004
5.670787e+002, 2.204989e+004
5.675609e+002, 2.215263e+004
5.680430e+002, 2.226375e+004
5.685251e+002, 2.237564e+004
5.690072e+002, 2.248975e+004
5.694893e+002, 2.260752e+004
5.699714e+002, 2.273020e+004
5.704536e+002, 2.285839e+004
5.709357e+002, 2.299337e+004
5.714178e+002, 2.313450e+004
5.718999e+002, 2.328321e+004
5.723820e+002, 2.343750e+004
5.728641e+002, 2.359974e+004
5.733463e+002, 2.377070e+004
5.738284e+002, 2.395515e+004
5.743105e+002, 2.413991e+004
5.747926e+002, 2.431446e+004
5.752747e+002, 2.448936e+004
5.757568e+002, 2.467715e+004
5.762390e+002, 2.488297e+004
5.767211e+002, 2.509906e+004
5.772032e+002, 2.532444e+004
5.776853e+002, 2.556034e+004
5.781674e+002, 2.580253e+004
5.786495e+002, 2.604848e+004
5.791317e+002, 2.630878e+004
5.796138e+002, 2.659212e+004
5.800959e+002, 2.689546e+004
5.805780e+002, 2.718547e+004
5.810601e+002, 2.746203e+004
5.815422e+002, 2.775586e+004
5.820244e+002, 2.810381e+004
5.825065e+002, 2.849058e+004
5.829886e+002, 2.886375e+004
5.834707e+002, 2.921586e+004
5.839528e+002, 2.958900e+004
5.844349e+002, 3.003671e+004
5.849171e+002, 3.052707e+004
5.853992e+002, 3.101265e+004
5.858813e+002, 3.147363e+004
5.863634e+002, 3.193167e+004
5.868455e+002, 3.237865e+004
5.873276e+002, 3.282759e+004
5.878098e+002, 3.329791e+004
5.882919e+002, 3.380877e+004
5.887740e+002, 3.432589e+004
5.892561e+002, 3.484192e+004
5.897382e+002, 3.535680e+004
5.902203e+002, 3.586114e+004
5.907025e+002, 3.634565e+004
5.911846e+002, 3.682637e+004
5.916667e+002, 3.732554e+004
5.921488e+002, 3.785087e+004
5.926309e+002, 3.830549e+004
5.931130e+002, 3.868423e+004
5.935952e+002, 3.901091e+004
5.940773e+002, 3.931990e+004
5.945594e+002, 3.960421e+004
5.950415e+002, 3.983266e+004
5.955236e+002, 4.000659e+004
5.960057e+002, 4.011028e+004
5.964879e+002, 4.011780e+004
5.969700e+002, 4.004091e+004
5.974521e+002, 3.990581e+004
5.979342e+002, 3.973129e+004
5.984163e+002, 3.949467e+004
5.988984e+002, 3.917907e+004
5.993806e+002, 3.878630e+004
5.998627e+002, 3.834455e+004
6.003448e+002, 3.782964e+004
6.008269e+002, 3.729223e+004
6.013090e+002, 3.675177e+004
6.017911e+002, 3.620948e+004
6.022733e+002, 3.564866e+004
6.027554e+002, 3.505911e+004
6.032375e+002, 3.446611e+004
6.037196e+002, 3.389976e+004
6.042017e+002, 3.335560e+004
6.046838e+002, 3.283699e+004
6.051660e+002, 3.234125e+004
6.056481e+002, 3.186798e+004
6.061302e+002, 3.142438e+004
6.066123e+002, 3.100840e+004
6.070944e+002, 3.061178e+004
6.075765e+002, 3.022694e+004
6.080587e+002, 2.985993e+004
6.085408e+002, 2.951632e+004
6.090229e+002, 2.919444e+004
6.095050e+002, 2.887563e+004
6.099871e+002, 2.854325e+004
6.104692e+002, 2.822033e+004
6.109514e+002, 2.792911e+004
6.114335e+002, 2.767031e+004
6.119156e+002, 2.739828e+004
6.123977e+002, 2.709641e+004
6.128798e+002, 2.678329e+004
6.133619e+002, 2.647324e+004
6.138441e+002, 2.616027e+004
6.143262e+002, 2.585703e+004
6.148083e+002, 2.556707e+004
6.152904e+002, 2.527999e+004
6.157725e+002, 2.498513e+004
6.162546e+002, 2.468180e+004
6.167368e+002, 2.438723e+004
6.172189e+002, 2.410238e+004
6.177010e+002, 2.382541e+004
6.181831e+002, 2.355644e+004
6.186652e+002, 2.329481e+004
6.191473e+002, 2.303565e+004
6.196295e+002, 2.276958e+004
6.201116e+002, 2.251273e+004
6.205937e+002, 2.228779e+004
6.210758e+002, 2.209020e+004
6.215579e+002, 2.189010e+004
6.220400e+002, 2.166642e+004
6.225222e+002, 2.144592e+004
6.230043e+002, 2.124437e+004
6.234864e+002, 2.106479e+004
6.239685e+002, 2.089511e+004
6.244506e+002, 2.073950e+004
6.249327e+002, 2.058839e+004
6.254149e+002, 2.043337e+004
6.258970e+002, 2.026936e+004
6.263791e+002, 2.012126e+004
6.268612e+002, 1.999124e+004
6.273433e+002, 1.987507e+004
6.278254e+002, 1.976680e+004
6.283076e+002, 1.966656e+004
6.287897e+002, 1.957806e+004
6.292718e+002, 1.950364e+004
6.297539e+002, 1.943892e+004
6.302360e+002, 1.938246e+004
6.307181e+002, 1.933135e+004
6.312003e+002, 1.927696e+004
6.316824e+002, 1.920480e+004
6.321645e+002, 1.913562e+004
6.326466e+002, 1.908899e+004
6.331287e+002, 1.906189e+004
6.336108e+002, 1.903550e+004
6.340930e+002, 1.900142e+004
6.345751e+002, 1.896755e+004
6.350572e+002, 1.893354e+004
6.355393e+002, 1.889366e+004
6.360214e+002, 1.888525e+004
6.365035e+002, 1.892952e+004
6.369857e+002, 1.897930e+004
6.374678e+002, 1.899393e+004
6.379499e+002, 1.896584e+004
6.384320e+002, 1.895640e+004
6.389141e+002, 1.897054e+004
6.393962e+002, 1.900030e+004
6.398784e+002, 1.903898e+004
6.403605e+002, 1.908496e+004
6.408426e+002, 1.913246e+004
6.413247e+002, 1.917810e+004
6.418068e+002, 1.922722e+004
6.422889e+002, 1.928708e+004
6.427711e+002, 1.935514e+004
6.432532e+002, 1.942710e+004
6.437353e+002, 1.950371e+004
6.442174e+002, 1.958038e+004
6.446995e+002, 1.965542e+004
6.451816e+002, 1.972858e+004
6.456638e+002, 1.980060e+004
6.461459e+002, 1.986442e+004
6.466280e+002, 1.993436e+004
6.471101e+002, 2.001696e+004
6.475922e+002, 2.011210e+004
6.480743e+002, 2.020786e+004
6.485565e+002, 2.030191e+004
6.490386e+002, 2.040040e+004
6.495207e+002, 2.050921e+004
6.500028e+002, 2.062623e+004
6.504849e+002, 2.073355e+004
6.509670e+002, 2.082757e+004
6.514492e+002, 2.092036e+004
6.519313e+002, 2.103018e+004
6.524134e+002, 2.114610e+004
6.528955e+002, 2.124308e+004
6.533776e+002, 2.130708e+004
6.538597e+002, 2.137313e+004
6.543419e+002, 2.147539e+004
6.548240e+002, 2.159175e+004
6.553061e+002, 2.168654e+004
6.557882e+002, 2.173527e+004
6.562703e+002, 2.177939e+004
6.567524e+002, 2.182495e+004
6.572346e+002, 2.187314e+004
6.577167e+002, 2.192877e+004
6.581988e+002, 2.199906e+004
6.586809e+002, 2.206098e+004
6.591630e+002, 2.210532e+004
6.596451e+002, 2.213466e+004
6.601273e+002, 2.216500e+004
6.606094e+002, 2.219686e+004
6.610915e+002, 2.222216e+004
6.615736e+002, 2.222507e+004
6.620557e+002, 2.222042e+004
6.625378e+002, 2.224198e+004
6.630200e+002, 2.229106e+004
6.635021e+002, 2.233998e+004
6.639842e+002, 2.236968e+004
6.644663e+002, 2.238963e+004
6.649484e+002, 2.240596e+004
6.654305e+002, 2.241451e+004
6.659127e+002, 2.243558e+004
6.663948e+002, 2.248182e+004
6.668769e+002, 2.253939e+004
6.673590e+002, 2.259340e+004
6.678411e+002, 2.263547e+004
6.683232e+002, 2.269204e+004
6.688054e+002, 2.276861e+004
6.692875e+002, 2.285601e+004
6.697696e+002, 2.293557e+004
6.702517e+002, 2.300692e+004
6.707338e+002, 2.308851e+004
6.712159e+002, 2.318658e+004
6.716981e+002, 2.329494e+004
6.721802e+002, 2.340286e+004
6.726623e+002, 2.351076e+004
6.731444e+002, 2.362429e+004
6.736265e+002, 2.374559e+004
6.741086e+002, 2.387256e+004
6.745908e+002, 2.400127e+004
6.750729e+002, 2.413234e+004
6.755550e+002, 2.427633e+004
6.760371e+002, 2.445890e+004
6.765192e+002, 2.463497e+004
6.770013e+002, 2.478691e+004
6.774835e+002, 2.491383e+004
6.779656e+002, 2.503371e+004
6.784477e+002, 2.514670e+004
6.789298e+002, 2.525443e+004
6.794119e+002, 2.536225e+004
6.798940e+002, 2.547138e+004
6.803762e+002, 2.554818e+004
6.808583e+002, 2.559129e+004
6.813404e+002, 2.560949e+004
6.818225e+002, 2.561453e+004
6.823046e+002, 2.560128e+004
6.827867e+002, 2.555964e+004
6.832689e+002, 2.548809e+004
6.837510e+002, 2.538619e+004
6.842331e+002, 2.524554e+004
6.847152e+002, 2.507868e+004
6.851973e+002, 2.490486e+004
6.856794e+002, 2.473608e+004
6.861616e+002, 2.455014e+004
6.866437e+002, 2.434633e+004
6.871258e+002, 2.412132e+004
6.876079e+002, 2.386524e+004
6.880900e+002, 2.356425e+004
6.885721e+002, 2.327622e+004
6.890543e+002, 2.301726e+004
6.895364e+002, 2.278260e+004
6.900185e+002, 2.255797e+004
6.905006e+002, 2.234373e+004
6.909827e+002, 2.212938e+004
6.914648e+002, 2.190406e+004
6.919470e+002, 2.167612e+004
6.924291e+002, 2.144707e+004
6.929112e+002, 2.121986e+004
6.933933e+002, 2.101164e+004
6.938754e+002, 2.083766e+004
6.943575e+002, 2.067888e+004
6.948397e+002, 2.052263e+004
6.953218e+002, 2.036691e+004
6.958039e+002, 2.022244e+004
6.962860e+002, 2.009438e+004
6.967681e+002, 1.997384e+004
6.972502e+002, 1.985606e+004
6.977324e+002, 1.974221e+004
6.982145e+002, 1.962850e+004
6.986966e+002, 1.951375e+004
6.991787e+002, 1.940281e+004
6.996608e+002, 1.929713e+004
7.001429e+002, 1.919901e+004
7.006251e+002, 1.911765e+004
7.011072e+002, 1.905606e+004
7.015893e+002, 1.900031e+004
7.020714e+002, 1.893547e+004
7.025535e+002, 1.886764e+004
7.030356e+002, 1.880604e+004
7.035178e+002, 1.875737e+004
7.039999e+002, 1.870882e+004
7.044820e+002, 1.865131e+004
7.049641e+002, 1.859213e+004
7.054462e+002, 1.854214e+004
7.059283e+002, 1.850646e+004
7.064105e+002, 1.847294e+004
7.068926e+002, 1.844325e+004
7.073747e+002, 1.841306e+004
7.078568e+002, 1.836818e+004
7.083389e+002, 1.830681e+004
7.088210e+002, 1.825445e+004
7.093032e+002, 1.822548e+004
7.097853e+002, 1.820543e+004
7.102674e+002, 1.816600e+004
7.107495e+002, 1.810955e+004
7.112316e+002, 1.804719e+004
7.117137e+002, 1.797664e+004
7.121959e+002, 1.790938e+004
7.126780e+002, 1.786043e+004
7.131601e+002, 1.782584e+004
7.136422e+002, 1.777832e+004
7.141243e+002, 1.768697e+004
7.146064e+002, 1.760321e+004
7.150886e+002, 1.755290e+004
7.155707e+002, 1.753710e+004
7.160528e+002, 1.750060e+004
7.165349e+002, 1.743663e+004
7.170170e+002, 1.736862e+004
7.174991e+002, 1.731277e+004
7.179813e+002, 1.726719e+004
7.184634e+002, 1.721214e+004
7.189455e+002, 1.714724e+004
7.194276e+002, 1.707732e+004
7.199097e+002, 1.699966e+004
7.203918e+002, 1.692224e+004
7.208740e+002, 1.685756e+004
7.213561e+002, 1.680763e+004
7.218382e+002, 1.676491e+004
7.223203e+002, 1.673438e+004
7.228024e+002, 1.670374e+004
7.232845e+002, 1.666162e+004
7.237667e+002, 1.659996e+004
7.242488e+002, 1.653697e+004
7.247309e+002, 1.646741e+004
7.252130e+002, 1.640110e+004
7.256951e+002, 1.635182e+004
7.261772e+002, 1.632113e+004
7.266594e+002, 1.628728e+004
7.271415e+002, 1.624906e+004
7.276236e+002, 1.620294e+004
7.281057e+002, 1.613696e+004
7.285878e+002, 1.605889e+004
7.290699e+002, 1.598758e+004
7.295521e+002, 1.592684e+004
7.300342e+002, 1.587870e+004
7.305163e+002, 1.585322e+004
7.309984e+002, 1.583985e+004
7.314805e+002, 1.581980e+004
7.319626e+002, 1.578304e+004
7.324448e+002, 1.574556e+004
7.329269e+002, 1.570914e+004
7.334090e+002, 1.567419e+004
7.338911e+002, 1.564277e+004
7.343732e+002, 1.561542e+004
7.348553e+002, 1.559067e+004
7.353375e+002, 1.556864e+004
7.358196e+002, 1.554847e+004
7.363017e+002, 1.552495e+004
7.367838e+002, 1.549979e+004
7.372659e+002, 1.548355e+004
7.377480e+002, 1.549414e+004
7.382302e+002, 1.550720e+004
7.387123e+002, 1.549428e+004
7.391944e+002, 1.546112e+004
7.396765e+002, 1.543758e+004
7.401586e+002, 1.543912e+004
7.406407e+002, 1.544823e+004
7.411229e+002, 1.545840e+004
7.416050e+002, 1.546947e+004
7.420871e+002, 1.548254e+004
7.425692e+002, 1.549810e+004
7.430513e+002, 1.551473e+004
7.435334e+002, 1.553045e+004
7.440156e+002, 1.554619e+004
7.444977e+002, 1.556850e+004
7.449798e+002, 1.559747e+004
7.454619e+002, 1.563292e+004
7.459440e+002, 1.568028e+004
7.464261e+002, 1.573067e+004
7.469083e+002, 1.577273e+004
7.473904e+002, 1.580532e+004
7.478725e+002, 1.583638e+004
7.483546e+002, 1.586069e+004
7.488367e+002, 1.589063e+004
7.493188e+002, 1.593632e+004
7.498010e+002, 1.600172e+004
7.502831e+002, 1.606675e+004
7.507652e+002, 1.613302e+004
7.512473e+002, 1.619612e+004
7.517294e+002, 1.625149e+004
7.522115e+002, 1.629884e+004
7.526937e+002, 1.635020e+004
7.531758e+002, 1.640619e+004
7.536579e+002, 1.646899e+004
7.541400e+002, 1.654776e+004
7.546221e+002, 1.663283e+004
7.551042e+002, 1.670615e+004
7.555864e+002, 1.675856e+004
7.560685e+002, 1.682090e+004
7.565506e+002, 1.692175e+004
7.570327e+002, 1.703462e+004
7.575148e+002, 1.713008e+004
7.579969e+002, 1.719083e+004
7.584791e+002, 1.725744e+004
7.589612e+002, 1.732723e+004
7.594433e+002, 1.740566e+004
7.599254e+002, 1.749947e+004
7.604075e+002, 1.760978e+004
7.608896e+002, 1.772456e+004
7.613718e+002, 1.784241e+004
7.618539e+002, 1.796219e+004
7.623360e+002, 1.808390e+004
7.628181e+002, 1.820617e+004
7.633002e+002, 1.832605e+004
7.637823e+002, 1.844459e+004
7.642645e+002, 1.855951e+004
7.647466e+002, 1.866842e+004
7.652287e+002, 1.877286e+004
7.657108e+002, 1.887830e+004
7.661929e+002, 1.898103e+004
7.666750e+002, 1.909176e+004
7.671572e+002, 1.921934e+004
7.676393e+002, 1.934926e+004
7.681214e+002, 1.945155e+004
7.686035e+002, 1.952377e+004
7.690856e+002, 1.960278e+004
7.695677e+002, 1.969789e+004
7.700499e+002, 1.980532e+004
7.705320e+002, 1.992896e+004
7.710141e+002, 2.006030e+004
7.714962e+002, 2.017781e+004
7.719783e+002, 2.026439e+004
7.724604e+002, 2.034307e+004
7.729426e+002, 2.042312e+004
7.734247e+002, 2.050357e+004
7.739068e+002, 2.058159e+004
7.743889e+002, 2.065904e+004
7.748710e+002, 2.073098e+004
7.753531e+002, 2.079634e+004
7.758353e+002, 2.085589e+004
7.763174e+002, 2.091307e+004
7.767995e+002, 2.096786e+004
7.772816e+002, 2.101312e+004
7.777637e+002, 2.104011e+004
7.782458e+002, 2.106310e+004
7.787280e+002, 2.111569e+004
7.792101e+002, 2.118658e+004
7.796922e+002, 2.123841e+004
7.801743e+002, 2.124326e+004
7.806564e+002, 2.123495e+004
7.811385e+002, 2.122659e+004
7.816207e+002, 2.121890e+004
7.821028e+002, 2.121450e+004
7.825849e+002, 2.122703e+004
7.830670e+002, 2.122030e+004
7.835491e+002, 2.117730e+004
7.840313e+002, 2.110931e+004
7.845134e+002, 2.106423e+004
7.849955e+002, 2.104193e+004
7.854776e+002, 2.101458e+004
7.859597e+002, 2.096676e+004
7.864418e+002, 2.090698e+004
7.869240e+002, 2.085277e+004
7.874061e+002, 2.079975e+004
7.878882e+002, 2.073200e+004
7.883703e+002, 2.063530e+004
7.888524e+002, 2.052955e+004
7.893345e+002, 2.042260e+004
7.898167e+002, 2.031480e+004
7.902988e+002, 2.021132e+004
7.907809e+002, 2.011277e+004
7.912630e+002, 2.001725e+004
7.917451e+002, 1.992636e+004
7.922272e+002, 1.983775e+004
7.927094e+002, 1.972903e+004
7.931915e+002, 1.960192e+004
7.936736e+002, 1.947568e+004
7.941557e+002, 1.937054e+004
7.946378e+002, 1.926793e+004
7.951199e+002, 1.914099e+004
7.956021e+002, 1.899627e+004
7.960842e+002, 1.885581e+004
7.965663e+002, 1.873192e+004
7.970484e+002, 1.861344e+004
7.975305e+002, 1.850302e+004
7.980126e+002, 1.839808e+004
7.984948e+002, 1.827109e+004
7.989769e+002, 1.811234e+004
7.994590e+002, 1.795693e+004
7.999411e+002, 1.782432e+004
8.004232e+002, 1.770616e+004
8.009053e+002, 1.757235e+004
8.013875e+002, 1.742535e+004
8.018696e+002, 1.728933e+004
8.023517e+002, 1.718638e+004
8.028338e+002, 1.709398e+004
8.033159e+002, 1.699342e+004
8.037980e+002, 1.688421e+004
8.042802e+002, 1.676999e+004
8.047623e+002, 1.664018e+004
8.052444e+002, 1.651784e+004
8.057265e+002, 1.641392e+004
8.062086e+002, 1.632609e+004
8.066907e+002, 1.623616e+004
8.071729e+002, 1.614493e+004
8.076550e+002, 1.604526e+004
8.081371e+002, 1.592715e+004
8.086192e+002, 1.579977e+004
8.091013e+002, 1.568900e+004
8.095834e+002, 1.559264e+004
8.100656e+002, 1.549782e+004
8.105477e+002, 1.539571e+004
8.110298e+002, 1.529388e+004
8.115119e+002, 1.519354e+004
8.119940e+002, 1.509617e+004
8.124761e+002, 1.501070e+004
8.129583e+002, 1.495231e+004
8.134404e+002, 1.488847e+004
8.139225e+002, 1.480715e+004
8.144046e+002, 1.471244e+004
8.148867e+002, 1.462362e+004
8.153688e+002, 1.454156e+004
8.158510e+002, 1.446226e+004
8.163331e+002, 1.438225e+004
8.168152e+002, 1.430421e+004
8.172973e+002, 1.423269e+004
8.177794e+002, 1.416745e+004
8.182615e+002, 1.410907e+004
8.187437e+002, 1.406877e+004
8.192258e+002, 1.402525e+004
8.197079e+002, 1.396406e+004
8.201900e+002, 1.388782e+004
8.206721e+002, 1.382216e+004
8.211542e+002, 1.377182e+004
8.216364e+002, 1.372061e+004
8.221185e+002, 1.366324e+004
8.226006e+002, 1.360139e+004
8.230827e+002, 1.353479e+004
8.235648e+002, 1.346481e+004
8.240469e+002, 1.339746e+004
8.245291e+002, 1.333226e+004
8.250112e+002, 1.327450e+004
8.254933e+002, 1.323600e+004
8.259754e+002, 1.320964e+004
8.264575e+002, 1.317209e+004
8.269396e+002, 1.309786e+004
8.274218e+002, 1.303297e+004
8.279039e+002, 1.299485e+004
8.283860e+002, 1.297428e+004
8.288681e+002, 1.293969e+004
8.293502e+002, 1.288730e+004
8.298323e+002, 1.284177e+004
8.303145e+002, 1.281475e+004
8.307966e+002, 1.279505e+004
8.312787e+002, 1.276119e+004
8.317608e+002, 1.271617e+004
8.322429e+002, 1.267052e+004
8.327250e+002, 1.262744e+004
8.332072e+002, 1.258596e+004
8.336893e+002, 1.254484e+004
8.341714e+002, 1.250489e+004
8.346535e+002, 1.246860e+004
8.351356e+002, 1.243792e+004
8.356177e+002, 1.240765e+004
8.360999e+002, 1.237714e+004
8.365820e+002, 1.234606e+004
8.370641e+002, 1.231123e+004
8.375462e+002, 1.227347e+004
8.380283e+002, 1.224213e+004
8.385104e+002, 1.222218e+004
8.389926e+002, 1.220616e+004
8.394747e+002, 1.218561e+004
8.399568e+002, 1.216317e+004
8.404389e+002, 1.214315e+004
8.409210e+002, 1.213083e+004
8.414031e+002, 1.211647e+004
8.418853e+002, 1.209940e+004
8.423674e+002, 1.207834e+004
8.428495e+002, 1.205025e+004
8.433316e+002, 1.201334e+004
8.438137e+002, 1.197661e+004
8.442958e+002, 1.193956e+004
8.447780e+002, 1.190791e+004
8.452601e+002, 1.189539e+004
8.457422e+002, 1.189455e+004
8.462243e+002, 1.188711e+004
8.467064e+002, 1.186741e+004
8.471885e+002, 1.184231e+004
8.476707e+002, 1.180983e+004
8.481528e+002, 1.177689e+004
8.486349e+002, 1.175233e+004
8.491170e+002, 1.175010e+004
8.495991e+002, 1.173106e+004
8.500812e+002, 1.168683e+004
8.505634e+002, 1.163839e+004
8.510455e+002, 1.161119e+004
8.515276e+002, 1.160239e+004
8.520097e+002, 1.158950e+004
8.524918e+002, 1.156947e+004
8.529739e+002, 1.154631e+004
8.534561e+002, 1.152383e+004
8.539382e+002, 1.150017e+004
8.544203e+002, 1.147197e+004
8.549024e+002, 1.143533e+004
8.553845e+002, 1.140508e+004
8.558666e+002, 1.138534e+004
8.563488e+002, 1.137102e+004
8.568309e+002, 1.136090e+004
8.573130e+002, 1.135610e+004
8.577951e+002, 1.134346e+004
8.582772e+002, 1.132199e+004
8.587593e+002, 1.129880e+004
8.592415e+002, 1.128482e+004
8.597236e+002, 1.127149e+004
8.602057e+002, 1.124089e+004
8.606878e+002, 1.119177e+004
8.611699e+002, 1.114475e+004
8.616520e+002, 1.110789e+004
8.621342e+002, 1.107759e+004
8.626163e+002, 1.105438e+004
8.630984e+002, 1.103885e+004
8.635805e+002, 1.101447e+004
8.640626e+002, 1.097942e+004
8.645447e+002, 1.094192e+004
8.650269e+002, 1.090781e+004
8.655090e+002, 1.087489e+004
8.659911e+002, 1.083380e+004
8.664732e+002, 1.078633e+004
8.669553e+002, 1.074286e+004
8.674374e+002, 1.071245e+004
8.679196e+002, 1.068640e+004
8.684017e+002, 1.066058e+004
8.688838e+002, 1.063451e+004
8.693659e+002, 1.060695e+004
8.698480e+002, 1.057792e+004
8.703301e+002, 1.054709e+004
8.708123e+002, 1.051284e+004
8.712944e+002, 1.047683e+004
8.717765e+002, 1.044373e+004
8.722586e+002, 1.041386e+004
8.727407e+002, 1.038854e+004
8.732228e+002, 1.037516e+004
8.737050e+002, 1.035916e+004
8.741871e+002, 1.032109e+004
8.746692e+002, 1.026959e+004
8.751513e+002, 1.022274e+004
8.756334e+002, 1.018426e+004
8.761155e+002, 1.015515e+004
8.765977e+002, 1.014085e+004
8.770798e+002, 1.013192e+004
8.775619e+002, 1.011040e+004
8.780440e+002, 1.007552e+004
8.785261e+002, 1.003905e+004
8.790082e+002, 1.000079e+004
8.794904e+002, 9.968043e+003
8.799725e+002, 9.957458e+003
8.804546e+002, 9.956607e+003
8.809367e+002, 9.942399e+003
8.814188e+002, 9.900799e+003
8.819009e+002, 9.862232e+003
8.823831e+002, 9.836182e+003
8.828652e+002, 9.818986e+003
8.833473e+002, 9.808536e+003
8.838294e+002, 9.808574e+003
8.843115e+002, 9.800352e+003
8.847936e+002, 9.782608e+003
8.852758e+002, 9.759355e+003
8.857579e+002, 9.728525e+003
8.862400e+002, 9.696604e+003
8.867221e+002, 9.680767e+003
8.872042e+002, 9.683991e+003
8.876863e+002, 9.687641e+003
8.881685e+002, 9.680352e+003
8.886506e+002, 9.670117e+003
8.891327e+002, 9.663002e+003
8.896148e+002, 9.660009e+003
8.900969e+002, 9.652266e+003
8.905790e+002, 9.636254e+003
8.910612e+002, 9.623904e+003
8.915433e+002, 9.626342e+003
8.920254e+002, 9.637714e+003
8.925075e+002, 9.633584e+003
8.929896e+002, 9.615923e+003
8.934717e+002, 9.601730e+003
8.939539e+002, 9.607865e+003
8.944360e+002, 9.615078e+003
8.949181e+002, 9.607543e+003
8.954002e+002, 9.588019e+003
8.958823e+002, 9.577088e+003
8.963644e+002, 9.577934e+003
8.968466e+002, 9.584359e+003
8.973287e+002, 9.598214e+003
8.978108e+002, 9.614024e+003
8.982929e+002, 9.615900e+003
8.987750e+002, 9.605638e+003
8.992571e+002, 9.593948e+003
8.997393e+002, 9.583631e+003
9.002214e+002, 9.575525e+003
9.007035e+002, 9.574018e+003
9.011856e+002, 9.574324e+003
9.016677e+002, 9.568458e+003
9.021498e+002, 9.541364e+003
9.026320e+002, 9.526804e+003
9.031141e+002, 9.530314e+003
9.035962e+002, 9.542354e+003
9.040783e+002, 9.553219e+003
9.045604e+002, 9.562325e+003
9.050425e+002, 9.559689e+003
9.055247e+002, 9.542334e+003
9.060068e+002, 9.522871e+003
9.064889e+002, 9.511270e+003
9.069710e+002, 9.505362e+003
9.074531e+002, 9.504221e+003
9.079352e+002, 9.510416e+003
9.084174e+002, 9.511103e+003
9.088995e+002, 9.505627e+003
9.093816e+002, 9.493204e+003
9.098637e+002, 9.469527e+003
9.103458e+002, 9.434393e+003
9.108279e+002, 9.416021e+003
9.113101e+002, 9.414592e+003
9.117922e+002, 9.418679e+003
9.122743e+002, 9.430826e+003
9.127564e+002, 9.436653e+003
9.132385e+002, 9.411654e+003
9.137206e+002, 9.360676e+003
9.142028e+002, 9.323347e+003
9.146849e+002, 9.329642e+003
9.151670e+002, 9.330357e+003
9.156491e+002, 9.309783e+003
9.161312e+002, 9.273050e+003
9.166133e+002, 9.238853e+003
9.170955e+002, 9.207168e+003
9.175776e+002, 9.176662e+003
9.180597e+002, 9.144848e+003
9.185418e+002, 9.116666e+003
9.190239e+002, 9.102678e+003
9.195060e+002, 9.096079e+003
9.199882e+002, 9.083890e+003
9.204703e+002, 9.061899e+003
9.209524e+002, 9.032775e+003
9.214345e+002, 8.988786e+003
9.219166e+002, 8.944697e+003
9.223987e+002, 8.924304e+003
9.228809e+002, 8.930036e+003
9.233630e+002, 8.913510e+003
9.238451e+002, 8.866506e+003
9.243272e+002, 8.812058e+003
9.248093e+002, 8.775229e+003
9.252914e+002, 8.746049e+003
9.257736e+002, 8.711749e+003
9.262557e+002, 8.669331e+003
9.267378e+002, 8.627893e+003
9.272199e+002, 8.590049e+003
9.277020e+002, 8.554716e+003
9.281841e+002, 8.521975e+003
9.286663e+002, 8.492021e+003
9.291484e+002, 8.462182e+003
9.296305e+002, 8.432363e+003
9.301126e+002, 8.400350e+003
9.305947e+002, 8.359892e+003
9.310768e+002, 8.319011e+003
9.315590e+002, 8.291355e+003
9.320411e+002, 8.273260e+003
9.325232e+002, 8.250924e+003
9.330053e+002, 8.214574e+003
9.334874e+002, 8.178974e+003
9.339695e+002, 8.149189e+003
9.344517e+002, 8.121913e+003
9.349338e+002, 8.086452e+003
9.354159e+002, 8.042870e+003
9.358980e+002, 8.003945e+003
9.363801e+002, 7.974493e+003
9.368622e+002, 7.949613e+003
9.373444e+002, 7.927253e+003
9.378265e+002, 7.905108e+003
9.383086e+002, 7.878966e+003
9.387907e+002, 7.844073e+003
9.392728e+002, 7.813010e+003
9.397549e+002, 7.790477e+003
9.402371e+002, 7.769932e+003
9.407192e+002, 7.745439e+003
9.412013e+002, 7.716900e+003
9.416834e+002, 7.688938e+003
9.421655e+002, 7.661819e+003
9.426476e+002, 7.633976e+003
9.431298e+002, 7.599322e+003
9.436119e+002, 7.566739e+003
9.440940e+002, 7.548142e+003
9.445761e+002, 7.543397e+003
9.450582e+002, 7.535315e+003
9.455403e+002, 7.522126e+003
9.460225e+002, 7.501498e+003
9.465046e+002, 7.469201e+003
9.469867e+002, 7.429782e+003
9.474688e+002, 7.404468e+003
9.479509e+002, 7.392273e+003
9.484330e+002, 7.372535e+003
9.489152e+002, 7.330570e+003
9.493973e+002, 7.285605e+003
9.498794e+002, 7.253046e+003
9.503615e+002, 7.231369e+003
9.508436e+002, 7.217833e+003
9.513257e+002, 7.226775e+003
9.518079e+002, 7.222065e+003
9.522900e+002, 7.197856e+003
9.527721e+002, 7.164902e+003
9.532542e+002, 7.133989e+003
9.537363e+002, 7.105420e+003
9.542184e+002, 7.082421e+003
9.547006e+002, 7.065677e+003
9.551827e+002, 7.049759e+003
9.556648e+002, 7.032587e+003
9.561469e+002, 7.012375e+003
9.566290e+002, 6.985122e+003
9.571111e+002, 6.948736e+003
9.575933e+002, 6.924283e+003
9.580754e+002, 6.919831e+003
9.585575e+002, 6.912432e+003
9.590396e+002, 6.890659e+003
9.595217e+002, 6.858000e+003
9.600038e+002, 6.820598e+003
9.604860e+002, 6.781141e+003
9.609681e+002, 6.753540e+003
9.614502e+002, 6.758954e+003
9.619323e+002, 6.764655e+003
9.624144e+002, 6.748529e+003
9.628965e+002, 6.719229e+003
9.633787e+002, 6.696955e+003
9.638608e+002, 6.685873e+003
9.643429e+002, 6.672117e+003
9.648250e+002, 6.653130e+003
9.653071e+002, 6.632806e+003
9.657892e+002, 6.618415e+003
9.662714e+002, 6.606890e+003
9.667535e+002, 6.588669e+003
9.672356e+002, 6.560992e+003
9.677177e+002, 6.536776e+003
9.681998e+002, 6.525709e+003
9.686819e+002, 6.518997e+003
9.691641e+002, 6.512413e+003
9.696462e+002, 6.506351e+003
9.701283e+002, 6.489378e+003
9.706104e+002, 6.459429e+003
9.710925e+002, 6.428912e+003
9.715746e+002, 6.404131e+003
9.720568e+002, 6.383628e+003
9.725389e+002, 6.365828e+003
9.730210e+002, 6.349896e+003
9.735031e+002, 6.333651e+003
9.739852e+002, 6.313346e+003
9.744673e+002, 6.296106e+003
9.749495e+002, 6.285975e+003
9.754316e+002, 6.278927e+003
9.759137e+002, 6.269771e+003
9.763958e+002, 6.258921e+003
9.768779e+002, 6.238049e+003
9.773600e+002, 6.202870e+003
9.778422e+002, 6.170846e+003
9.783243e+002, 6.165581e+003
9.788064e+002, 6.171841e+003
9.792885e+002, 6.170263e+003
9.797706e+002, 6.155830e+003
9.802527e+002, 6.142817e+003
9.807349e+002, 6.135635e+003
9.812170e+002, 6.127443e+003
9.816991e+002, 6.114605e+003
9.821812e+002, 6.097548e+003
9.826633e+002, 6.079622e+003
9.831454e+002, 6.060857e+003
9.836276e+002, 6.042317e+003
9.841097e+002, 6.022568e+003
9.845918e+002, 6.004970e+003
9.850739e+002, 5.993735e+003
9.855560e+002, 5.986647e+003
9.860381e+002, 5.977903e+003
9.865203e+002, 5.965512e+003
9.870024e+002, 5.955162e+003
9.874845e+002, 5.949149e+003
9.879666e+002, 5.942459e+003
9.884487e+002, 5.926120e+003
9.889308e+002, 5.903315e+003
9.894130e+002, 5.882712e+003
9.898951e+002, 5.865935e+003
9.903772e+002, 5.850686e+003
9.908593e+002, 5.837960e+003
9.913414e+002, 5.824450e+003
9.918235e+002, 5.806063e+003
9.923057e+002, 5.782147e+003
9.927878e+002, 5.766893e+003
9.932699e+002, 5.761172e+003
9.937520e+002, 5.757741e+003
9.942341e+002, 5.755169e+003
9.947162e+002, 5.750533e+003
9.951984e+002, 5.735977e+003
9.956805e+002, 5.715092e+003
9.961626e+002, 5.698152e+003
9.966447e+002, 5.696766e+003
9.971268e+002, 5.689295e+003
9.976089e+002, 5.667372e+003
9.980911e+002, 5.640209e+003
9.985732e+002, 5.620518e+003
9.990553e+002, 5.608147e+003
9.995374e+002, 5.599641e+003
1.000020e+003, 5.595507e+003
1.000502e+003, 5.587996e+003
1.000984e+003, 5.564286e+003
1.001466e+003, 5.537607e+003
1.001948e+003, 5.523114e+003
1.002430e+003, 5.524107e+003
1.002912e+003, 5.516818e+003
1.003394e+003, 5.497188e+003
1.003876e+003, 5.474065e+003
1.004359e+003, 5.448849e+003
1.004841e+003, 5.424170e+003
1.005323e+003, 5.411924e+003
1.005805e+003, 5.408760e+003
1.006287e+003, 5.401425e+003
1.006769e+003, 5.381963e+003
1.007251e+003, 5.359516e+003
1.007733e+003, 5.334599e+003
1.008216e+003, 5.311770e+003
1.008698e+003, 5.298551e+003
1.009180e+003, 5.299278e+003
1.009662e+003, 5.291476e+003
1.010144e+003, 5.272486e+003
1.010626e+003, 5.252433e+003
1.011108e+003, 5.243666e+003
1.011590e+003, 5.239509e+003
1.012072e+003, 5.228943e+003
1.012555e+003, 5.211561e+003
1.013037e+003, 5.196900e+003
1.013519e+003, 5.192651e+003
1.014001e+003, 5.186518e+003
1.014483e+003, 5.174186e+003
1.014965e+003, 5.157087e+003
1.015447e+003, 5.139487e+003
1.015929e+003, 5.121480e+003
1.016411e+003, 5.104869e+003
1.016894e+003, 5.090808e+003
1.017376e+003, 5.077118e+003
1.017858e+003, 5.062635e+003
1.018340e+003, 5.047202e+003
1.018822e+003, 5.030103e+003
1.019304e+003, 5.006758e+003
1.019786e+003, 4.994823e+003
1.020268e+003, 4.998808e+003
1.020751e+003, 5.002387e+003
1.021233e+003, 4.992222e+003
1.021715e+003, 4.972161e+003
1.022197e+003, 4.950421e+003
1.022679e+003, 4.927835e+003
1.023161e+003, 4.908354e+003
1.023643e+003, 4.892345e+003
1.024125e+003, 4.881742e+003
1.024607e+003, 4.882081e+003
1.025090e+003, 4.886443e+003
1.025572e+003, 4.876771e+003
1.026054e+003, 4.851056e+003
1.026536e+003, 4.844066e+003
1.027018e+003, 4.866493e+003
1.027500e+003, 4.888780e+003
1.027982e+003, 4.875858e+003
1.028464e+003, 4.846994e+003
1.028947e+003, 4.824835e+003
1.029429e+003, 4.815196e+003
1.029911e+003, 4.800093e+003
1.030393e+003, 4.773897e+003
1.030875e+003, 4.750644e+003
1.031357e+003, 4.739677e+003
1.031839e+003, 4.736455e+003
1.032321e+003, 4.723913e+003
1.032803e+003, 4.704631e+003
1.033286e+003, 4.688873e+003
1.033768e+003, 4.686994e+003
1.034250e+003, 4.683987e+003
1.034732e+003, 4.672477e+003
1.035214e+003, 4.656034e+003
1.035696e+003, 4.638737e+003
1.036178e+003, 4.618569e+003
1.036660e+003, 4.609935e+003
1.037143e+003, 4.615489e+003
1.037625e+003, 4.620337e+003
1.038107e+003, 4.606888e+003
1.038589e+003, 4.586868e+003
1.039071e+003, 4.575064e+003
1.039553e+003, 4.572021e+003
1.040035e+003, 4.569322e+003
1.040517e+003, 4.566941e+003
1.041000e+003, 4.561981e+003
1.041482e+003, 4.553831e+003
1.041964e+003, 4.542599e+003
1.042446e+003, 4.527232e+003
1.042928e+003, 4.508908e+003
1.043410e+003, 4.492932e+003
1.043892e+003, 4.481265e+003
1.044374e+003, 4.471131e+003
1.044856e+003, 4.464305e+003
1.045339e+003, 4.456124e+003
1.045821e+003, 4.440790e+003
1.046303e+003, 4.416192e+003
1.046785e+003, 4.401692e+003
1.047267e+003, 4.398016e+003
1.047749e+003, 4.398283e+003
1.048231e+003, 4.404104e+003
1.048713e+003, 4.407058e+003
1.049195e+003, 4.391150e+003
1.049677e+003, 4.363037e+003
1.050160e+003, 4.342347e+003
1.050642e+003, 4.339537e+003
1.051124e+003, 4.338568e+003
1.051606e+003, 4.339813e+003
1.052088e+003, 4.339053e+003
1.052570e+003, 4.329996e+003
1.053052e+003, 4.313999e+003
1.053534e+003, 4.295058e+003
1.054017e+003, 4.273436e+003
1.054499e+003, 4.255851e+003
1.054981e+003, 4.250258e+003
1.055463e+003, 4.246583e+003
1.055945e+003, 4.237611e+003
1.056427e+003, 4.224702e+003
1.056909e+003, 4.217142e+003
1.057391e+003, 4.215485e+003
1.057874e+003, 4.213493e+003
1.058356e+003, 4.209683e+003
1.058838e+003, 4.203362e+003
1.059320e+003, 4.192381e+003
1.059802e+003, 4.178937e+003
1.060284e+003, 4.165418e+003
1.060766e+003, 4.150118e+003
1.061248e+003, 4.140985e+003
1.061730e+003, 4.140503e+003
1.062213e+003, 4.141609e+003
1.062695e+003, 4.140211e+003
1.063177e+003, 4.136221e+003
1.063659e+003, 4.128227e+003
1.064141e+003, 4.117011e+003
1.064623e+003, 4.106543e+003
1.065105e+003, 4.096633e+003
1.065587e+003, 4.090280e+003
1.066070e+003, 4.091652e+003
1.066552e+003, 4.095576e+003
1.067034e+003, 4.094892e+003
1.067516e+003, 4.089552e+003
1.067998e+003, 4.079246e+003
1.068480e+003, 4.063175e+003
1.068962e+003, 4.050643e+003
1.069444e+003, 4.053448e+003
1.069927e+003, 4.061350e+003
1.070409e+003, 4.067334e+003
1.070891e+003, 4.070196e+003
1.071373e+003, 4.062688e+003
1.071855e+003, 4.038709e+003
1.072337e+003, 4.021878e+003
1.072819e+003, 4.021554e+003
1.073301e+003, 4.028909e+003
1.073783e+003, 4.029178e+003
1.074266e+003, 4.024666e+003
1.074748e+003, 4.019999e+003
1.075230e+003, 4.015944e+003
1.075712e+003, 4.013191e+003
1.076194e+003, 4.013518e+003
1.076676e+003, 4.013330e+003
1.077158e+003, 4.009536e+003
1.077640e+003, 4.002819e+003
1.078122e+003, 4.001617e+003
1.078604e+003, 4.005094e+003
1.079087e+003, 4.006231e+003
1.079569e+003, 3.999493e+003
1.080051e+003, 3.990866e+003
1.080533e+003, 3.980230e+003
1.081015e+003, 3.971586e+003
1.081497e+003, 3.973400e+003
1.081979e+003, 3.990726e+003
1.082461e+003, 3.992051e+003
1.082944e+003, 3.972797e+003
1.083426e+003, 3.952905e+003
1.083908e+003, 3.953193e+003
1.084390e+003, 3.962709e+003
1.084872e+003, 3.970978e+003
1.085354e+003, 3.976776e+003
1.085836e+003, 3.975807e+003
1.086318e+003, 3.962136e+003
1.086801e+003, 3.951994e+003
1.087283e+003, 3.948432e+003
1.087765e+003, 3.951583e+003
1.088247e+003, 3.964630e+003
1.088729e+003, 3.984330e+003
1.089211e+003, 4.003148e+003
1.089693e+003, 4.020680e+003
1.090175e+003, 4.031516e+003
1.090657e+003, 4.026029e+003
1.091140e+003, 4.020350e+003
1.091622e+003, 4.024288e+003
1.092104e+003, 4.036097e+003
1.092586e+003, 4.041627e+003
1.093068e+003, 4.041234e+003
1.093550e+003, 4.039815e+003
1.094032e+003, 4.045711e+003
1.094514e+003, 4.042213e+003
1.094997e+003, 4.006802e+003
1.095479e+003, 3.959611e+003
1.095961e+003, 3.927913e+003
1.096443e+003, 3.917201e+003
1.096925e+003, 3.904929e+003
1.097407e+003, 3.890072e+003
1.097889e+003, 3.879153e+003
1.098371e+003, 3.879961e+003
1.098854e+003, 3.885884e+003
1.099336e+003, 3.889896e+003
1.099818e+003, 3.891779e+003
1.100300e+003, 3.891684e+003
1.100782e+003, 3.890874e+003
1.101264e+003, 3.885147e+003
1.101746e+003, 3.871763e+003
1.102228e+003, 3.857855e+003
1.102710e+003, 3.856783e+003
1.103193e+003, 3.862016e+003
1.103675e+003, 3.855482e+003
1.104157e+003, 3.835129e+003
1.104639e+003, 3.816676e+003
1.105121e+003, 3.805592e+003
1.105603e+003, 3.799854e+003
1.106085e+003, 3.800773e+003
1.106567e+003, 3.804932e+003
1.107049e+003, 3.799707e+003
1.107531e+003, 3.786714e+003
1.108014e+003, 3.779901e+003
1.108496e+003, 3.784678e+003
1.108978e+003, 3.790040e+003
1.109460e+003, 3.790300e+003
1.109942e+003, 3.785947e+003
1.110424e+003, 3.776145e+003
1.110906e+003, 3.760638e+003
1.111388e+003, 3.749062e+003
1.111871e+003, 3.741573e+003
1.112353e+003, 3.735693e+003
1.112835e+003, 3.730577e+003
1.113317e+003, 3.726014e+003
1.113799e+003, 3.724542e+003
1.114281e+003, 3.722722e+003
1.114763e+003, 3.714153e+003
1.115245e+003, 3.690687e+003
1.115728e+003, 3.676982e+003
1.116210e+003, 3.675682e+003
1.116692e+003, 3.675714e+003
1.117174e+003, 3.665571e+003
1.117656e+003, 3.651757e+003
1.118138e+003, 3.648571e+003
1.118620e+003, 3.653084e+003
1.119102e+003, 3.652197e+003
1.119584e+003, 3.635041e+003
1.120067e+003, 3.620792e+003
1.120549e+003, 3.612917e+003
1.121031e+003, 3.608018e+003
1.121513e+003, 3.602031e+003
1.121995e+003, 3.595118e+003
1.122477e+003, 3.588320e+003
1.122959e+003, 3.581598e+003
1.123441e+003, 3.573685e+003
1.123924e+003, 3.563822e+003
1.124406e+003, 3.552433e+003
1.124888e+003, 3.537819e+003
1.125370e+003, 3.522854e+003
1.125852e+003, 3.516993e+003
1.126334e+003, 3.519360e+003
1.126816e+003, 3.519832e+003
1.127298e+003, 3.516134e+003
1.127781e+003, 3.510115e+003
1.128263e+003, 3.498632e+003
1.128745e+003, 3.489053e+003
1.129227e+003, 3.490450e+003
1.129709e+003, 3.501954e+003
1.130191e+003, 3.501015e+003
1.130673e+003, 3.486758e+003
1.131155e+003, 3.473624e+003
1.131637e+003, 3.467760e+003
1.132120e+003, 3.464774e+003
1.132602e+003, 3.461026e+003
1.133084e+003, 3.456698e+003
1.133566e+003, 3.452149e+003
1.134048e+003, 3.447404e+003
1.134530e+003, 3.442012e+003
1.135012e+003, 3.435687e+003
1.135494e+003, 3.429682e+003
1.135976e+003, 3.424548e+003
1.136458e+003, 3.420325e+003
1.136941e+003, 3.417324e+003
1.137423e+003, 3.415329e+003
1.137905e+003, 3.413799e+003
1.138387e+003, 3.415060e+003
1.138869e+003, 3.412829e+003
1.139351e+003, 3.406588e+003
1.139833e+003, 3.397345e+003
1.140315e+003, 3.382505e+003
1.140798e+003, 3.366555e+003
1.141280e+003, 3.362121e+003
1.141762e+003, 3.367876e+003
1.142244e+003, 3.372766e+003
1.142726e+003, 3.372148e+003
1.143208e+003, 3.370162e+003
1.143690e+003, 3.367466e+003
1.144172e+003, 3.364364e+003
1.144655e+003, 3.362163e+003
1.145137e+003, 3.360042e+003
1.145619e+003, 3.353033e+003
1.146101e+003, 3.340514e+003
1.146583e+003, 3.330661e+003
1.147065e+003, 3.329479e+003
1.147547e+003, 3.330569e+003
1.148029e+003, 3.331503e+003
1.148511e+003, 3.332085e+003
1.148994e+003, 3.331741e+003
1.149476e+003, 3.330516e+003
1.149958e+003, 3.328536e+003
1.150440e+003, 3.325635e+003
1.150922e+003, 3.322870e+003
1.151404e+003, 3.325145e+003
1.151886e+003, 3.324027e+003
1.152368e+003, 3.308870e+003
1.152851e+003, 3.282544e+003
1.153333e+003, 3.275307e+003
1.153815e+003, 3.287218e+003
1.154297e+003, 3.297521e+003
1.154779e+003, 3.297599e+003
1.155261e+003, 3.295163e+003
1.155743e+003, 3.297349e+003
1.156225e+003, 3.300811e+003
1.156708e+003, 3.302282e+003
1.157190e+003, 3.302309e+003
1.157672e+003, 3.293662e+003
1.158154e+003, 3.274586e+003
1.158636e+003, 3.262570e+003
1.159118e+003, 3.274348e+003
1.159600e+003, 3.290575e+003
1.160082e+003, 3.286340e+003
1.160564e+003, 3.272396e+003
1.161047e+003, 3.268331e+003
1.161529e+003, 3.286453e+003
1.162011e+003, 3.289762e+003
1.162493e+003, 3.274834e+003
1.162975e+003, 3.259062e+003
1.163457e+003, 3.257412e+003
1.163939e+003, 3.261899e+003
1.164421e+003, 3.260541e+003
1.164903e+003, 3.255764e+003
1.165385e+003, 3.255759e+003
1.165868e+003, 3.269315e+003
1.166350e+003, 3.273407e+003
1.166832e+003, 3.263640e+003
1.167314e+003, 3.251420e+003
1.167796e+003, 3.249408e+003
1.168278e+003, 3.252869e+003
1.168760e+003, 3.254782e+003
1.169242e+003, 3.254497e+003
1.169725e+003, 3.251104e+003
1.170207e+003, 3.238833e+003
1.170689e+003, 3.231983e+003
1.171171e+003, 3.234098e+003
1.171653e+003, 3.239885e+003
1.172135e+003, 3.242217e+003
1.172617e+003, 3.242388e+003
1.173099e+003, 3.243313e+003
1.173582e+003, 3.245308e+003
1.174064e+003, 3.247276e+003
1.174546e+003, 3.248790e+003
1.175028e+003, 3.250295e+003
1.175510e+003, 3.252168e+003
1.175992e+003, 3.253693e+003
1.176474e+003, 3.254660e+003
1.176956e+003, 3.253963e+003
1.177438e+003, 3.245689e+003
1.177921e+003, 3.226928e+003
1.178403e+003, 3.217209e+003
1.178885e+003, 3.234980e+003
1.179367e+003, 3.251419e+003
1.179849e+003, 3.253393e+003
1.180331e+003, 3.247093e+003
1.180813e+003, 3.254160e+003
1.181295e+003, 3.270007e+003
1.181778e+003, 3.275523e+003
1.182260e+003, 3.261226e+003
1.182742e+003, 3.251889e+003
1.183224e+003, 3.267390e+003
1.183706e+003, 3.282089e+003
1.184188e+003, 3.280193e+003
1.184670e+003, 3.265584e+003
1.185152e+003, 3.258934e+003
1.185635e+003, 3.259373e+003
1.186117e+003, 3.262712e+003
1.186599e+003, 3.269974e+003
1.187081e+003, 3.274310e+003
1.187563e+003, 3.267697e+003
1.188045e+003, 3.260894e+003
1.188527e+003, 3.263444e+003
1.189009e+003, 3.274154e+003
1.189491e+003, 3.276714e+003
1.189974e+003, 3.272048e+003
1.190456e+003, 3.266711e+003
1.190938e+003, 3.260902e+003
1.191420e+003, 3.259366e+003
1.191902e+003, 3.271092e+003
1.192384e+003, 3.283365e+003
1.192866e+003, 3.282115e+003
1.193348e+003, 3.266925e+003
1.193830e+003, 3.258666e+003
1.194313e+003, 3.257074e+003
1.194795e+003, 3.258454e+003
1.195277e+003, 3.262790e+003
1.195759e+003, 3.267031e+003
1.196241e+003, 3.270029e+003
1.196723e+003, 3.271579e+003
1.197205e+003, 3.270862e+003
1.197687e+003, 3.267785e+003
1.198169e+003, 3.267144e+003
1.198652e+003, 3.269079e+003
1.199134e+003, 3.270854e+003
1.199616e+003, 3.269631e+003
1.200098e+003, 3.268765e+003
1.200580e+003, 3.270418e+003
1.201062e+003, 3.273742e+003
1.201544e+003, 3.278115e+003
1.202026e+003, 3.283667e+003
1.202509e+003, 3.283838e+003
1.202991e+003, 3.277963e+003
1.203473e+003, 3.275596e+003
1.203955e+003, 3.288232e+003
1.204437e+003, 3.302091e+003
1.204919e+003, 3.309844e+003
1.205401e+003, 3.311652e+003
1.205883e+003, 3.305570e+003
1.206365e+003, 3.291194e+003
1.206848e+003, 3.286460e+003
1.207330e+003, 3.294166e+003
1.207812e+003, 3.303361e+003
1.208294e+003, 3.307745e+003
1.208776e+003, 3.308704e+003
1.209258e+003, 3.303757e+003
1.209740e+003, 3.296663e+003
1.210222e+003, 3.299292e+003
1.210705e+003, 3.311841e+003
1.211187e+003, 3.319856e+003
1.211669e+003, 3.320557e+003
1.212151e+003, 3.319173e+003
1.212633e+003, 3.320921e+003
1.213115e+003, 3.321241e+003
1.213597e+003, 3.313822e+003
1.214079e+003, 3.302252e+003
1.214562e+003, 3.300642e+003
1.215044e+003, 3.308752e+003
1.215526e+003, 3.315792e+003
1.216008e+003, 3.319451e+003
1.216490e+003, 3.320933e+003
1.216972e+003, 3.317098e+003
1.217454e+003, 3.315107e+003
1.217936e+003, 3.322145e+003
1.218418e+003, 3.335838e+003
1.218901e+003, 3.344544e+003
1.219383e+003, 3.348466e+003
1.219865e+003, 3.351581e+003
1.220347e+003, 3.355277e+003
1.220829e+003, 3.357269e+003
1.221311e+003, 3.355597e+003
1.221793e+003, 3.351546e+003
1.222275e+003, 3.343782e+003
1.222757e+003, 3.334093e+003
1.223240e+003, 3.337935e+003
1.223722e+003, 3.354109e+003
1.224204e+003, 3.366927e+003
1.224686e+003, 3.371237e+003
1.225168e+003, 3.370933e+003
1.225650e+003, 3.365663e+003
1.226132e+003, 3.359449e+003
1.226614e+003, 3.354618e+003
1.227096e+003, 3.351507e+003
1.227579e+003, 3.353444e+003
1.228061e+003, 3.360086e+003
1.228543e+003, 3.368995e+003
1.229025e+003, 3.381406e+003
1.229507e+003, 3.390457e+003
1.229989e+003, 3.388488e+003
1.230471e+003, 3.384534e+003
1.230953e+003, 3.385595e+003
1.231436e+003, 3.391107e+003
1.231918e+003, 3.396865e+003
1.232400e+003, 3.402636e+003
1.232882e+003, 3.406824e+003
1.233364e+003, 3.408704e+003
1.233846e+003, 3.409079e+003
1.234328e+003, 3.404982e+003
1.234810e+003, 3.402838e+003
1.235292e+003, 3.409413e+003
1.235775e+003, 3.422704e+003
1.236257e+003, 3.424452e+003
1.236739e+003, 3.417020e+003
1.237221e+003, 3.412936e+003
1.237703e+003, 3.418719e+003
1.238185e+003, 3.427164e+003
1.238667e+003, 3.439629e+003
1.239149e+003, 3.449576e+003
1.239632e+003, 3.450813e+003
1.240114e+003, 3.445083e+003
1.240596e+003, 3.443509e+003
1.241078e+003, 3.444884e+003
1.241560e+003, 3.443963e+003
1.242042e+003, 3.430542e+003
1.242524e+003, 3.426644e+003
1.243006e+003, 3.442669e+003
1.243489e+003, 3.462540e+003
1.243971e+003, 3.474795e+003
1.244453e+003, 3.480419e+003
1.244935e+003, 3.482127e+003
1.245417e+003, 3.480408e+003
1.245899e+003, 3.477016e+003
1.246381e+003, 3.468424e+003
1.246863e+003, 3.465180e+003
1.247345e+003, 3.471797e+003
1.247828e+003, 3.477982e+003
1.248310e+003, 3.470706e+003
1.248792e+003, 3.457567e+003
1.249274e+003, 3.461257e+003
1.249756e+003, 3.477552e+003
1.250238e+003, 3.491148e+003
1.250720e+003, 3.499381e+003
1.251202e+003, 3.498211e+003
1.251684e+003, 3.482999e+003
1.252167e+003, 3.469404e+003
1.252649e+003, 3.474740e+003
1.253131e+003, 3.489271e+003
1.253613e+003, 3.493952e+003
1.254095e+003, 3.491083e+003
1.254577e+003, 3.489374e+003
1.255059e+003, 3.493156e+003
1.255541e+003, 3.493363e+003
1.256023e+003, 3.488286e+003
1.256506e+003, 3.483839e+003
1.256988e+003, 3.488814e+003
1.257470e+003, 3.495136e+003
1.257952e+003, 3.487680e+003
1.258434e+003, 3.472030e+003
1.258916e+003, 3.466364e+003
1.259398e+003, 3.477341e+003
1.259880e+003, 3.483614e+003
1.260363e+003, 3.483164e+003
1.260845e+003, 3.483094e+003
1.261327e+003, 3.495715e+003
1.261809e+003, 3.506418e+003
1.262291e+003, 3.494413e+003
1.262773e+003, 3.469167e+003
1.263255e+003, 3.457066e+003
1.263737e+003, 3.462033e+003
1.264219e+003, 3.465284e+003
1.264702e+003, 3.465485e+003
1.265184e+003, 3.465572e+003
1.265666e+003, 3.467764e+003
1.266148e+003, 3.470808e+003
1.266630e+003, 3.474931e+003
1.267112e+003, 3.478765e+003
1.267594e+003, 3.479700e+003
1.268076e+003, 3.477638e+003
1.268559e+003, 3.474064e+003
1.269041e+003, 3.469128e+003
1.269523e+003, 3.465525e+003
1.270005e+003, 3.468529e+003
1.270487e+003, 3.469659e+003
1.270969e+003, 3.458718e+003
1.271451e+003, 3.446040e+003
1.271933e+003, 3.447331e+003
1.272416e+003, 3.461355e+003
1.272898e+003, 3.472771e+003
1.273380e+003, 3.480566e+003
1.273862e+003, 3.485830e+003
1.274344e+003, 3.487064e+003
1.274826e+003, 3.488583e+003
1.275308e+003, 3.493438e+003
1.275790e+003, 3.497636e+003
1.276272e+003, 3.494408e+003
1.276755e+003, 3.486286e+003
1.277237e+003, 3.483634e+003
1.277719e+003, 3.486188e+003
1.278201e+003, 3.487456e+003
1.278683e+003, 3.481297e+003
1.279165e+003, 3.478571e+003
1.279647e+003, 3.482104e+003
1.280129e+003, 3.487803e+003
1.280611e+003, 3.492413e+003
1.281094e+003, 3.495298e+003
1.281576e+003, 3.493943e+003
1.282058e+003, 3.489269e+003
1.282540e+003, 3.486250e+003
1.283022e+003, 3.486518e+003
1.283504e+003, 3.487549e+003
1.283986e+003, 3.488619e+003
1.284468e+003, 3.492053e+003
1.284950e+003, 3.505686e+003
1.285433e+003, 3.519246e+003
1.285915e+003, 3.515468e+003
1.286397e+003, 3.499033e+003
1.286879e+003, 3.489792e+003
1.287361e+003, 3.489872e+003
1.287843e+003, 3.495345e+003
1.288325e+003, 3.506672e+003
1.288807e+003, 3.516798e+003
1.289290e+003, 3.517559e+003
1.289772e+003, 3.516433e+003
1.290254e+003, 3.521141e+003
1.290736e+003, 3.528565e+003
1.291218e+003, 3.529904e+003
1.291700e+003, 3.524194e+003
1.292182e+003, 3.526870e+003
1.292664e+003, 3.538878e+003
1.293146e+003, 3.549456e+003
1.293629e+003, 3.550464e+003
1.294111e+003, 3.548497e+003
1.294593e+003, 3.545706e+003
1.295075e+003, 3.543094e+003
1.295557e+003, 3.542125e+003
1.296039e+003, 3.542561e+003
1.296521e+003, 3.541292e+003
1.297003e+003, 3.538694e+003
1.297486e+003, 3.539837e+003
1.297968e+003, 3.553350e+003
1.298450e+003, 3.563630e+003
1.298932e+003, 3.567773e+003
1.299414e+003, 3.566443e+003
1.299896e+003, 3.556021e+003
1.300378e+003, 3.541879e+003
1.300860e+003, 3.540558e+003
1.301343e+003, 3.550257e+003
1.301825e+003, 3.559611e+003
##END=



