##NAMES=Valentinite
##RRUFFID=R120096
##IDEAL CHEMISTRY=Sb^3+^_2_O_3_
##LOCALITY=China
##OWNER=RRUFF
##SOURCE=Rob Lavinsky
##DESCRIPTION=Radial spray of pale yellow and colorless bladed crystals
##STATUS=The identification of this mineral has been confirmed by single-crystal X-ray diffraction.
##URL=rruff.info/R120096
9.001007e+001, 0.000000e+000
9.049219e+001, 8.429784e+001
9.097430e+001, 8.235979e+001
9.145642e+001, 8.297353e+001
9.193854e+001, 8.589623e+001
9.242065e+001, 8.910311e+001
9.290277e+001, 9.148837e+001
9.338489e+001, 9.297836e+001
9.386700e+001, 9.329952e+001
9.434912e+001, 9.140027e+001
9.483124e+001, 8.855107e+001
9.531335e+001, 8.784624e+001
9.579547e+001, 8.955214e+001
9.627759e+001, 9.147058e+001
9.675970e+001, 9.036229e+001
9.724182e+001, 8.650624e+001
9.772394e+001, 8.369375e+001
9.820605e+001, 8.430244e+001
9.868817e+001, 8.797899e+001
9.917029e+001, 9.026413e+001
9.965240e+001, 9.096962e+001
1.001345e+002, 9.052176e+001
1.006166e+002, 8.935029e+001
1.010988e+002, 8.714164e+001
1.015809e+002, 8.553661e+001
1.020630e+002, 8.536726e+001
1.025451e+002, 8.671603e+001
1.030272e+002, 8.937306e+001
1.035093e+002, 9.437865e+001
1.039915e+002, 1.005823e+002
1.044736e+002, 1.028916e+002
1.049557e+002, 9.922311e+001
1.054378e+002, 9.463777e+001
1.059199e+002, 9.261418e+001
1.064020e+002, 9.433523e+001
1.068842e+002, 9.641978e+001
1.073663e+002, 9.867166e+001
1.078484e+002, 1.010786e+002
1.083305e+002, 1.031734e+002
1.088126e+002, 1.055438e+002
1.092947e+002, 1.072485e+002
1.097769e+002, 1.074092e+002
1.102590e+002, 1.038311e+002
1.107411e+002, 1.009325e+002
1.112232e+002, 9.978394e+001
1.117053e+002, 1.009524e+002
1.121874e+002, 1.014260e+002
1.126696e+002, 9.894161e+001
1.131517e+002, 9.617322e+001
1.136338e+002, 9.658599e+001
1.141159e+002, 1.058199e+002
1.145980e+002, 1.141013e+002
1.150801e+002, 1.175729e+002
1.155623e+002, 1.137938e+002
1.160444e+002, 1.099334e+002
1.165265e+002, 1.082549e+002
1.170086e+002, 1.078066e+002
1.174907e+002, 1.066842e+002
1.179728e+002, 1.022042e+002
1.184550e+002, 9.804645e+001
1.189371e+002, 9.664049e+001
1.194192e+002, 9.945708e+001
1.199013e+002, 1.036061e+002
1.203834e+002, 1.085845e+002
1.208655e+002, 1.139936e+002
1.213477e+002, 1.182906e+002
1.218298e+002, 1.204349e+002
1.223119e+002, 1.210550e+002
1.227940e+002, 1.207138e+002
1.232761e+002, 1.186241e+002
1.237582e+002, 1.164947e+002
1.242404e+002, 1.158992e+002
1.247225e+002, 1.167511e+002
1.252046e+002, 1.179857e+002
1.256867e+002, 1.189476e+002
1.261688e+002, 1.197076e+002
1.266509e+002, 1.203845e+002
1.271331e+002, 1.206325e+002
1.276152e+002, 1.209587e+002
1.280973e+002, 1.226061e+002
1.285794e+002, 1.257196e+002
1.290615e+002, 1.283987e+002
1.295436e+002, 1.283028e+002
1.300258e+002, 1.258974e+002
1.305079e+002, 1.232539e+002
1.309900e+002, 1.204035e+002
1.314721e+002, 1.179635e+002
1.319542e+002, 1.182325e+002
1.324363e+002, 1.217846e+002
1.329185e+002, 1.264759e+002
1.334006e+002, 1.294799e+002
1.338827e+002, 1.308032e+002
1.343648e+002, 1.307818e+002
1.348469e+002, 1.289234e+002
1.353290e+002, 1.254092e+002
1.358112e+002, 1.226962e+002
1.362933e+002, 1.207169e+002
1.367754e+002, 1.199499e+002
1.372575e+002, 1.222712e+002
1.377396e+002, 1.284321e+002
1.382217e+002, 1.343725e+002
1.387039e+002, 1.371633e+002
1.391860e+002, 1.362250e+002
1.396681e+002, 1.363658e+002
1.401502e+002, 1.384595e+002
1.406323e+002, 1.419676e+002
1.411144e+002, 1.446509e+002
1.415966e+002, 1.463844e+002
1.420787e+002, 1.475398e+002
1.425608e+002, 1.481823e+002
1.430429e+002, 1.478139e+002
1.435250e+002, 1.483632e+002
1.440071e+002, 1.504193e+002
1.444893e+002, 1.538876e+002
1.449714e+002, 1.567509e+002
1.454535e+002, 1.584256e+002
1.459356e+002, 1.600528e+002
1.464177e+002, 1.628416e+002
1.468998e+002, 1.686568e+002
1.473820e+002, 1.727322e+002
1.478641e+002, 1.735528e+002
1.483462e+002, 1.703998e+002
1.488283e+002, 1.690472e+002
1.493104e+002, 1.712647e+002
1.497925e+002, 1.744464e+002
1.502747e+002, 1.755414e+002
1.507568e+002, 1.710256e+002
1.512389e+002, 1.680312e+002
1.517210e+002, 1.680777e+002
1.522031e+002, 1.715476e+002
1.526852e+002, 1.767752e+002
1.531674e+002, 1.871162e+002
1.536495e+002, 1.985101e+002
1.541316e+002, 2.051597e+002
1.546137e+002, 2.000311e+002
1.550958e+002, 1.957662e+002
1.555779e+002, 1.963308e+002
1.560601e+002, 2.031402e+002
1.565422e+002, 2.121218e+002
1.570243e+002, 2.250479e+002
1.575064e+002, 2.396563e+002
1.579885e+002, 2.515665e+002
1.584706e+002, 2.548541e+002
1.589528e+002, 2.588783e+002
1.594349e+002, 2.682485e+002
1.599170e+002, 2.861519e+002
1.603991e+002, 3.050217e+002
1.608812e+002, 3.219980e+002
1.613633e+002, 3.382711e+002
1.618455e+002, 3.569655e+002
1.623276e+002, 3.772784e+002
1.628097e+002, 4.013759e+002
1.632918e+002, 4.311200e+002
1.637739e+002, 4.674280e+002
1.642560e+002, 5.084450e+002
1.647382e+002, 5.524625e+002
1.652203e+002, 6.002174e+002
1.657024e+002, 6.545281e+002
1.661845e+002, 7.171495e+002
1.666666e+002, 7.870490e+002
1.671487e+002, 8.624749e+002
1.676309e+002, 9.433862e+002
1.681130e+002, 1.030394e+003
1.685951e+002, 1.124991e+003
1.690772e+002, 1.226581e+003
1.695593e+002, 1.329216e+003
1.700414e+002, 1.428310e+003
1.705236e+002, 1.527204e+003
1.710057e+002, 1.628526e+003
1.714878e+002, 1.734630e+003
1.719699e+002, 1.843881e+003
1.724520e+002, 1.955675e+003
1.729341e+002, 2.070068e+003
1.734163e+002, 2.181549e+003
1.738984e+002, 2.283417e+003
1.743805e+002, 2.380868e+003
1.748626e+002, 2.479343e+003
1.753447e+002, 2.577716e+003
1.758268e+002, 2.681646e+003
1.763090e+002, 2.797104e+003
1.767911e+002, 2.923106e+003
1.772732e+002, 3.060552e+003
1.777553e+002, 3.198569e+003
1.782374e+002, 3.332988e+003
1.787195e+002, 3.469355e+003
1.792017e+002, 3.603519e+003
1.796838e+002, 3.744560e+003
1.801659e+002, 3.903559e+003
1.806480e+002, 4.082020e+003
1.811301e+002, 4.273916e+003
1.816122e+002, 4.474307e+003
1.820944e+002, 4.685691e+003
1.825765e+002, 4.911649e+003
1.830586e+002, 5.159606e+003
1.835407e+002, 5.422123e+003
1.840228e+002, 5.699311e+003
1.845049e+002, 5.990508e+003
1.849871e+002, 6.285910e+003
1.854692e+002, 6.573039e+003
1.859513e+002, 6.853711e+003
1.864334e+002, 7.120743e+003
1.869155e+002, 7.392394e+003
1.873976e+002, 7.652392e+003
1.878798e+002, 7.854198e+003
1.883619e+002, 7.998754e+003
1.888440e+002, 8.078794e+003
1.893261e+002, 8.076578e+003
1.898082e+002, 7.994612e+003
1.902903e+002, 7.857030e+003
1.907725e+002, 7.660651e+003
1.912546e+002, 7.411601e+003
1.917367e+002, 7.157966e+003
1.922188e+002, 6.897779e+003
1.927009e+002, 6.641432e+003
1.931830e+002, 6.406649e+003
1.936652e+002, 6.193883e+003
1.941473e+002, 6.006383e+003
1.946294e+002, 5.854259e+003
1.951115e+002, 5.735028e+003
1.955936e+002, 5.616793e+003
1.960757e+002, 5.492999e+003
1.965579e+002, 5.377087e+003
1.970400e+002, 5.293796e+003
1.975221e+002, 5.243399e+003
1.980042e+002, 5.219111e+003
1.984863e+002, 5.216184e+003
1.989684e+002, 5.234489e+003
1.994506e+002, 5.282338e+003
1.999327e+002, 5.363833e+003
2.004148e+002, 5.469348e+003
2.008969e+002, 5.578779e+003
2.013790e+002, 5.693082e+003
2.018611e+002, 5.811890e+003
2.023433e+002, 5.930191e+003
2.028254e+002, 6.045734e+003
2.033075e+002, 6.188716e+003
2.037896e+002, 6.363069e+003
2.042717e+002, 6.562463e+003
2.047538e+002, 6.770180e+003
2.052360e+002, 6.985833e+003
2.057181e+002, 7.210708e+003
2.062002e+002, 7.440176e+003
2.066823e+002, 7.669515e+003
2.071644e+002, 7.932689e+003
2.076465e+002, 8.234806e+003
2.081287e+002, 8.570018e+003
2.086108e+002, 8.928980e+003
2.090929e+002, 9.308215e+003
2.095750e+002, 9.721493e+003
2.100571e+002, 1.016656e+004
2.105392e+002, 1.063818e+004
2.110214e+002, 1.117562e+004
2.115035e+002, 1.179293e+004
2.119856e+002, 1.247272e+004
2.124677e+002, 1.318236e+004
2.129498e+002, 1.393544e+004
2.134319e+002, 1.469265e+004
2.139140e+002, 1.544995e+004
2.143962e+002, 1.622826e+004
2.148783e+002, 1.694337e+004
2.153604e+002, 1.760225e+004
2.158425e+002, 1.819064e+004
2.163246e+002, 1.863261e+004
2.168067e+002, 1.895002e+004
2.172889e+002, 1.908980e+004
2.177710e+002, 1.900375e+004
2.182531e+002, 1.863746e+004
2.187352e+002, 1.819799e+004
2.192173e+002, 1.767650e+004
2.196994e+002, 1.708782e+004
2.201816e+002, 1.652971e+004
2.206637e+002, 1.599409e+004
2.211458e+002, 1.548595e+004
2.216279e+002, 1.501013e+004
2.221100e+002, 1.455213e+004
2.225921e+002, 1.415522e+004
2.230743e+002, 1.383074e+004
2.235564e+002, 1.356992e+004
2.240385e+002, 1.331732e+004
2.245206e+002, 1.307842e+004
2.250027e+002, 1.284836e+004
2.254848e+002, 1.262526e+004
2.259670e+002, 1.241212e+004
2.264491e+002, 1.220414e+004
2.269312e+002, 1.200241e+004
2.274133e+002, 1.180602e+004
2.278954e+002, 1.159933e+004
2.283775e+002, 1.138490e+004
2.288597e+002, 1.116256e+004
2.293418e+002, 1.093237e+004
2.298239e+002, 1.068618e+004
2.303060e+002, 1.045172e+004
2.307881e+002, 1.023328e+004
2.312702e+002, 1.002801e+004
2.317524e+002, 9.831808e+003
2.322345e+002, 9.646177e+003
2.327166e+002, 9.470273e+003
2.331987e+002, 9.306008e+003
2.336808e+002, 9.154660e+003
2.341629e+002, 9.011545e+003
2.346451e+002, 8.871136e+003
2.351272e+002, 8.737661e+003
2.356093e+002, 8.628631e+003
2.360914e+002, 8.554028e+003
2.365735e+002, 8.490147e+003
2.370556e+002, 8.422724e+003
2.375378e+002, 8.342563e+003
2.380199e+002, 8.279115e+003
2.385020e+002, 8.234771e+003
2.389841e+002, 8.208218e+003
2.394662e+002, 8.196063e+003
2.399483e+002, 8.201178e+003
2.404305e+002, 8.217178e+003
2.409126e+002, 8.240603e+003
2.413947e+002, 8.269721e+003
2.418768e+002, 8.311047e+003
2.423589e+002, 8.369239e+003
2.428410e+002, 8.439417e+003
2.433232e+002, 8.504459e+003
2.438053e+002, 8.555710e+003
2.442874e+002, 8.613355e+003
2.447695e+002, 8.688520e+003
2.452516e+002, 8.792549e+003
2.457337e+002, 8.888044e+003
2.462159e+002, 8.965232e+003
2.466980e+002, 9.034357e+003
2.471801e+002, 9.127715e+003
2.476622e+002, 9.255752e+003
2.481443e+002, 9.393182e+003
2.486264e+002, 9.525211e+003
2.491086e+002, 9.642854e+003
2.495907e+002, 9.778877e+003
2.500728e+002, 9.939080e+003
2.505549e+002, 1.011649e+004
2.510370e+002, 1.029127e+004
2.515191e+002, 1.045593e+004
2.520013e+002, 1.063061e+004
2.524834e+002, 1.082519e+004
2.529655e+002, 1.103620e+004
2.534476e+002, 1.127236e+004
2.539297e+002, 1.154136e+004
2.544118e+002, 1.183172e+004
2.548940e+002, 1.212489e+004
2.553761e+002, 1.242168e+004
2.558582e+002, 1.272128e+004
2.563403e+002, 1.302464e+004
2.568224e+002, 1.333820e+004
2.573046e+002, 1.363253e+004
2.577867e+002, 1.391027e+004
2.582688e+002, 1.416407e+004
2.587509e+002, 1.437688e+004
2.592330e+002, 1.454114e+004
2.597151e+002, 1.467500e+004
2.601973e+002, 1.478297e+004
2.606794e+002, 1.485990e+004
2.611615e+002, 1.492347e+004
2.616436e+002, 1.496645e+004
2.621257e+002, 1.500175e+004
2.626078e+002, 1.504667e+004
2.630900e+002, 1.509260e+004
2.635721e+002, 1.516867e+004
2.640542e+002, 1.528664e+004
2.645363e+002, 1.545254e+004
2.650184e+002, 1.563156e+004
2.655005e+002, 1.582148e+004
2.659827e+002, 1.603080e+004
2.664648e+002, 1.627689e+004
2.669469e+002, 1.656261e+004
2.674290e+002, 1.687263e+004
2.679111e+002, 1.720865e+004
2.683932e+002, 1.757031e+004
2.688754e+002, 1.793733e+004
2.693575e+002, 1.830312e+004
2.698396e+002, 1.868288e+004
2.703217e+002, 1.908888e+004
2.708038e+002, 1.951871e+004
2.712859e+002, 1.997699e+004
2.717681e+002, 2.046311e+004
2.722502e+002, 2.097428e+004
2.727323e+002, 2.150738e+004
2.732144e+002, 2.205113e+004
2.736965e+002, 2.262102e+004
2.741786e+002, 2.323179e+004
2.746608e+002, 2.389306e+004
2.751429e+002, 2.457251e+004
2.756250e+002, 2.525647e+004
2.761071e+002, 2.594735e+004
2.765892e+002, 2.669660e+004
2.770714e+002, 2.749580e+004
2.775535e+002, 2.834397e+004
2.780356e+002, 2.924342e+004
2.785177e+002, 3.019656e+004
2.789998e+002, 3.117319e+004
2.794819e+002, 3.216596e+004
2.799641e+002, 3.318047e+004
2.804462e+002, 3.420888e+004
2.809283e+002, 3.526157e+004
2.814104e+002, 3.629587e+004
2.818925e+002, 3.730356e+004
2.823746e+002, 3.828550e+004
2.828568e+002, 3.919314e+004
2.833389e+002, 4.002257e+004
2.838210e+002, 4.077156e+004
2.843031e+002, 4.143243e+004
2.847852e+002, 4.200829e+004
2.852673e+002, 4.249864e+004
2.857495e+002, 4.288075e+004
2.862316e+002, 4.316407e+004
2.867137e+002, 4.346116e+004
2.871958e+002, 4.378720e+004
2.876779e+002, 4.413381e+004
2.881600e+002, 4.447982e+004
2.886422e+002, 4.482484e+004
2.891243e+002, 4.519211e+004
2.896064e+002, 4.559949e+004
2.900885e+002, 4.604038e+004
2.905706e+002, 4.647101e+004
2.910527e+002, 4.689304e+004
2.915349e+002, 4.728648e+004
2.920170e+002, 4.763466e+004
2.924991e+002, 4.793141e+004
2.929812e+002, 4.815008e+004
2.934633e+002, 4.826377e+004
2.939454e+002, 4.828502e+004
2.944276e+002, 4.825725e+004
2.949097e+002, 4.818870e+004
2.953918e+002, 4.804700e+004
2.958739e+002, 4.779321e+004
2.963560e+002, 4.743261e+004
2.968381e+002, 4.697565e+004
2.973203e+002, 4.642057e+004
2.978024e+002, 4.577995e+004
2.982845e+002, 4.506403e+004
2.987666e+002, 4.426786e+004
2.992487e+002, 4.342058e+004
2.997308e+002, 4.253271e+004
3.002130e+002, 4.160352e+004
3.006951e+002, 4.064578e+004
3.011772e+002, 3.966277e+004
3.016593e+002, 3.865769e+004
3.021414e+002, 3.760973e+004
3.026235e+002, 3.652843e+004
3.031057e+002, 3.544039e+004
3.035878e+002, 3.438382e+004
3.040699e+002, 3.334154e+004
3.045520e+002, 3.230104e+004
3.050341e+002, 3.123598e+004
3.055162e+002, 3.019408e+004
3.059984e+002, 2.921663e+004
3.064805e+002, 2.830700e+004
3.069626e+002, 2.742329e+004
3.074447e+002, 2.655628e+004
3.079268e+002, 2.569962e+004
3.084089e+002, 2.485563e+004
3.088911e+002, 2.401202e+004
3.093732e+002, 2.319945e+004
3.098553e+002, 2.245122e+004
3.103374e+002, 2.175996e+004
3.108195e+002, 2.108455e+004
3.113016e+002, 2.039806e+004
3.117838e+002, 1.972927e+004
3.122659e+002, 1.909919e+004
3.127480e+002, 1.852357e+004
3.132301e+002, 1.796720e+004
3.137122e+002, 1.739653e+004
3.141943e+002, 1.682251e+004
3.146765e+002, 1.628097e+004
3.151586e+002, 1.579935e+004
3.156407e+002, 1.534820e+004
3.161228e+002, 1.490405e+004
3.166049e+002, 1.446491e+004
3.170870e+002, 1.403994e+004
3.175692e+002, 1.363315e+004
3.180513e+002, 1.324620e+004
3.185334e+002, 1.288403e+004
3.190155e+002, 1.256277e+004
3.194976e+002, 1.225384e+004
3.199797e+002, 1.194570e+004
3.204619e+002, 1.163622e+004
3.209440e+002, 1.134176e+004
3.214261e+002, 1.107724e+004
3.219082e+002, 1.082811e+004
3.223903e+002, 1.058173e+004
3.228724e+002, 1.032632e+004
3.233546e+002, 1.008230e+004
3.238367e+002, 9.856549e+003
3.243188e+002, 9.648762e+003
3.248009e+002, 9.446840e+003
3.252830e+002, 9.256563e+003
3.257651e+002, 9.069033e+003
3.262473e+002, 8.879080e+003
3.267294e+002, 8.678400e+003
3.272115e+002, 8.484698e+003
3.276936e+002, 8.298010e+003
3.281757e+002, 8.120306e+003
3.286578e+002, 7.952276e+003
3.291400e+002, 7.796535e+003
3.296221e+002, 7.648277e+003
3.301042e+002, 7.504230e+003
3.305863e+002, 7.363110e+003
3.310684e+002, 7.227681e+003
3.315505e+002, 7.098971e+003
3.320327e+002, 6.976292e+003
3.325148e+002, 6.859694e+003
3.329969e+002, 6.749819e+003
3.334790e+002, 6.644365e+003
3.339611e+002, 6.541137e+003
3.344432e+002, 6.440180e+003
3.349254e+002, 6.339283e+003
3.354075e+002, 6.235839e+003
3.358896e+002, 6.135486e+003
3.363717e+002, 6.046953e+003
3.368538e+002, 5.974081e+003
3.373359e+002, 5.905636e+003
3.378180e+002, 5.840161e+003
3.383001e+002, 5.777919e+003
3.387823e+002, 5.714953e+003
3.392644e+002, 5.651861e+003
3.397465e+002, 5.588526e+003
3.402286e+002, 5.524417e+003
3.407107e+002, 5.459793e+003
3.411928e+002, 5.396305e+003
3.416750e+002, 5.334626e+003
3.421571e+002, 5.275092e+003
3.426392e+002, 5.222638e+003
3.431213e+002, 5.177217e+003
3.436034e+002, 5.136951e+003
3.440855e+002, 5.102456e+003
3.445677e+002, 5.073638e+003
3.450498e+002, 5.038905e+003
3.455319e+002, 4.994708e+003
3.460140e+002, 4.948048e+003
3.464961e+002, 4.914335e+003
3.469782e+002, 4.893177e+003
3.474604e+002, 4.871325e+003
3.479425e+002, 4.837784e+003
3.484246e+002, 4.796951e+003
3.489067e+002, 4.767854e+003
3.493888e+002, 4.753163e+003
3.498709e+002, 4.741838e+003
3.503531e+002, 4.720767e+003
3.508352e+002, 4.691712e+003
3.513173e+002, 4.661378e+003
3.517994e+002, 4.631012e+003
3.522815e+002, 4.601399e+003
3.527636e+002, 4.573545e+003
3.532458e+002, 4.547404e+003
3.537279e+002, 4.522872e+003
3.542100e+002, 4.499573e+003
3.546921e+002, 4.477805e+003
3.551742e+002, 4.458544e+003
3.556563e+002, 4.444852e+003
3.561385e+002, 4.430456e+003
3.566206e+002, 4.407489e+003
3.571027e+002, 4.377504e+003
3.575848e+002, 4.348985e+003
3.580669e+002, 4.329046e+003
3.585490e+002, 4.311689e+003
3.590312e+002, 4.290979e+003
3.595133e+002, 4.264113e+003
3.599954e+002, 4.237107e+003
3.604775e+002, 4.213225e+003
3.609596e+002, 4.191663e+003
3.614417e+002, 4.171058e+003
3.619239e+002, 4.155079e+003
3.624060e+002, 4.136529e+003
3.628881e+002, 4.108958e+003
3.633702e+002, 4.068981e+003
3.638523e+002, 4.034926e+003
3.643344e+002, 4.018779e+003
3.648166e+002, 4.009590e+003
3.652987e+002, 3.994741e+003
3.657808e+002, 3.964564e+003
3.662629e+002, 3.935586e+003
3.667450e+002, 3.913491e+003
3.672271e+002, 3.898313e+003
3.677093e+002, 3.880646e+003
3.681914e+002, 3.856096e+003
3.686735e+002, 3.830740e+003
3.691556e+002, 3.808366e+003
3.696377e+002, 3.793794e+003
3.701198e+002, 3.776792e+003
3.706020e+002, 3.754065e+003
3.710841e+002, 3.728169e+003
3.715662e+002, 3.708750e+003
3.720483e+002, 3.701323e+003
3.725304e+002, 3.693855e+003
3.730125e+002, 3.680987e+003
3.734947e+002, 3.660157e+003
3.739768e+002, 3.641334e+003
3.744589e+002, 3.624302e+003
3.749410e+002, 3.609230e+003
3.754231e+002, 3.597555e+003
3.759052e+002, 3.591502e+003
3.763874e+002, 3.582434e+003
3.768695e+002, 3.566786e+003
3.773516e+002, 3.544641e+003
3.778337e+002, 3.526465e+003
3.783158e+002, 3.512915e+003
3.787979e+002, 3.501032e+003
3.792801e+002, 3.488158e+003
3.797622e+002, 3.474152e+003
3.802443e+002, 3.460304e+003
3.807264e+002, 3.446265e+003
3.812085e+002, 3.432852e+003
3.816906e+002, 3.422460e+003
3.821728e+002, 3.415130e+003
3.826549e+002, 3.408617e+003
3.831370e+002, 3.401722e+003
3.836191e+002, 3.394382e+003
3.841012e+002, 3.386968e+003
3.845833e+002, 3.379566e+003
3.850655e+002, 3.371303e+003
3.855476e+002, 3.360662e+003
3.860297e+002, 3.348009e+003
3.865118e+002, 3.335367e+003
3.869939e+002, 3.322654e+003
3.874760e+002, 3.310833e+003
3.879582e+002, 3.301963e+003
3.884403e+002, 3.296056e+003
3.889224e+002, 3.290124e+003
3.894045e+002, 3.280846e+003
3.898866e+002, 3.270388e+003
3.903687e+002, 3.261876e+003
3.908509e+002, 3.258674e+003
3.913330e+002, 3.255445e+003
3.918151e+002, 3.247191e+003
3.922972e+002, 3.235280e+003
3.927793e+002, 3.225072e+003
3.932614e+002, 3.220624e+003
3.937436e+002, 3.218020e+003
3.942257e+002, 3.213988e+003
3.947078e+002, 3.206565e+003
3.951899e+002, 3.201175e+003
3.956720e+002, 3.199854e+003
3.961541e+002, 3.201707e+003
3.966363e+002, 3.205316e+003
3.971184e+002, 3.213445e+003
3.976005e+002, 3.220339e+003
3.980826e+002, 3.223686e+003
3.985647e+002, 3.222974e+003
3.990468e+002, 3.222104e+003
3.995290e+002, 3.220805e+003
4.000111e+002, 3.219847e+003
4.004932e+002, 3.219759e+003
4.009753e+002, 3.218446e+003
4.014574e+002, 3.220999e+003
4.019395e+002, 3.229909e+003
4.024217e+002, 3.243479e+003
4.029038e+002, 3.253242e+003
4.033859e+002, 3.256714e+003
4.038680e+002, 3.260051e+003
4.043501e+002, 3.266436e+003
4.048322e+002, 3.276891e+003
4.053144e+002, 3.286528e+003
4.057965e+002, 3.294763e+003
4.062786e+002, 3.302730e+003
4.067607e+002, 3.311708e+003
4.072428e+002, 3.321379e+003
4.077249e+002, 3.333957e+003
4.082071e+002, 3.351075e+003
4.086892e+002, 3.371863e+003
4.091713e+002, 3.389426e+003
4.096534e+002, 3.403037e+003
4.101355e+002, 3.418018e+003
4.106176e+002, 3.439715e+003
4.110998e+002, 3.467359e+003
4.115819e+002, 3.496752e+003
4.120640e+002, 3.528484e+003
4.125461e+002, 3.559257e+003
4.130282e+002, 3.580463e+003
4.135103e+002, 3.594322e+003
4.139925e+002, 3.614302e+003
4.144746e+002, 3.653146e+003
4.149567e+002, 3.701786e+003
4.154388e+002, 3.744923e+003
4.159209e+002, 3.781126e+003
4.164030e+002, 3.817485e+003
4.168852e+002, 3.860398e+003
4.173673e+002, 3.907840e+003
4.178494e+002, 3.956563e+003
4.183315e+002, 4.006510e+003
4.188136e+002, 4.056819e+003
4.192957e+002, 4.106696e+003
4.197779e+002, 4.156243e+003
4.202600e+002, 4.209006e+003
4.207421e+002, 4.262062e+003
4.212242e+002, 4.321640e+003
4.217063e+002, 4.391392e+003
4.221884e+002, 4.477102e+003
4.226706e+002, 4.565440e+003
4.231527e+002, 4.653293e+003
4.236348e+002, 4.742202e+003
4.241169e+002, 4.835289e+003
4.245990e+002, 4.936291e+003
4.250811e+002, 5.039556e+003
4.255633e+002, 5.142054e+003
4.260454e+002, 5.242449e+003
4.265275e+002, 5.351198e+003
4.270096e+002, 5.473511e+003
4.274917e+002, 5.601093e+003
4.279738e+002, 5.727036e+003
4.284560e+002, 5.846603e+003
4.289381e+002, 5.973620e+003
4.294202e+002, 6.110180e+003
4.299023e+002, 6.253241e+003
4.303844e+002, 6.401589e+003
4.308665e+002, 6.556767e+003
4.313487e+002, 6.710347e+003
4.318308e+002, 6.854976e+003
4.323129e+002, 6.989033e+003
4.327950e+002, 7.138681e+003
4.332771e+002, 7.308939e+003
4.337592e+002, 7.480876e+003
4.342414e+002, 7.626932e+003
4.347235e+002, 7.749885e+003
4.352056e+002, 7.883838e+003
4.356877e+002, 8.046389e+003
4.361698e+002, 8.221429e+003
4.366519e+002, 8.376623e+003
4.371341e+002, 8.512745e+003
4.376162e+002, 8.642955e+003
4.380983e+002, 8.778660e+003
4.385804e+002, 8.916220e+003
4.390625e+002, 9.050887e+003
4.395446e+002, 9.183782e+003
4.400268e+002, 9.307371e+003
4.405089e+002, 9.418577e+003
4.409910e+002, 9.515789e+003
4.414731e+002, 9.594131e+003
4.419552e+002, 9.653821e+003
4.424373e+002, 9.693016e+003
4.429195e+002, 9.711957e+003
4.434016e+002, 9.710441e+003
4.438837e+002, 9.685699e+003
4.443658e+002, 9.628931e+003
4.448479e+002, 9.552205e+003
4.453300e+002, 9.465877e+003
4.458122e+002, 9.377830e+003
4.462943e+002, 9.271504e+003
4.467764e+002, 9.140078e+003
4.472585e+002, 8.987778e+003
4.477406e+002, 8.825488e+003
4.482227e+002, 8.652873e+003
4.487049e+002, 8.470990e+003
4.491870e+002, 8.274240e+003
4.496691e+002, 8.059863e+003
4.501512e+002, 7.857966e+003
4.506333e+002, 7.674533e+003
4.511154e+002, 7.499908e+003
4.515976e+002, 7.324341e+003
4.520797e+002, 7.146634e+003
4.525618e+002, 6.977798e+003
4.530439e+002, 6.818028e+003
4.535260e+002, 6.669908e+003
4.540081e+002, 6.531923e+003
4.544903e+002, 6.403555e+003
4.549724e+002, 6.285943e+003
4.554545e+002, 6.181333e+003
4.559366e+002, 6.088792e+003
4.564187e+002, 5.992165e+003
4.569008e+002, 5.889772e+003
4.573830e+002, 5.793640e+003
4.578651e+002, 5.722810e+003
4.583472e+002, 5.671720e+003
4.588293e+002, 5.626292e+003
4.593114e+002, 5.581427e+003
4.597935e+002, 5.539633e+003
4.602757e+002, 5.502222e+003
4.607578e+002, 5.469672e+003
4.612399e+002, 5.443653e+003
4.617220e+002, 5.426884e+003
4.622041e+002, 5.416143e+003
4.626862e+002, 5.408990e+003
4.631684e+002, 5.405327e+003
4.636505e+002, 5.404290e+003
4.641326e+002, 5.403528e+003
4.646147e+002, 5.405831e+003
4.650968e+002, 5.414889e+003
4.655789e+002, 5.435640e+003
4.660611e+002, 5.459338e+003
4.665432e+002, 5.481788e+003
4.670253e+002, 5.503742e+003
4.675074e+002, 5.534193e+003
4.679895e+002, 5.573814e+003
4.684716e+002, 5.622705e+003
4.689538e+002, 5.680963e+003
4.694359e+002, 5.749644e+003
4.699180e+002, 5.823681e+003
4.704001e+002, 5.903800e+003
4.708822e+002, 5.989438e+003
4.713643e+002, 6.080429e+003
4.718465e+002, 6.177150e+003
4.723286e+002, 6.277623e+003
4.728107e+002, 6.380461e+003
4.732928e+002, 6.485530e+003
4.737749e+002, 6.601331e+003
4.742570e+002, 6.727565e+003
4.747392e+002, 6.863081e+003
4.752213e+002, 7.005671e+003
4.757034e+002, 7.156141e+003
4.761855e+002, 7.320802e+003
4.766676e+002, 7.501151e+003
4.771497e+002, 7.693850e+003
4.776319e+002, 7.890615e+003
4.781140e+002, 8.094083e+003
4.785961e+002, 8.310271e+003
4.790782e+002, 8.542463e+003
4.795603e+002, 8.788414e+003
4.800424e+002, 9.042669e+003
4.805246e+002, 9.307623e+003
4.810067e+002, 9.592337e+003
4.814888e+002, 9.904208e+003
4.819709e+002, 1.023711e+004
4.824530e+002, 1.058512e+004
4.829352e+002, 1.094788e+004
4.834173e+002, 1.132347e+004
4.838994e+002, 1.171218e+004
4.843815e+002, 1.211448e+004
4.848636e+002, 1.252702e+004
4.853457e+002, 1.294843e+004
4.858279e+002, 1.337890e+004
4.863100e+002, 1.382047e+004
4.867921e+002, 1.427487e+004
4.872742e+002, 1.472831e+004
4.877563e+002, 1.518916e+004
4.882384e+002, 1.564624e+004
4.887206e+002, 1.608933e+004
4.892027e+002, 1.651034e+004
4.896848e+002, 1.693534e+004
4.901669e+002, 1.736772e+004
4.906490e+002, 1.780154e+004
4.911311e+002, 1.823297e+004
4.916133e+002, 1.865568e+004
4.920954e+002, 1.909456e+004
4.925775e+002, 1.956229e+004
4.930596e+002, 2.005064e+004
4.935417e+002, 2.053472e+004
4.940238e+002, 2.101213e+004
4.945060e+002, 2.149581e+004
4.949881e+002, 2.200589e+004
4.954702e+002, 2.252537e+004
4.959523e+002, 2.303098e+004
4.964344e+002, 2.351942e+004
4.969165e+002, 2.397818e+004
4.973987e+002, 2.439776e+004
4.978808e+002, 2.478000e+004
4.983629e+002, 2.512012e+004
4.988450e+002, 2.542391e+004
4.993271e+002, 2.567989e+004
4.998092e+002, 2.589137e+004
5.002914e+002, 2.605382e+004
5.007735e+002, 2.612624e+004
5.012556e+002, 2.607554e+004
5.017377e+002, 2.594695e+004
5.022198e+002, 2.577064e+004
5.027019e+002, 2.556226e+004
5.031841e+002, 2.527171e+004
5.036662e+002, 2.486098e+004
5.041483e+002, 2.437661e+004
5.046304e+002, 2.387677e+004
5.051125e+002, 2.337321e+004
5.055946e+002, 2.284570e+004
5.060768e+002, 2.228225e+004
5.065589e+002, 2.168943e+004
5.070410e+002, 2.108685e+004
5.075231e+002, 2.047022e+004
5.080052e+002, 1.985752e+004
5.084873e+002, 1.924766e+004
5.089695e+002, 1.864805e+004
5.094516e+002, 1.805411e+004
5.099337e+002, 1.746247e+004
5.104158e+002, 1.688985e+004
5.108979e+002, 1.636479e+004
5.113800e+002, 1.587548e+004
5.118622e+002, 1.538826e+004
5.123443e+002, 1.488178e+004
5.128264e+002, 1.438974e+004
5.133085e+002, 1.395262e+004
5.137906e+002, 1.356294e+004
5.142728e+002, 1.319370e+004
5.147549e+002, 1.283263e+004
5.152370e+002, 1.248370e+004
5.157191e+002, 1.215022e+004
5.162012e+002, 1.183126e+004
5.166833e+002, 1.152831e+004
5.171655e+002, 1.124211e+004
5.176476e+002, 1.096902e+004
5.181297e+002, 1.070589e+004
5.186118e+002, 1.044916e+004
5.190939e+002, 1.020598e+004
5.195760e+002, 9.979246e+003
5.200582e+002, 9.767994e+003
5.205403e+002, 9.562145e+003
5.210224e+002, 9.361483e+003
5.215045e+002, 9.169776e+003
5.219866e+002, 8.988822e+003
5.224688e+002, 8.817841e+003
5.229509e+002, 8.652998e+003
5.234330e+002, 8.493229e+003
5.239151e+002, 8.339389e+003
5.243972e+002, 8.192486e+003
5.248793e+002, 8.053192e+003
5.253615e+002, 7.916020e+003
5.258436e+002, 7.779155e+003
5.263257e+002, 7.644865e+003
5.268078e+002, 7.521185e+003
5.272899e+002, 7.405363e+003
5.277720e+002, 7.286165e+003
5.282542e+002, 7.156832e+003
5.287363e+002, 7.025226e+003
5.292184e+002, 6.899398e+003
5.297005e+002, 6.780011e+003
5.301826e+002, 6.664405e+003
5.306647e+002, 6.551169e+003
5.311469e+002, 6.441503e+003
5.316290e+002, 6.335522e+003
5.321111e+002, 6.234723e+003
5.325932e+002, 6.133935e+003
5.330753e+002, 6.030812e+003
5.335574e+002, 5.926697e+003
5.340396e+002, 5.824708e+003
5.345217e+002, 5.720679e+003
5.350038e+002, 5.623341e+003
5.354859e+002, 5.534132e+003
5.359680e+002, 5.451995e+003
5.364501e+002, 5.372563e+003
5.369323e+002, 5.296462e+003
5.374144e+002, 5.222212e+003
5.378965e+002, 5.150024e+003
5.383786e+002, 5.080176e+003
5.388607e+002, 5.009352e+003
5.393428e+002, 4.935995e+003
5.398250e+002, 4.868035e+003
5.403071e+002, 4.817749e+003
5.407892e+002, 4.783392e+003
5.412713e+002, 4.741537e+003
5.417534e+002, 4.687779e+003
5.422355e+002, 4.628809e+003
5.427177e+002, 4.569559e+003
5.431998e+002, 4.511811e+003
5.436819e+002, 4.462903e+003
5.441640e+002, 4.433841e+003
5.446461e+002, 4.410396e+003
5.451282e+002, 4.377548e+003
5.456104e+002, 4.337235e+003
5.460925e+002, 4.300733e+003
5.465746e+002, 4.275939e+003
5.470567e+002, 4.255649e+003
5.475388e+002, 4.234884e+003
5.480209e+002, 4.212546e+003
5.485031e+002, 4.191436e+003
5.489852e+002, 4.172880e+003
5.494673e+002, 4.155312e+003
5.499494e+002, 4.136955e+003
5.504315e+002, 4.115855e+003
5.509136e+002, 4.096876e+003
5.513958e+002, 4.080479e+003
5.518779e+002, 4.066419e+003
5.523600e+002, 4.054284e+003
5.528421e+002, 4.043932e+003
5.533242e+002, 4.035665e+003
5.538063e+002, 4.029952e+003
5.542885e+002, 4.026559e+003
5.547706e+002, 4.023901e+003
5.552527e+002, 4.022052e+003
5.557348e+002, 4.020318e+003
5.562169e+002, 4.018491e+003
5.566990e+002, 4.016340e+003
5.571812e+002, 4.012547e+003
5.576633e+002, 4.006191e+003
5.581454e+002, 4.001137e+003
5.586275e+002, 4.000801e+003
5.591096e+002, 4.004458e+003
5.595917e+002, 4.010818e+003
5.600739e+002, 4.018641e+003
5.605560e+002, 4.029670e+003
5.610381e+002, 4.047089e+003
5.615202e+002, 4.069091e+003
5.620023e+002, 4.088472e+003
5.624844e+002, 4.099459e+003
5.629666e+002, 4.110819e+003
5.634487e+002, 4.125833e+003
5.639308e+002, 4.144202e+003
5.644129e+002, 4.167649e+003
5.648950e+002, 4.200394e+003
5.653771e+002, 4.233536e+003
5.658593e+002, 4.258960e+003
5.663414e+002, 4.273973e+003
5.668235e+002, 4.293198e+003
5.673056e+002, 4.318966e+003
5.677877e+002, 4.348488e+003
5.682698e+002, 4.375883e+003
5.687520e+002, 4.401727e+003
5.692341e+002, 4.431558e+003
5.697162e+002, 4.468802e+003
5.701983e+002, 4.510799e+003
5.706804e+002, 4.554486e+003
5.711625e+002, 4.599573e+003
5.716447e+002, 4.644906e+003
5.721268e+002, 4.685858e+003
5.726089e+002, 4.729097e+003
5.730910e+002, 4.780593e+003
5.735731e+002, 4.841912e+003
5.740552e+002, 4.908288e+003
5.745374e+002, 4.983302e+003
5.750195e+002, 5.060234e+003
5.755016e+002, 5.133068e+003
5.759837e+002, 5.189763e+003
5.764658e+002, 5.255418e+003
5.769479e+002, 5.337057e+003
5.774301e+002, 5.428219e+003
5.779122e+002, 5.515866e+003
5.783943e+002, 5.594241e+003
5.788764e+002, 5.682307e+003
5.793585e+002, 5.787270e+003
5.798406e+002, 5.906677e+003
5.803228e+002, 6.023386e+003
5.808049e+002, 6.136585e+003
5.812870e+002, 6.251495e+003
5.817691e+002, 6.374622e+003
5.822512e+002, 6.503475e+003
5.827333e+002, 6.628509e+003
5.832155e+002, 6.749134e+003
5.836975e+002, 6.871543e+003
5.841796e+002, 7.005720e+003
5.846617e+002, 7.147537e+003
5.851439e+002, 7.290604e+003
5.856260e+002, 7.431323e+003
5.861081e+002, 7.576612e+003
5.865902e+002, 7.736577e+003
5.870723e+002, 7.904232e+003
5.875544e+002, 8.062850e+003
5.880366e+002, 8.201396e+003
5.885187e+002, 8.340327e+003
5.890008e+002, 8.487117e+003
5.894829e+002, 8.641471e+003
5.899650e+002, 8.793561e+003
5.904471e+002, 8.947038e+003
5.909293e+002, 9.093615e+003
5.914114e+002, 9.229325e+003
5.918935e+002, 9.355689e+003
5.923756e+002, 9.463362e+003
5.928577e+002, 9.550869e+003
5.933398e+002, 9.623971e+003
5.938220e+002, 9.693623e+003
5.943041e+002, 9.757525e+003
5.947862e+002, 9.798275e+003
5.952683e+002, 9.814024e+003
5.957504e+002, 9.802550e+003
5.962325e+002, 9.756021e+003
5.967147e+002, 9.679681e+003
5.971968e+002, 9.588240e+003
5.976789e+002, 9.492199e+003
5.981610e+002, 9.379604e+003
5.986431e+002, 9.238879e+003
5.991252e+002, 9.073137e+003
5.996074e+002, 8.895354e+003
6.000895e+002, 8.701299e+003
6.005716e+002, 8.502354e+003
6.010537e+002, 8.304466e+003
6.015358e+002, 8.112186e+003
6.020179e+002, 7.908363e+003
6.025001e+002, 7.681397e+003
6.029822e+002, 7.453546e+003
6.034643e+002, 7.241124e+003
6.039464e+002, 7.044263e+003
6.044285e+002, 6.855941e+003
6.049106e+002, 6.675104e+003
6.053928e+002, 6.500750e+003
6.058749e+002, 6.326028e+003
6.063570e+002, 6.151088e+003
6.068391e+002, 5.988073e+003
6.073212e+002, 5.842410e+003
6.078033e+002, 5.708441e+003
6.082855e+002, 5.575918e+003
6.087676e+002, 5.446820e+003
6.092497e+002, 5.323513e+003
6.097318e+002, 5.209658e+003
6.102139e+002, 5.101741e+003
6.106960e+002, 5.000428e+003
6.111782e+002, 4.905346e+003
6.116603e+002, 4.809242e+003
6.121424e+002, 4.702013e+003
6.126245e+002, 4.597368e+003
6.131066e+002, 4.504824e+003
6.135887e+002, 4.430702e+003
6.140709e+002, 4.353608e+003
6.145530e+002, 4.269538e+003
6.150351e+002, 4.185374e+003
6.155172e+002, 4.107460e+003
6.159993e+002, 4.036223e+003
6.164814e+002, 3.966226e+003
6.169636e+002, 3.896486e+003
6.174457e+002, 3.828111e+003
6.179278e+002, 3.760908e+003
6.184099e+002, 3.695267e+003
6.188920e+002, 3.635488e+003
6.193741e+002, 3.584659e+003
6.198563e+002, 3.538857e+003
6.203384e+002, 3.494579e+003
6.208205e+002, 3.451419e+003
6.213026e+002, 3.407477e+003
6.217847e+002, 3.357559e+003
6.222668e+002, 3.309138e+003
6.227490e+002, 3.270356e+003
6.232311e+002, 3.242605e+003
6.237132e+002, 3.213332e+003
6.241953e+002, 3.177339e+003
6.246774e+002, 3.140072e+003
6.251595e+002, 3.105152e+003
6.256417e+002, 3.072258e+003
6.261238e+002, 3.042374e+003
6.266059e+002, 3.015279e+003
6.270880e+002, 2.991892e+003
6.275701e+002, 2.975213e+003
6.280522e+002, 2.966248e+003
6.285344e+002, 2.954320e+003
6.290165e+002, 2.936797e+003
6.294986e+002, 2.915696e+003
6.299807e+002, 2.892304e+003
6.304628e+002, 2.867699e+003
6.309449e+002, 2.848351e+003
6.314271e+002, 2.841906e+003
6.319092e+002, 2.839150e+003
6.323913e+002, 2.829741e+003
6.328734e+002, 2.814457e+003
6.333555e+002, 2.799195e+003
6.338376e+002, 2.786037e+003
6.343198e+002, 2.774276e+003
6.348019e+002, 2.763304e+003
6.352840e+002, 2.752908e+003
6.357661e+002, 2.743975e+003
6.362482e+002, 2.737462e+003
6.367303e+002, 2.731617e+003
6.372125e+002, 2.725333e+003
6.376946e+002, 2.718585e+003
6.381767e+002, 2.711464e+003
6.386588e+002, 2.704007e+003
6.391409e+002, 2.696211e+003
6.396230e+002, 2.686659e+003
6.401052e+002, 2.675739e+003
6.405873e+002, 2.670717e+003
6.410694e+002, 2.675715e+003
6.415515e+002, 2.683644e+003
6.420336e+002, 2.682852e+003
6.425157e+002, 2.675951e+003
6.429979e+002, 2.670532e+003
6.434800e+002, 2.672497e+003
6.439621e+002, 2.675496e+003
6.444442e+002, 2.674145e+003
6.449263e+002, 2.669361e+003
6.454084e+002, 2.666982e+003
6.458906e+002, 2.672521e+003
6.463727e+002, 2.677730e+003
6.468548e+002, 2.677444e+003
6.473369e+002, 2.670223e+003
6.478190e+002, 2.669123e+003
6.483011e+002, 2.678228e+003
6.487833e+002, 2.687360e+003
6.492654e+002, 2.687694e+003
6.497475e+002, 2.678222e+003
6.502296e+002, 2.672505e+003
6.507117e+002, 2.671523e+003
6.511938e+002, 2.673357e+003
6.516760e+002, 2.675333e+003
6.521581e+002, 2.678164e+003
6.526402e+002, 2.684477e+003
6.531223e+002, 2.696449e+003
6.536044e+002, 2.708908e+003
6.540865e+002, 2.717710e+003
6.545687e+002, 2.723750e+003
6.550508e+002, 2.728833e+003
6.555329e+002, 2.733891e+003
6.560150e+002, 2.737916e+003
6.564971e+002, 2.739515e+003
6.569792e+002, 2.739417e+003
6.574614e+002, 2.741407e+003
6.579435e+002, 2.746351e+003
6.584256e+002, 2.752292e+003
6.589077e+002, 2.758388e+003
6.593898e+002, 2.764707e+003
6.598719e+002, 2.773496e+003
6.603541e+002, 2.785167e+003
6.608362e+002, 2.797304e+003
6.613183e+002, 2.808510e+003
6.618004e+002, 2.818818e+003
6.622825e+002, 2.828558e+003
6.627646e+002, 2.837672e+003
6.632468e+002, 2.847664e+003
6.637289e+002, 2.860366e+003
6.642110e+002, 2.874570e+003
6.646931e+002, 2.888540e+003
6.651752e+002, 2.901413e+003
6.656573e+002, 2.915504e+003
6.661395e+002, 2.933022e+003
6.666216e+002, 2.952031e+003
6.671037e+002, 2.970137e+003
6.675858e+002, 2.983056e+003
6.680679e+002, 3.000491e+003
6.685500e+002, 3.024918e+003
6.690322e+002, 3.053436e+003
6.695143e+002, 3.078686e+003
6.699964e+002, 3.099786e+003
6.704785e+002, 3.122392e+003
6.709606e+002, 3.147923e+003
6.714427e+002, 3.176427e+003
6.719249e+002, 3.208881e+003
6.724070e+002, 3.244834e+003
6.728891e+002, 3.279831e+003
6.733712e+002, 3.308812e+003
6.738533e+002, 3.336584e+003
6.743354e+002, 3.369964e+003
6.748176e+002, 3.408385e+003
6.752997e+002, 3.443180e+003
6.757818e+002, 3.463194e+003
6.762639e+002, 3.483005e+003
6.767460e+002, 3.513977e+003
6.772281e+002, 3.562087e+003
6.777103e+002, 3.599628e+003
6.781924e+002, 3.621999e+003
6.786745e+002, 3.637339e+003
6.791566e+002, 3.650700e+003
6.796387e+002, 3.661137e+003
6.801208e+002, 3.675661e+003
6.806030e+002, 3.696994e+003
6.810851e+002, 3.716532e+003
6.815672e+002, 3.724070e+003
6.820493e+002, 3.720772e+003
6.825314e+002, 3.711305e+003
6.830135e+002, 3.695506e+003
6.834957e+002, 3.677048e+003
6.839778e+002, 3.662009e+003
6.844599e+002, 3.646835e+003
6.849420e+002, 3.625523e+003
6.854241e+002, 3.588936e+003
6.859063e+002, 3.552693e+003
6.863884e+002, 3.525766e+003
6.868705e+002, 3.504179e+003
6.873526e+002, 3.473177e+003
6.878347e+002, 3.423915e+003
6.883168e+002, 3.376618e+003
6.887990e+002, 3.337479e+003
6.892811e+002, 3.304976e+003
6.897632e+002, 3.272523e+003
6.902453e+002, 3.240224e+003
6.907274e+002, 3.208135e+003
6.912095e+002, 3.175394e+003
6.916917e+002, 3.143321e+003
6.921738e+002, 3.117108e+003
6.926559e+002, 3.096749e+003
6.931380e+002, 3.074075e+003
6.936201e+002, 3.038430e+003
6.941022e+002, 3.000481e+003
6.945844e+002, 2.970405e+003
6.950665e+002, 2.950422e+003
6.955486e+002, 2.933295e+003
6.960307e+002, 2.919651e+003
6.965128e+002, 2.905878e+003
6.969949e+002, 2.888669e+003
6.974771e+002, 2.864914e+003
6.979592e+002, 2.844190e+003
6.984413e+002, 2.826553e+003
6.989234e+002, 2.812179e+003
6.994055e+002, 2.802618e+003
6.998876e+002, 2.798037e+003
7.003698e+002, 2.790800e+003
7.008519e+002, 2.778814e+003
7.013340e+002, 2.766246e+003
7.018161e+002, 2.759869e+003
7.022982e+002, 2.757638e+003
7.027803e+002, 2.754375e+003
7.032625e+002, 2.747864e+003
7.037446e+002, 2.740061e+003
7.042267e+002, 2.731470e+003
7.047088e+002, 2.722619e+003
7.051909e+002, 2.714729e+003
7.056730e+002, 2.707564e+003
7.061552e+002, 2.702155e+003
7.066373e+002, 2.699738e+003
7.071194e+002, 2.699315e+003
7.076015e+002, 2.696133e+003
7.080836e+002, 2.689276e+003
7.085657e+002, 2.682287e+003
7.090479e+002, 2.676492e+003
7.095300e+002, 2.671647e+003
7.100121e+002, 2.667083e+003
7.104942e+002, 2.662727e+003
7.109763e+002, 2.657857e+003
7.114584e+002, 2.652213e+003
7.119406e+002, 2.645578e+003
7.124227e+002, 2.636089e+003
7.129048e+002, 2.623885e+003
7.133869e+002, 2.615641e+003
7.138690e+002, 2.621109e+003
7.143511e+002, 2.626921e+003
7.148333e+002, 2.623220e+003
7.153154e+002, 2.604464e+003
7.157975e+002, 2.591436e+003
7.162796e+002, 2.587776e+003
7.167617e+002, 2.585525e+003
7.172438e+002, 2.577768e+003
7.177260e+002, 2.563892e+003
7.182081e+002, 2.552466e+003
7.186902e+002, 2.544413e+003
7.191723e+002, 2.537582e+003
7.196544e+002, 2.530482e+003
7.201365e+002, 2.522677e+003
7.206187e+002, 2.512191e+003
7.211008e+002, 2.496750e+003
7.215829e+002, 2.483857e+003
7.220650e+002, 2.480501e+003
7.225471e+002, 2.482513e+003
7.230292e+002, 2.484254e+003
7.235114e+002, 2.487577e+003
7.239935e+002, 2.486150e+003
7.244756e+002, 2.475850e+003
7.249577e+002, 2.461348e+003
7.254398e+002, 2.449969e+003
7.259219e+002, 2.442017e+003
7.264041e+002, 2.436809e+003
7.268862e+002, 2.435378e+003
7.273683e+002, 2.435292e+003
7.278504e+002, 2.430482e+003
7.283325e+002, 2.421498e+003
7.288146e+002, 2.411804e+003
7.292968e+002, 2.400464e+003
7.297789e+002, 2.391463e+003
7.302610e+002, 2.392327e+003
7.307431e+002, 2.399907e+003
7.312252e+002, 2.403771e+003
7.317073e+002, 2.396180e+003
7.321895e+002, 2.387073e+003
7.326716e+002, 2.380437e+003
7.331537e+002, 2.376320e+003
7.336358e+002, 2.372521e+003
7.341179e+002, 2.369907e+003
7.346000e+002, 2.366045e+003
7.350822e+002, 2.359470e+003
7.355643e+002, 2.350566e+003
7.360464e+002, 2.343195e+003
7.365285e+002, 2.337400e+003
7.370106e+002, 2.332534e+003
7.374927e+002, 2.327944e+003
7.379749e+002, 2.324060e+003
7.384570e+002, 2.321423e+003
7.389391e+002, 2.320108e+003
7.394212e+002, 2.320504e+003
7.399033e+002, 2.326361e+003
7.403854e+002, 2.331490e+003
7.408676e+002, 2.330619e+003
7.413497e+002, 2.321022e+003
7.418318e+002, 2.313987e+003
7.423139e+002, 2.311530e+003
7.427960e+002, 2.310211e+003
7.432781e+002, 2.308034e+003
7.437603e+002, 2.305125e+003
7.442424e+002, 2.300012e+003
7.447245e+002, 2.292156e+003
7.452066e+002, 2.284183e+003
7.456887e+002, 2.277497e+003
7.461708e+002, 2.272869e+003
7.466530e+002, 2.273352e+003
7.471351e+002, 2.280461e+003
7.476172e+002, 2.287387e+003
7.480993e+002, 2.288641e+003
7.485814e+002, 2.287186e+003
7.490635e+002, 2.286303e+003
7.495457e+002, 2.287090e+003
7.500278e+002, 2.287873e+003
7.505099e+002, 2.287921e+003
7.509920e+002, 2.288131e+003
7.514741e+002, 2.290445e+003
7.519562e+002, 2.296528e+003
7.524384e+002, 2.296157e+003
7.529205e+002, 2.285560e+003
7.534026e+002, 2.272993e+003
7.538847e+002, 2.273566e+003
7.543668e+002, 2.284095e+003
7.548489e+002, 2.291835e+003
7.553311e+002, 2.292068e+003
7.558132e+002, 2.289758e+003
7.562953e+002, 2.288480e+003
7.567774e+002, 2.287833e+003
7.572595e+002, 2.287145e+003
7.577416e+002, 2.286274e+003
7.582238e+002, 2.285301e+003
7.587059e+002, 2.283966e+003
7.591880e+002, 2.282660e+003
7.596701e+002, 2.282582e+003
7.601522e+002, 2.284834e+003
7.606343e+002, 2.284434e+003
7.611165e+002, 2.278495e+003
7.615986e+002, 2.270832e+003
7.620807e+002, 2.272152e+003
7.625628e+002, 2.280979e+003
7.630449e+002, 2.288640e+003
7.635270e+002, 2.291294e+003
7.640092e+002, 2.290810e+003
7.644913e+002, 2.286511e+003
7.649734e+002, 2.280202e+003
7.654555e+002, 2.277438e+003
7.659376e+002, 2.284239e+003
7.664197e+002, 2.290687e+003
7.669019e+002, 2.292683e+003
7.673840e+002, 2.291269e+003
7.678661e+002, 2.291570e+003
7.683482e+002, 2.294499e+003
7.688303e+002, 2.296442e+003
7.693124e+002, 2.296012e+003
7.697946e+002, 2.293464e+003
7.702767e+002, 2.288426e+003
7.707588e+002, 2.281336e+003
7.712409e+002, 2.276309e+003
7.717230e+002, 2.276623e+003
7.722051e+002, 2.279671e+003
7.726873e+002, 2.283840e+003
7.731694e+002, 2.288792e+003
7.736515e+002, 2.292591e+003
7.741336e+002, 2.294196e+003
7.746157e+002, 2.294920e+003
7.750978e+002, 2.295690e+003
7.755800e+002, 2.296468e+003
7.760621e+002, 2.294715e+003
7.765442e+002, 2.289800e+003
7.770263e+002, 2.284122e+003
7.775084e+002, 2.277936e+003
7.779905e+002, 2.271967e+003
7.784727e+002, 2.270540e+003
7.789548e+002, 2.273439e+003
7.794369e+002, 2.277042e+003
7.799190e+002, 2.278916e+003
7.804011e+002, 2.280095e+003
7.808832e+002, 2.281778e+003
7.813654e+002, 2.283998e+003
7.818475e+002, 2.285497e+003
7.823296e+002, 2.285875e+003
7.828117e+002, 2.285376e+003
7.832938e+002, 2.284108e+003
7.837759e+002, 2.282041e+003
7.842581e+002, 2.279441e+003
7.847402e+002, 2.275892e+003
7.852223e+002, 2.273291e+003
7.857044e+002, 2.274100e+003
7.861865e+002, 2.277081e+003
7.866686e+002, 2.277029e+003
7.871508e+002, 2.273836e+003
7.876329e+002, 2.269729e+003
7.881150e+002, 2.264165e+003
7.885971e+002, 2.259826e+003
7.890792e+002, 2.260085e+003
7.895613e+002, 2.265797e+003
7.900435e+002, 2.270832e+003
7.905256e+002, 2.273564e+003
7.910077e+002, 2.275318e+003
7.914898e+002, 2.277031e+003
7.919719e+002, 2.279003e+003
7.924540e+002, 2.277916e+003
7.929362e+002, 2.273114e+003
7.934183e+002, 2.267880e+003
7.939004e+002, 2.265025e+003
7.943825e+002, 2.263906e+003
7.948646e+002, 2.263405e+003
7.953467e+002, 2.263463e+003
7.958289e+002, 2.262128e+003
7.963110e+002, 2.257106e+003
7.967931e+002, 2.250732e+003
7.972752e+002, 2.244786e+003
7.977573e+002, 2.239303e+003
7.982394e+002, 2.235065e+003
7.987216e+002, 2.231244e+003
7.992037e+002, 2.229641e+003
7.996858e+002, 2.232939e+003
8.001679e+002, 2.242704e+003
8.006500e+002, 2.243963e+003
8.011321e+002, 2.235503e+003
8.016143e+002, 2.226382e+003
8.020964e+002, 2.224929e+003
8.025785e+002, 2.228613e+003
8.030606e+002, 2.233421e+003
8.035427e+002, 2.239036e+003
8.040248e+002, 2.243155e+003
8.045070e+002, 2.245043e+003
8.049891e+002, 2.244477e+003
8.054712e+002, 2.240309e+003
8.059533e+002, 2.229620e+003
8.064354e+002, 2.224817e+003
8.069175e+002, 2.228739e+003
8.073997e+002, 2.234443e+003
8.078818e+002, 2.236940e+003
8.083639e+002, 2.236268e+003
8.088460e+002, 2.235382e+003
8.093281e+002, 2.234382e+003
8.098102e+002, 2.233121e+003
8.102924e+002, 2.230418e+003
8.107745e+002, 2.227864e+003
8.112566e+002, 2.228239e+003
8.117387e+002, 2.232281e+003
8.122208e+002, 2.235448e+003
8.127029e+002, 2.233975e+003
8.131851e+002, 2.232450e+003
8.136672e+002, 2.234798e+003
8.141493e+002, 2.243001e+003
8.146314e+002, 2.245980e+003
8.151135e+002, 2.241890e+003
8.155956e+002, 2.237121e+003
8.160778e+002, 2.237656e+003
8.165599e+002, 2.242087e+003
8.170420e+002, 2.243845e+003
8.175241e+002, 2.242527e+003
8.180062e+002, 2.240154e+003
8.184883e+002, 2.236905e+003
8.189705e+002, 2.234188e+003
8.194526e+002, 2.233498e+003
8.199347e+002, 2.235152e+003
8.204168e+002, 2.237589e+003
8.208989e+002, 2.243373e+003
8.213810e+002, 2.247083e+003
8.218632e+002, 2.244632e+003
8.223453e+002, 2.234780e+003
8.228274e+002, 2.232224e+003
8.233095e+002, 2.238066e+003
8.237916e+002, 2.244929e+003
8.242737e+002, 2.247694e+003
8.247559e+002, 2.247097e+003
8.252380e+002, 2.243550e+003
8.257201e+002, 2.237265e+003
8.262022e+002, 2.231634e+003
8.266843e+002, 2.226216e+003
8.271664e+002, 2.224175e+003
8.276486e+002, 2.229884e+003
8.281307e+002, 2.245788e+003
8.286128e+002, 2.252868e+003
8.290949e+002, 2.247395e+003
8.295770e+002, 2.239439e+003
8.300591e+002, 2.233283e+003
8.305413e+002, 2.229117e+003
8.310234e+002, 2.230522e+003
8.315055e+002, 2.237388e+003
8.319876e+002, 2.242469e+003
8.324697e+002, 2.238040e+003
8.329518e+002, 2.230739e+003
8.334340e+002, 2.227702e+003
8.339161e+002, 2.229173e+003
8.343982e+002, 2.231625e+003
8.348803e+002, 2.237092e+003
8.353624e+002, 2.239914e+003
8.358445e+002, 2.236266e+003
8.363267e+002, 2.226638e+003
8.368088e+002, 2.222904e+003
8.372909e+002, 2.226241e+003
8.377730e+002, 2.230232e+003
8.382551e+002, 2.231056e+003
8.387372e+002, 2.230057e+003
8.392194e+002, 2.231271e+003
8.397015e+002, 2.234135e+003
8.401836e+002, 2.235339e+003
8.406657e+002, 2.230316e+003
8.411478e+002, 2.225412e+003
8.416299e+002, 2.225866e+003
8.421121e+002, 2.230896e+003
8.425942e+002, 2.232110e+003
8.430763e+002, 2.226151e+003
8.435584e+002, 2.221494e+003
8.440405e+002, 2.221064e+003
8.445226e+002, 2.223845e+003
8.450048e+002, 2.226661e+003
8.454869e+002, 2.229380e+003
8.459690e+002, 2.230141e+003
8.464511e+002, 2.226167e+003
8.469332e+002, 2.221314e+003
8.474153e+002, 2.220162e+003
8.478975e+002, 2.221625e+003
8.483796e+002, 2.222618e+003
8.488617e+002, 2.219282e+003
8.493438e+002, 2.218779e+003
8.498259e+002, 2.225732e+003
8.503080e+002, 2.236228e+003
8.507902e+002, 2.239402e+003
8.512723e+002, 2.233968e+003
8.517544e+002, 2.229046e+003
8.522365e+002, 2.227632e+003
8.527186e+002, 2.227460e+003
8.532007e+002, 2.223453e+003
8.536829e+002, 2.217333e+003
8.541650e+002, 2.213828e+003
8.546471e+002, 2.216744e+003
8.551292e+002, 2.220095e+003
8.556113e+002, 2.221097e+003
8.560934e+002, 2.220552e+003
8.565756e+002, 2.219983e+003
8.570577e+002, 2.219599e+003
8.575398e+002, 2.218126e+003
8.580219e+002, 2.213126e+003
8.585040e+002, 2.210475e+003
8.589861e+002, 2.225766e+003
8.594683e+002, 2.254049e+003
8.599504e+002, 2.265996e+003
8.604325e+002, 2.250490e+003
8.609146e+002, 2.230850e+003
8.613967e+002, 2.229140e+003
8.618788e+002, 2.235495e+003
8.623610e+002, 2.237691e+003
8.628431e+002, 2.230435e+003
8.633252e+002, 2.223151e+003
8.638073e+002, 2.215621e+003
8.642894e+002, 2.209537e+003
8.647715e+002, 2.207047e+003
8.652537e+002, 2.208351e+003
8.657358e+002, 2.210327e+003
8.662179e+002, 2.213130e+003
8.667000e+002, 2.214376e+003
8.671821e+002, 2.209149e+003
8.676642e+002, 2.201929e+003
8.681464e+002, 2.200246e+003
8.686285e+002, 2.206249e+003
8.691106e+002, 2.210458e+003
8.695927e+002, 2.206125e+003
8.700748e+002, 2.201354e+003
8.705569e+002, 2.201969e+003
8.710391e+002, 2.209159e+003
8.715212e+002, 2.212866e+003
8.720033e+002, 2.212305e+003
8.724854e+002, 2.210980e+003
8.729675e+002, 2.211727e+003
8.734496e+002, 2.213548e+003
8.739318e+002, 2.213757e+003
8.744139e+002, 2.212410e+003
8.748960e+002, 2.211626e+003
8.753781e+002, 2.213867e+003
8.758602e+002, 2.215998e+003
8.763423e+002, 2.216338e+003
8.768245e+002, 2.214707e+003
8.773066e+002, 2.211183e+003
8.777887e+002, 2.204167e+003
8.782708e+002, 2.199243e+003
8.787529e+002, 2.199589e+003
8.792350e+002, 2.203447e+003
8.797172e+002, 2.205555e+003
8.801993e+002, 2.205840e+003
8.806814e+002, 2.203732e+003
8.811635e+002, 2.194719e+003
8.816456e+002, 2.186996e+003
8.821277e+002, 2.188884e+003
8.826099e+002, 2.197123e+003
8.830920e+002, 2.201860e+003
8.835741e+002, 2.195713e+003
8.840562e+002, 2.194116e+003
8.845383e+002, 2.202353e+003
8.850204e+002, 2.214006e+003
8.855026e+002, 2.213104e+003
8.859847e+002, 2.200588e+003
8.864668e+002, 2.191215e+003
8.869489e+002, 2.189580e+003
8.874310e+002, 2.191746e+003
8.879131e+002, 2.194346e+003
8.883953e+002, 2.197588e+003
8.888774e+002, 2.201954e+003
8.893595e+002, 2.210972e+003
8.898416e+002, 2.215873e+003
8.903237e+002, 2.213277e+003
8.908058e+002, 2.208117e+003
8.912880e+002, 2.205820e+003
8.917701e+002, 2.206817e+003
8.922522e+002, 2.204597e+003
8.927343e+002, 2.197958e+003
8.932164e+002, 2.192138e+003
8.936985e+002, 2.193285e+003
8.941807e+002, 2.198445e+003
8.946628e+002, 2.203930e+003
8.951449e+002, 2.209381e+003
8.956270e+002, 2.213199e+003
8.961091e+002, 2.214243e+003
8.965912e+002, 2.213926e+003
8.970734e+002, 2.212762e+003
8.975555e+002, 2.210565e+003
8.980376e+002, 2.210446e+003
8.985197e+002, 2.212738e+003
8.990018e+002, 2.215302e+003
8.994839e+002, 2.217436e+003
8.999661e+002, 2.218523e+003
9.004482e+002, 2.216515e+003
9.009303e+002, 2.211932e+003
9.014124e+002, 2.208230e+003
9.018945e+002, 2.207553e+003
9.023766e+002, 2.207645e+003
9.028588e+002, 2.206867e+003
9.033409e+002, 2.205776e+003
9.038230e+002, 2.207648e+003
9.043051e+002, 2.213448e+003
9.047872e+002, 2.218345e+003
9.052693e+002, 2.220831e+003
9.057515e+002, 2.221363e+003
9.062336e+002, 2.219393e+003
9.067157e+002, 2.216183e+003
9.071978e+002, 2.215528e+003
9.076799e+002, 2.222213e+003
9.081620e+002, 2.227696e+003
9.086442e+002, 2.227180e+003
9.091263e+002, 2.223321e+003
9.096084e+002, 2.220563e+003
9.100905e+002, 2.219170e+003
9.105726e+002, 2.218476e+003
9.110547e+002, 2.218304e+003
9.115369e+002, 2.219137e+003
9.120190e+002, 2.222214e+003
9.125011e+002, 2.226790e+003
9.129832e+002, 2.231219e+003
9.134653e+002, 2.235550e+003
9.139474e+002, 2.237477e+003
9.144296e+002, 2.232811e+003
9.149117e+002, 2.226912e+003
9.153938e+002, 2.224615e+003
9.158759e+002, 2.227215e+003
9.163580e+002, 2.228658e+003
9.168401e+002, 2.228090e+003
9.173223e+002, 2.228381e+003
9.178044e+002, 2.233329e+003
9.182865e+002, 2.240737e+003
9.187686e+002, 2.241553e+003
9.192507e+002, 2.236369e+003
9.197328e+002, 2.231185e+003
9.202150e+002, 2.229069e+003
9.206971e+002, 2.228807e+003
9.211792e+002, 2.229879e+003
9.216613e+002, 2.232269e+003
9.221434e+002, 2.235800e+003
9.226255e+002, 2.241758e+003
9.231077e+002, 2.245836e+003
9.235898e+002, 2.246450e+003
9.240719e+002, 2.244798e+003
9.245540e+002, 2.243118e+003
9.250361e+002, 2.241529e+003
9.255182e+002, 2.240597e+003
9.260004e+002, 2.240599e+003
9.264825e+002, 2.241079e+003
9.269646e+002, 2.241732e+003
9.274467e+002, 2.242631e+003
9.279288e+002, 2.244002e+003
9.284109e+002, 2.246897e+003
9.288931e+002, 2.248047e+003
9.293752e+002, 2.247174e+003
9.298573e+002, 2.244777e+003
9.303394e+002, 2.240781e+003
9.308215e+002, 2.235726e+003
9.313036e+002, 2.231022e+003
9.317858e+002, 2.226770e+003
9.322679e+002, 2.224298e+003
9.327500e+002, 2.226196e+003
9.332321e+002, 2.229025e+003
9.337142e+002, 2.229823e+003
9.341964e+002, 2.227920e+003
9.346785e+002, 2.228320e+003
9.351606e+002, 2.232263e+003
9.356427e+002, 2.235563e+003
9.361248e+002, 2.236109e+003
9.366069e+002, 2.234290e+003
9.370891e+002, 2.230809e+003
9.375712e+002, 2.225935e+003
9.380533e+002, 2.221276e+003
9.385354e+002, 2.215417e+003
9.390175e+002, 2.212249e+003
9.394996e+002, 2.215332e+003
9.399818e+002, 2.222856e+003
9.404639e+002, 2.229936e+003
9.409460e+002, 2.237990e+003
9.414281e+002, 2.240418e+003
9.419102e+002, 2.234108e+003
9.423923e+002, 2.225285e+003
9.428745e+002, 2.225086e+003
9.433566e+002, 2.230701e+003
9.438387e+002, 2.233829e+003
9.443208e+002, 2.231866e+003
9.448029e+002, 2.229462e+003
9.452850e+002, 2.228679e+003
9.457672e+002, 2.229092e+003
9.462493e+002, 2.230912e+003
9.467314e+002, 2.235508e+003
9.472135e+002, 2.235113e+003
9.476956e+002, 2.228220e+003
9.481777e+002, 2.221578e+003
9.486599e+002, 2.221054e+003
9.491420e+002, 2.224603e+003
9.496241e+002, 2.227632e+003
9.501062e+002, 2.230062e+003
9.505883e+002, 2.232517e+003
9.510704e+002, 2.236229e+003
9.515526e+002, 2.239143e+003
9.520347e+002, 2.240518e+003
9.525168e+002, 2.240220e+003
9.529989e+002, 2.236355e+003
9.534810e+002, 2.227155e+003
9.539631e+002, 2.223328e+003
9.544453e+002, 2.229783e+003
9.549274e+002, 2.239795e+003
9.554095e+002, 2.242962e+003
9.558916e+002, 2.241044e+003
9.563737e+002, 2.237495e+003
9.568558e+002, 2.231024e+003
9.573380e+002, 2.227634e+003
9.578201e+002, 2.232415e+003
9.583022e+002, 2.239210e+003
9.587843e+002, 2.242447e+003
9.592664e+002, 2.241731e+003
9.597485e+002, 2.239327e+003
9.602307e+002, 2.235100e+003
9.607128e+002, 2.230819e+003
9.611949e+002, 2.227334e+003
9.616770e+002, 2.225142e+003
9.621591e+002, 2.225799e+003
9.626412e+002, 2.229152e+003
9.631234e+002, 2.231327e+003
9.636055e+002, 2.228755e+003
9.640876e+002, 2.227193e+003
9.645697e+002, 2.228500e+003
9.650518e+002, 2.232367e+003
9.655339e+002, 2.239747e+003
9.660161e+002, 2.250616e+003
9.664982e+002, 2.253797e+003
9.669803e+002, 2.239858e+003
9.674624e+002, 2.224799e+003
9.679445e+002, 2.230417e+003
9.684266e+002, 2.246491e+003
9.689088e+002, 2.256035e+003
9.693909e+002, 2.248480e+003
9.698730e+002, 2.242567e+003
9.703551e+002, 2.239266e+003
9.708372e+002, 2.238358e+003
9.713193e+002, 2.240996e+003
9.718015e+002, 2.246501e+003
9.722836e+002, 2.247510e+003
9.727657e+002, 2.243351e+003
9.732478e+002, 2.239339e+003
9.737299e+002, 2.238325e+003
9.742120e+002, 2.240222e+003
9.746942e+002, 2.247129e+003
9.751763e+002, 2.259053e+003
9.756584e+002, 2.263808e+003
9.761405e+002, 2.257421e+003
9.766226e+002, 2.251614e+003
9.771047e+002, 2.250915e+003
9.775869e+002, 2.253450e+003
9.780690e+002, 2.254310e+003
9.785511e+002, 2.253892e+003
9.790332e+002, 2.253826e+003
9.795153e+002, 2.255600e+003
9.799974e+002, 2.256620e+003
9.804796e+002, 2.254299e+003
9.809617e+002, 2.250909e+003
9.814438e+002, 2.249610e+003
9.819259e+002, 2.250803e+003
9.824080e+002, 2.253641e+003
9.828901e+002, 2.258889e+003
9.833723e+002, 2.262847e+003
9.838544e+002, 2.259369e+003
9.843365e+002, 2.252848e+003
9.848186e+002, 2.252837e+003
9.853007e+002, 2.259915e+003
9.857828e+002, 2.264820e+003
9.862650e+002, 2.261453e+003
9.867471e+002, 2.257113e+003
9.872292e+002, 2.254561e+003
9.877113e+002, 2.253760e+003
9.881934e+002, 2.255135e+003
9.886755e+002, 2.258797e+003
9.891577e+002, 2.261395e+003
9.896398e+002, 2.260930e+003
9.901219e+002, 2.259896e+003
9.906040e+002, 2.260787e+003
9.910861e+002, 2.263319e+003
9.915682e+002, 2.267079e+003
9.920504e+002, 2.274329e+003
9.925325e+002, 2.278981e+003
9.930146e+002, 2.279745e+003
9.934967e+002, 2.279052e+003
9.939788e+002, 2.279577e+003
9.944609e+002, 2.280980e+003
9.949431e+002, 2.279136e+003
9.954252e+002, 2.273873e+003
9.959073e+002, 2.270459e+003
9.963894e+002, 2.274609e+003
9.968715e+002, 2.280517e+003
9.973536e+002, 2.285128e+003
9.978358e+002, 2.287792e+003
9.983179e+002, 2.285592e+003
9.988000e+002, 2.275403e+003
9.992821e+002, 2.268807e+003
9.997642e+002, 2.270158e+003
1.000246e+003, 2.275509e+003
1.000728e+003, 2.277334e+003
1.001211e+003, 2.276620e+003
1.001693e+003, 2.275712e+003
1.002175e+003, 2.275113e+003
1.002657e+003, 2.274950e+003
1.003139e+003, 2.275379e+003
1.003621e+003, 2.276246e+003
1.004103e+003, 2.277351e+003
1.004585e+003, 2.278640e+003
1.005068e+003, 2.280476e+003
1.005550e+003, 2.282879e+003
1.006032e+003, 2.285581e+003
1.006514e+003, 2.288345e+003
1.006996e+003, 2.291287e+003
1.007478e+003, 2.295422e+003
1.007960e+003, 2.300188e+003
1.008442e+003, 2.302634e+003
1.008924e+003, 2.298856e+003
1.009407e+003, 2.296779e+003
1.009889e+003, 2.298820e+003
1.010371e+003, 2.302617e+003
1.010853e+003, 2.303432e+003
1.011335e+003, 2.301531e+003
1.011817e+003, 2.298166e+003
1.012299e+003, 2.293118e+003
1.012781e+003, 2.289032e+003
1.013263e+003, 2.288485e+003
1.013746e+003, 2.289542e+003
1.014228e+003, 2.290376e+003
1.014710e+003, 2.290739e+003
1.015192e+003, 2.292025e+003
1.015674e+003, 2.294948e+003
1.016156e+003, 2.296486e+003
1.016638e+003, 2.292734e+003
1.017120e+003, 2.287289e+003
1.017603e+003, 2.289356e+003
1.018085e+003, 2.296875e+003
1.018567e+003, 2.302585e+003
1.019049e+003, 2.300045e+003
1.019531e+003, 2.299012e+003
1.020013e+003, 2.303297e+003
1.020495e+003, 2.309933e+003
1.020977e+003, 2.315193e+003
1.021459e+003, 2.319052e+003
1.021942e+003, 2.320287e+003
1.022424e+003, 2.318433e+003
1.022906e+003, 2.316286e+003
1.023388e+003, 2.317416e+003
1.023870e+003, 2.318953e+003
1.024352e+003, 2.317032e+003
1.024834e+003, 2.310889e+003
1.025316e+003, 2.309262e+003
1.025799e+003, 2.315485e+003
1.026281e+003, 2.320316e+003
1.026763e+003, 2.319124e+003
1.027245e+003, 2.314970e+003
1.027727e+003, 2.316869e+003
1.028209e+003, 2.322849e+003
1.028691e+003, 2.326119e+003
1.029173e+003, 2.322006e+003
1.029656e+003, 2.317881e+003
1.030138e+003, 2.318102e+003
1.030620e+003, 2.319372e+003
1.031102e+003, 2.317547e+003
1.031584e+003, 2.311227e+003
1.032066e+003, 2.310161e+003
1.032548e+003, 2.314930e+003
1.033030e+003, 2.320851e+003
1.033512e+003, 2.324001e+003
1.033995e+003, 2.326096e+003
1.034477e+003, 2.329743e+003
1.034959e+003, 2.334479e+003
1.035441e+003, 2.336852e+003
1.035923e+003, 2.333876e+003
1.036405e+003, 2.332011e+003
1.036887e+003, 2.333635e+003
1.037369e+003, 2.335713e+003
1.037851e+003, 2.329386e+003
1.038334e+003, 2.318018e+003
1.038816e+003, 2.315428e+003
1.039298e+003, 2.326849e+003
1.039780e+003, 2.337537e+003
1.040262e+003, 2.337987e+003
1.040744e+003, 2.334378e+003
1.041226e+003, 2.331361e+003
1.041708e+003, 2.329094e+003
1.042191e+003, 2.326724e+003
1.042673e+003, 2.323980e+003
1.043155e+003, 2.323300e+003
1.043637e+003, 2.327300e+003
1.044119e+003, 2.332983e+003
1.044601e+003, 2.337969e+003
1.045083e+003, 2.341243e+003
1.045565e+003, 2.340321e+003
1.046047e+003, 2.327188e+003
1.046530e+003, 2.320892e+003
1.047012e+003, 2.325926e+003
1.047494e+003, 2.333848e+003
1.047976e+003, 2.334558e+003
1.048458e+003, 2.329745e+003
1.048940e+003, 2.327388e+003
1.049422e+003, 2.328059e+003
1.049904e+003, 2.330001e+003
1.050386e+003, 2.333096e+003
1.050869e+003, 2.336211e+003
1.051351e+003, 2.338198e+003
1.051833e+003, 2.339554e+003
1.052315e+003, 2.342897e+003
1.052797e+003, 2.348735e+003
1.053279e+003, 2.352543e+003
1.053761e+003, 2.352892e+003
1.054243e+003, 2.351446e+003
1.054726e+003, 2.349239e+003
1.055208e+003, 2.347058e+003
1.055690e+003, 2.346363e+003
1.056172e+003, 2.348621e+003
1.056654e+003, 2.348140e+003
1.057136e+003, 2.342448e+003
1.057618e+003, 2.337772e+003
1.058100e+003, 2.338222e+003
1.058583e+003, 2.342627e+003
1.059065e+003, 2.346841e+003
1.059547e+003, 2.350875e+003
1.060029e+003, 2.354792e+003
1.060511e+003, 2.360679e+003
1.060993e+003, 2.363997e+003
1.061475e+003, 2.361351e+003
1.061957e+003, 2.355689e+003
1.062439e+003, 2.349655e+003
1.062922e+003, 2.342380e+003
1.063404e+003, 2.344367e+003
1.063886e+003, 2.357354e+003
1.064368e+003, 2.370724e+003
1.064850e+003, 2.377255e+003
1.065332e+003, 2.377967e+003
1.065814e+003, 2.370939e+003
1.066296e+003, 2.357169e+003
1.066778e+003, 2.349464e+003
1.067261e+003, 2.351314e+003
1.067743e+003, 2.353390e+003
1.068225e+003, 2.353334e+003
1.068707e+003, 2.352166e+003
1.069189e+003, 2.351230e+003
1.069671e+003, 2.350728e+003
1.070153e+003, 2.351432e+003
1.070635e+003, 2.354014e+003
1.071118e+003, 2.355888e+003
1.071600e+003, 2.355855e+003
1.072082e+003, 2.354836e+003
1.072564e+003, 2.352644e+003
1.073046e+003, 2.349650e+003
1.073528e+003, 2.350560e+003
1.074010e+003, 2.355180e+003
1.074492e+003, 2.360524e+003
1.074974e+003, 2.367462e+003
1.075457e+003, 2.371758e+003
1.075939e+003, 2.366603e+003
1.076421e+003, 2.357927e+003
1.076903e+003, 2.356395e+003
1.077385e+003, 2.365932e+003
1.077867e+003, 2.371738e+003
1.078349e+003, 2.372829e+003
1.078831e+003, 2.371400e+003
1.079313e+003, 2.367450e+003
1.079796e+003, 2.363331e+003
1.080278e+003, 2.363954e+003
1.080760e+003, 2.368522e+003
1.081242e+003, 2.370293e+003
1.081724e+003, 2.361415e+003
1.082206e+003, 2.357573e+003
1.082688e+003, 2.363726e+003
1.083170e+003, 2.374266e+003
1.083652e+003, 2.378835e+003
1.084135e+003, 2.378868e+003
1.084617e+003, 2.379622e+003
1.085099e+003, 2.382221e+003
1.085581e+003, 2.384682e+003
1.086063e+003, 2.386067e+003
1.086545e+003, 2.386744e+003
1.087027e+003, 2.387145e+003
1.087509e+003, 2.387199e+003
1.087992e+003, 2.385247e+003
1.088474e+003, 2.381246e+003
1.088956e+003, 2.379546e+003
1.089438e+003, 2.383361e+003
1.089920e+003, 2.387659e+003
1.090402e+003, 2.386205e+003
1.090884e+003, 2.382739e+003
1.091366e+003, 2.382875e+003
1.091849e+003, 2.390542e+003
1.092331e+003, 2.391905e+003
1.092813e+003, 2.384443e+003
1.093295e+003, 2.379220e+003
1.093777e+003, 2.387139e+003
1.094259e+003, 2.401441e+003
1.094741e+003, 2.411670e+003
1.095223e+003, 2.417371e+003
1.095705e+003, 2.417628e+003
1.096188e+003, 2.406704e+003
1.096670e+003, 2.397186e+003
1.097152e+003, 2.389975e+003
1.097634e+003, 2.386360e+003
1.098116e+003, 2.390996e+003
1.098598e+003, 2.401114e+003
1.099080e+003, 2.401385e+003
1.099562e+003, 2.390618e+003
1.100044e+003, 2.383449e+003
1.100527e+003, 2.393939e+003
1.101009e+003, 2.405428e+003
1.101491e+003, 2.408367e+003
1.101973e+003, 2.405300e+003
1.102455e+003, 2.403636e+003
1.102937e+003, 2.403398e+003
1.103419e+003, 2.404327e+003
1.103901e+003, 2.406704e+003
1.104384e+003, 2.408930e+003
1.104866e+003, 2.407706e+003
1.105348e+003, 2.406674e+003
1.105830e+003, 2.411312e+003
1.106312e+003, 2.423560e+003
1.106794e+003, 2.425763e+003
1.107276e+003, 2.415492e+003
1.107758e+003, 2.404457e+003
1.108240e+003, 2.396674e+003
1.108723e+003, 2.392680e+003
1.109205e+003, 2.394581e+003
1.109687e+003, 2.400370e+003
1.110169e+003, 2.406259e+003
1.110651e+003, 2.412111e+003
1.111133e+003, 2.416336e+003
1.111615e+003, 2.419102e+003
1.112097e+003, 2.419945e+003
1.112579e+003, 2.417022e+003
1.113062e+003, 2.412019e+003
1.113544e+003, 2.412045e+003
1.114026e+003, 2.415947e+003
1.114508e+003, 2.417945e+003
1.114990e+003, 2.411927e+003
1.115472e+003, 2.407794e+003
1.115954e+003, 2.410763e+003
1.116436e+003, 2.415485e+003
1.116919e+003, 2.414073e+003
1.117401e+003, 2.407199e+003
1.117883e+003, 2.404819e+003
1.118365e+003, 2.407833e+003
1.118847e+003, 2.410834e+003
1.119329e+003, 2.408087e+003
1.119811e+003, 2.405805e+003
1.120293e+003, 2.410592e+003
1.120776e+003, 2.419226e+003
1.121258e+003, 2.419615e+003
1.121740e+003, 2.410698e+003
1.122222e+003, 2.403828e+003
1.122704e+003, 2.401574e+003
1.123186e+003, 2.400844e+003
1.123668e+003, 2.396901e+003
1.124150e+003, 2.393661e+003
1.124632e+003, 2.396348e+003
1.125115e+003, 2.406288e+003
1.125597e+003, 2.412558e+003
1.126079e+003, 2.414301e+003
1.126561e+003, 2.414961e+003
1.127043e+003, 2.416370e+003
1.127525e+003, 2.416600e+003
1.128007e+003, 2.410602e+003
1.128489e+003, 2.401820e+003
1.128971e+003, 2.396123e+003
1.129454e+003, 2.395395e+003
1.129936e+003, 2.397337e+003
1.130418e+003, 2.403749e+003
1.130900e+003, 2.408693e+003
1.131382e+003, 2.407577e+003
1.131864e+003, 2.402718e+003
1.132346e+003, 2.399939e+003
1.132828e+003, 2.399453e+003
1.133311e+003, 2.401968e+003
1.133793e+003, 2.413930e+003
1.134275e+003, 2.420287e+003
1.134757e+003, 2.412908e+003
1.135239e+003, 2.403978e+003
1.135721e+003, 2.406469e+003
1.136203e+003, 2.418535e+003
1.136685e+003, 2.425212e+003
1.137167e+003, 2.426231e+003
1.137650e+003, 2.423886e+003
1.138132e+003, 2.413274e+003
1.138614e+003, 2.406524e+003
1.139096e+003, 2.415484e+003
1.139578e+003, 2.429399e+003
1.140060e+003, 2.429997e+003
1.140542e+003, 2.416983e+003
1.141024e+003, 2.406135e+003
1.141506e+003, 2.398998e+003
1.141989e+003, 2.396752e+003
1.142471e+003, 2.404525e+003
1.142953e+003, 2.413888e+003
1.143435e+003, 2.418868e+003
1.143917e+003, 2.419695e+003
1.144399e+003, 2.419149e+003
1.144881e+003, 2.416996e+003
1.145363e+003, 2.415066e+003
1.145846e+003, 2.413740e+003
1.146328e+003, 2.412841e+003
1.146810e+003, 2.412209e+003
1.147292e+003, 2.411865e+003
1.147774e+003, 2.411348e+003
1.148256e+003, 2.410529e+003
1.148738e+003, 2.412917e+003
1.149220e+003, 2.419541e+003
1.149703e+003, 2.425842e+003
1.150185e+003, 2.430691e+003
1.150667e+003, 2.433490e+003
1.151149e+003, 2.433364e+003
1.151631e+003, 2.430597e+003
1.152113e+003, 2.424896e+003
1.152595e+003, 2.414199e+003
1.153077e+003, 2.408086e+003
1.153559e+003, 2.407558e+003
1.154042e+003, 2.410576e+003
1.154524e+003, 2.417632e+003
1.155006e+003, 2.426226e+003
1.155488e+003, 2.431761e+003
1.155970e+003, 2.434223e+003
1.156452e+003, 2.433100e+003
1.156934e+003, 2.423978e+003
1.157416e+003, 2.419500e+003
1.157898e+003, 2.423044e+003
1.158381e+003, 2.428068e+003
1.158863e+003, 2.430393e+003
1.159345e+003, 2.430093e+003
1.159827e+003, 2.424418e+003
1.160309e+003, 2.415695e+003
1.160791e+003, 2.413518e+003
1.161273e+003, 2.431103e+003
1.161755e+003, 2.443883e+003
1.162238e+003, 2.442867e+003
1.162720e+003, 2.437860e+003
1.163202e+003, 2.439942e+003
1.163684e+003, 2.447601e+003
1.164166e+003, 2.451246e+003
1.164648e+003, 2.450647e+003
1.165130e+003, 2.448013e+003
1.165612e+003, 2.443150e+003
1.166094e+003, 2.438109e+003
1.166577e+003, 2.432758e+003
1.167059e+003, 2.428500e+003
1.167541e+003, 2.428449e+003
1.168023e+003, 2.432228e+003
1.168505e+003, 2.434939e+003
1.168987e+003, 2.436116e+003
1.169469e+003, 2.435968e+003
1.169951e+003, 2.433688e+003
1.170433e+003, 2.431075e+003
1.170916e+003, 2.427739e+003
1.171398e+003, 2.425253e+003
1.171880e+003, 2.429476e+003
1.172362e+003, 2.440266e+003
1.172844e+003, 2.444504e+003
1.173326e+003, 2.438720e+003
1.173808e+003, 2.433785e+003
1.174290e+003, 2.441553e+003
1.174773e+003, 2.451396e+003
1.175255e+003, 2.453545e+003
1.175737e+003, 2.449855e+003
1.176219e+003, 2.451583e+003
1.176701e+003, 2.459094e+003
1.177183e+003, 2.464812e+003
1.177665e+003, 2.466921e+003
1.178147e+003, 2.465992e+003
1.178630e+003, 2.460514e+003
1.179112e+003, 2.453786e+003
1.179594e+003, 2.448537e+003
1.180076e+003, 2.444966e+003
1.180558e+003, 2.444755e+003
1.181040e+003, 2.448347e+003
1.181522e+003, 2.451121e+003
1.182004e+003, 2.451243e+003
1.182486e+003, 2.449983e+003
1.182969e+003, 2.446154e+003
1.183451e+003, 2.443130e+003
1.183933e+003, 2.446395e+003
1.184415e+003, 2.458249e+003
1.184897e+003, 2.462755e+003
1.185379e+003, 2.458683e+003
1.185861e+003, 2.455161e+003
1.186343e+003, 2.457695e+003
1.186825e+003, 2.461979e+003
1.187308e+003, 2.463137e+003
1.187790e+003, 2.462498e+003
1.188272e+003, 2.462011e+003
1.188754e+003, 2.461702e+003
1.189236e+003, 2.463292e+003
1.189718e+003, 2.467865e+003
1.190200e+003, 2.468734e+003
1.190682e+003, 2.454855e+003
1.191165e+003, 2.440437e+003
1.191647e+003, 2.448945e+003
1.192129e+003, 2.469729e+003
1.192611e+003, 2.480928e+003
1.193093e+003, 2.472766e+003
1.193575e+003, 2.469292e+003
1.194057e+003, 2.472570e+003
1.194539e+003, 2.473382e+003
1.195021e+003, 2.457898e+003
1.195504e+003, 2.440178e+003
1.195986e+003, 2.443142e+003
1.196468e+003, 2.460033e+003
1.196950e+003, 2.470137e+003
1.197432e+003, 2.465973e+003
1.197914e+003, 2.464421e+003
1.198396e+003, 2.467453e+003
1.198878e+003, 2.469544e+003
1.199360e+003, 2.461240e+003
1.199843e+003, 2.451390e+003
1.200325e+003, 2.455847e+003
1.200807e+003, 2.471006e+003
1.201289e+003, 2.479905e+003
1.201771e+003, 2.476763e+003
1.202253e+003, 2.473838e+003
1.202735e+003, 2.472318e+003
1.203217e+003, 2.471947e+003
1.203700e+003, 2.471836e+003
1.204182e+003, 2.473069e+003
1.204664e+003, 2.478420e+003
1.205146e+003, 2.487137e+003
1.205628e+003, 2.493595e+003
1.206110e+003, 2.496605e+003
1.206592e+003, 2.498027e+003
1.207074e+003, 2.497999e+003
1.207557e+003, 2.496707e+003
1.208039e+003, 2.492885e+003
1.208521e+003, 2.488750e+003
1.209003e+003, 2.488076e+003
1.209485e+003, 2.490902e+003
1.209967e+003, 2.492771e+003
1.210449e+003, 2.493104e+003
1.210931e+003, 2.492467e+003
1.211413e+003, 2.490815e+003
1.211896e+003, 2.488716e+003
1.212378e+003, 2.486002e+003
1.212860e+003, 2.483825e+003
1.213342e+003, 2.484651e+003
1.213824e+003, 2.488758e+003
1.214306e+003, 2.490686e+003
1.214788e+003, 2.488746e+003
1.215270e+003, 2.488242e+003
1.215752e+003, 2.491292e+003
1.216235e+003, 2.494611e+003
1.216717e+003, 2.494603e+003
1.217199e+003, 2.491282e+003
1.217681e+003, 2.482489e+003
1.218163e+003, 2.467143e+003
1.218645e+003, 2.461074e+003
1.219127e+003, 2.467750e+003
1.219609e+003, 2.475809e+003
1.220092e+003, 2.482591e+003
1.220574e+003, 2.487098e+003
1.221056e+003, 2.486934e+003
1.221538e+003, 2.484022e+003
1.222020e+003, 2.480021e+003
1.222502e+003, 2.474600e+003
1.222984e+003, 2.475491e+003
1.223466e+003, 2.485214e+003
1.223948e+003, 2.493363e+003
1.224431e+003, 2.496199e+003
1.224913e+003, 2.495436e+003
1.225395e+003, 2.491020e+003
1.225877e+003, 2.485854e+003
1.226359e+003, 2.483876e+003
1.226841e+003, 2.486210e+003
1.227323e+003, 2.491179e+003
1.227805e+003, 2.500302e+003
1.228287e+003, 2.505457e+003
1.228770e+003, 2.502133e+003
1.229252e+003, 2.495251e+003
1.229734e+003, 2.490522e+003
1.230216e+003, 2.487040e+003
1.230698e+003, 2.483434e+003
1.231180e+003, 2.479141e+003
1.231662e+003, 2.477248e+003
1.232144e+003, 2.478171e+003
1.232627e+003, 2.479028e+003
1.233109e+003, 2.478011e+003
1.233591e+003, 2.477201e+003
1.234073e+003, 2.480709e+003
1.234555e+003, 2.485191e+003
1.235037e+003, 2.485434e+003
1.235519e+003, 2.479888e+003
1.236001e+003, 2.477944e+003
1.236484e+003, 2.479996e+003
1.236966e+003, 2.482721e+003
1.237448e+003, 2.485656e+003
1.237930e+003, 2.486679e+003
1.238412e+003, 2.480893e+003
1.238894e+003, 2.473247e+003
1.239376e+003, 2.470818e+003
1.239858e+003, 2.474293e+003
1.240340e+003, 2.478804e+003
1.240823e+003, 2.484339e+003
1.241305e+003, 2.488371e+003
1.241787e+003, 2.488163e+003
1.242269e+003, 2.487690e+003
1.242751e+003, 2.491502e+003
1.243233e+003, 2.496220e+003
1.243715e+003, 2.497586e+003
1.244197e+003, 2.495306e+003
1.244679e+003, 2.490989e+003
1.245162e+003, 2.484729e+003
1.245644e+003, 2.482391e+003
1.246126e+003, 2.491849e+003
1.246608e+003, 2.500060e+003
1.247090e+003, 2.494703e+003
1.247572e+003, 2.485865e+003
1.248054e+003, 2.485508e+003
1.248536e+003, 2.494040e+003
1.249019e+003, 2.501328e+003
1.249501e+003, 2.507269e+003
1.249983e+003, 2.510472e+003
1.250465e+003, 2.507770e+003
1.250947e+003, 2.505092e+003
1.251429e+003, 2.506393e+003
1.251911e+003, 2.508387e+003
1.252393e+003, 2.507659e+003
1.252875e+003, 2.504392e+003
1.253358e+003, 2.503010e+003
1.253840e+003, 2.503247e+003
1.254322e+003, 2.503544e+003
1.254804e+003, 2.500754e+003
1.255286e+003, 2.500942e+003
1.255768e+003, 2.509233e+003
1.256250e+003, 2.518092e+003
1.256732e+003, 2.520209e+003
1.257214e+003, 2.517087e+003
1.257697e+003, 2.519271e+003
1.258179e+003, 2.525205e+003
1.258661e+003, 2.527438e+003
1.259143e+003, 2.516246e+003
1.259625e+003, 2.510769e+003
1.260107e+003, 2.517542e+003
1.260589e+003, 2.525846e+003
1.261071e+003, 2.525473e+003
1.261554e+003, 2.519617e+003
1.262036e+003, 2.518627e+003
1.262518e+003, 2.521249e+003
1.263000e+003, 2.522928e+003
1.263482e+003, 2.520210e+003
1.263964e+003, 2.519128e+003
1.264446e+003, 2.520443e+003
1.264928e+003, 2.522680e+003
1.265411e+003, 2.526042e+003
1.265893e+003, 2.528679e+003
1.266375e+003, 2.525039e+003
1.266857e+003, 2.517804e+003
1.267339e+003, 2.514277e+003
1.267821e+003, 2.517501e+003
1.268303e+003, 2.523651e+003
1.268785e+003, 2.534037e+003
1.269267e+003, 2.542357e+003
1.269750e+003, 2.541463e+003
1.270232e+003, 2.537254e+003
1.270714e+003, 2.536862e+003
1.271196e+003, 2.539290e+003
1.271678e+003, 2.542313e+003
1.272160e+003, 2.546641e+003
1.272642e+003, 2.548135e+003
1.273124e+003, 2.546447e+003
1.273606e+003, 2.543648e+003
1.274089e+003, 2.540281e+003
1.274571e+003, 2.537316e+003
1.275053e+003, 2.535213e+003
1.275535e+003, 2.534342e+003
1.276017e+003, 2.535142e+003
1.276499e+003, 2.537639e+003
1.276981e+003, 2.542119e+003
1.277463e+003, 2.548532e+003
1.277946e+003, 2.553293e+003
1.278428e+003, 2.553926e+003
1.278910e+003, 2.552339e+003
1.279392e+003, 2.549719e+003
1.279874e+003, 2.545445e+003
1.280356e+003, 2.536966e+003
1.280838e+003, 2.524694e+003
1.281320e+003, 2.522266e+003
1.281802e+003, 2.529039e+003
1.282285e+003, 2.537404e+003
1.282767e+003, 2.547055e+003
1.283249e+003, 2.552445e+003
1.283731e+003, 2.547127e+003
1.284213e+003, 2.541588e+003
1.284695e+003, 2.546354e+003
1.285177e+003, 2.558889e+003
1.285659e+003, 2.569878e+003
1.286141e+003, 2.577976e+003
1.286624e+003, 2.577998e+003
1.287106e+003, 2.556906e+003
1.287588e+003, 2.544147e+003
1.288070e+003, 2.545668e+003
1.288552e+003, 2.551101e+003
1.289034e+003, 2.551365e+003
1.289516e+003, 2.549669e+003
1.289998e+003, 2.555218e+003
1.290481e+003, 2.564718e+003
1.290963e+003, 2.569598e+003
1.291445e+003, 2.562966e+003
1.291927e+003, 2.559075e+003
1.292409e+003, 2.557782e+003
1.292891e+003, 2.560037e+003
1.293373e+003, 2.570525e+003
1.293855e+003, 2.581703e+003
1.294338e+003, 2.582573e+003
1.294820e+003, 2.577499e+003
1.295302e+003, 2.574772e+003
1.295784e+003, 2.575723e+003
1.296266e+003, 2.576110e+003
1.296748e+003, 2.575916e+003
1.297230e+003, 2.575352e+003
1.297712e+003, 2.573260e+003
1.298194e+003, 2.572310e+003
1.298677e+003, 2.577569e+003
1.299159e+003, 2.583027e+003
1.299641e+003, 2.580349e+003
1.300123e+003, 2.569148e+003
1.300605e+003, 2.564106e+003
1.301087e+003, 2.564860e+003
1.301569e+003, 2.568546e+003
1.302051e+003, 2.576804e+003
1.302533e+003, 2.582108e+003
1.303016e+003, 2.581701e+003
##END=



