##NAMES=Valleriite
##RRUFFID=R070750
##IDEAL CHEMISTRY=2[(Fe,Cu)S]&#183;1.53[(Mg,Al)(OH)_2_]
##LOCALITY=Talnakh Cu-Ni Deposit, Taimyr Peninsula, Noril'sk, Putoran Mts, Taymyrskiy Autonomous Okrug, Eastern-Siberian Region, Russia
##OWNER=RRUFF
##SOURCE=Michael Scott
##DESCRIPTION=Bronze-yellow metallic massive associated with calcite
##STATUS=The identification of this mineral is not yet confirmed.
##URL=rruff.info/R070750
182.4555, 828.7676
182.9376, 836.0608
183.4197, 837.0848
183.9018, 839.6185
184.3840, 844.6189
184.8661, 851.0916
185.3482, 860.8725
185.8303, 874.5972
186.3124, 886.7697
186.7945, 882.0941
187.2767, 832.4279
187.7588, 801.4328
188.2409, 805.0381
188.7230, 825.9196
189.2051, 844.9136
189.6872, 852.5193
190.1694, 850.1774
190.6515, 844.5757
191.1336, 827.4331
191.6157, 816.2231
192.0978, 817.1679
192.5799, 826.0392
193.0621, 835.6980
193.5442, 842.1008
194.0263, 845.4614
194.5084, 847.8655
194.9905, 850.5101
195.4726, 851.3073
195.9548, 848.1444
196.4369, 842.1752
196.9190, 836.5692
197.4011, 833.0139
197.8832, 831.8918
198.3653, 834.3502
198.8475, 843.9578
199.3296, 853.7169
199.8117, 861.4712
200.2938, 866.6366
200.7759, 865.8997
201.2580, 854.0609
201.7402, 832.7053
202.2223, 818.4088
202.7044, 817.1481
203.1865, 819.6996
203.6686, 817.7390
204.1507, 810.6109
204.6329, 802.8063
205.1150, 795.9244
205.5971, 790.9586
206.0792, 792.1307
206.5613, 807.0743
207.0434, 825.9919
207.5256, 832.9962
208.0077, 823.6201
208.4898, 816.2429
208.9719, 834.6573
209.4540, 867.5877
209.9361, 887.5860
210.4183, 873.6874
210.9004, 841.2473
211.3825, 825.3570
211.8646, 834.3298
212.3467, 846.3204
212.8288, 845.8473
213.3110, 836.5135
213.7931, 826.7392
214.2752, 817.7413
214.7573, 811.1183
215.2394, 815.8521
215.7215, 843.4742
216.2037, 866.3160
216.6858, 866.2897
217.1679, 849.0954
217.6500, 831.2589
218.1321, 822.7836
218.6142, 823.3026
219.0964, 828.7883
219.5785, 845.0156
220.0606, 860.1547
220.5427, 869.4637
221.0248, 873.2244
221.5069, 873.2347
221.9891, 869.1869
222.4712, 860.7281
222.9533, 856.2467
223.4354, 861.7750
223.9175, 866.1289
224.3996, 863.0838
224.8818, 854.2792
225.3639, 846.3102
225.8460, 846.3776
226.3281, 856.1769
226.8102, 862.1057
227.2923, 860.4797
227.7745, 857.9233
228.2566, 855.6472
228.7387, 854.4768
229.2208, 855.7555
229.7029, 861.6612
230.1850, 873.9688
230.6672, 882.9055
231.1493, 888.2317
231.6314, 890.7704
232.1135, 889.9595
232.5956, 886.3078
233.0777, 881.3405
233.5599, 876.3869
234.0420, 870.7610
234.5241, 867.8870
235.0062, 864.8687
235.4883, 866.2798
235.9704, 879.2567
236.4526, 901.5967
236.9347, 921.8320
237.4168, 925.6327
237.8989, 905.7077
238.3810, 893.0109
238.8631, 888.7772
239.3453, 889.2944
239.8274, 895.3558
240.3095, 905.4808
240.7916, 914.0845
241.2737, 914.1602
241.7558, 901.3417
242.2380, 893.2786
242.7201, 891.5924
243.2022, 892.6700
243.6843, 893.3051
244.1664, 893.5413
244.6485, 897.0524
245.1307, 909.1461
245.6128, 935.3340
246.0949, 951.6146
246.5770, 951.3025
247.0591, 946.9012
247.5412, 948.4249
248.0234, 956.6292
248.5055, 963.8607
248.9876, 960.4420
249.4697, 940.7680
249.9518, 930.4742
250.4339, 935.9491
250.9161, 945.8787
251.3982, 951.8174
251.8803, 952.6893
252.3624, 953.1431
252.8445, 959.1913
253.3266, 974.0081
253.8088, 979.6835
254.2909, 963.1445
254.7730, 946.2256
255.2551, 949.9028
255.7372, 975.7239
256.2193, 1004.227
256.7014, 1014.654
257.1836, 1001.720
257.6657, 994.3555
258.1478, 998.7268
258.6299, 1004.712
259.1120, 1004.110
259.5941, 996.0267
260.0763, 984.3351
260.5584, 971.5202
261.0405, 957.1417
261.5226, 948.5270
262.0047, 951.3495
262.4868, 956.3615
262.9690, 953.5643
263.4511, 942.5720
263.9332, 935.0798
264.4153, 944.3770
264.8974, 971.9581
265.3795, 987.6996
265.8617, 985.6940
266.3438, 975.2834
266.8259, 961.1580
267.3080, 944.2376
267.7901, 929.6407
268.2722, 922.6619
268.7544, 923.2592
269.2365, 920.7563
269.7186, 911.5508
270.2007, 901.4968
270.6828, 895.3517
271.1649, 893.2158
271.6471, 892.1223
272.1292, 889.4188
272.6113, 885.6399
273.0934, 885.0651
273.5755, 892.4526
274.0576, 899.5788
274.5398, 898.7132
275.0219, 890.3523
275.5040, 882.8359
275.9861, 882.3556
276.4682, 887.9749
276.9503, 891.1406
277.4325, 888.4004
277.9146, 885.9964
278.3967, 888.5223
278.8788, 895.6145
279.3609, 904.5949
279.8430, 916.3483
280.3252, 927.8540
280.8073, 929.4567
281.2894, 910.7444
281.7715, 891.8190
282.2536, 887.6006
282.7357, 895.5739
283.2179, 900.7869
283.7000, 893.1118
284.1821, 878.3306
284.6642, 874.3527
285.1463, 887.6451
285.6284, 903.0608
286.1106, 911.8167
286.5927, 915.4499
287.0748, 920.2198
287.5569, 929.7892
288.0390, 941.6543
288.5211, 949.6230
289.0033, 952.6393
289.4854, 954.1683
289.9675, 955.3457
290.4496, 956.2498
290.9317, 957.3025
291.4138, 959.0508
291.8960, 960.4858
292.3781, 959.4979
292.8602, 955.6419
293.3423, 951.1563
293.8244, 944.1450
294.3065, 937.1675
294.7887, 936.9019
295.2708, 946.6955
295.7529, 961.5853
296.2350, 973.8400
296.7171, 984.3588
297.1992, 990.6469
297.6814, 988.2511
298.1635, 981.7795
298.6456, 979.9412
299.1277, 985.7400
299.6098, 993.9609
300.0919, 996.7252
300.5741, 993.5333
301.0562, 991.6719
301.5383, 993.7896
302.0204, 997.7997
302.5025, 1000.566
302.9846, 1001.323
303.4668, 1002.265
303.9489, 1006.065
304.4310, 1012.817
304.9131, 1020.177
305.3952, 1031.116
305.8773, 1040.772
306.3595, 1042.304
306.8416, 1034.908
307.3237, 1026.989
307.8058, 1026.795
308.2879, 1034.750
308.7701, 1040.402
309.2522, 1043.928
309.7343, 1044.624
310.2164, 1040.519
310.6985, 1032.051
311.1806, 1023.228
311.6628, 1015.812
312.1449, 1010.653
312.6270, 1012.495
313.1091, 1033.437
313.5912, 1050.364
314.0733, 1045.438
314.5555, 1023.026
315.0376, 1002.731
315.5197, 997.1264
316.0018, 1003.611
316.4839, 1005.996
316.9660, 999.2125
317.4482, 994.3865
317.9303, 998.6276
318.4124, 1008.113
318.8945, 1013.028
319.3766, 1007.678
319.8587, 996.2260
320.3409, 993.0091
320.8230, 1008.610
321.3051, 1016.885
321.7872, 1003.941
322.2693, 982.3279
322.7514, 972.1518
323.2336, 981.5232
323.7157, 1000.888
324.1978, 1011.283
324.6799, 1008.159
325.1620, 1003.813
325.6441, 997.4635
326.1263, 991.0504
326.6084, 986.4650
327.0905, 984.2168
327.5726, 983.8222
328.0547, 985.0499
328.5368, 990.2183
329.0190, 990.5681
329.5011, 979.5112
329.9832, 968.5457
330.4653, 969.4656
330.9474, 981.6149
331.4295, 991.0834
331.9117, 981.3674
332.3938, 945.4014
332.8759, 931.5463
333.3580, 956.3284
333.8401, 983.5959
334.3222, 997.1080
334.8044, 997.5591
335.2865, 992.9401
335.7686, 989.2132
336.2507, 986.3256
336.7328, 980.5511
337.2149, 965.9174
337.6971, 954.9659
338.1792, 951.9856
338.6613, 954.7993
339.1434, 960.1898
339.6255, 966.6858
340.1076, 973.2234
340.5898, 975.1580
341.0719, 967.2751
341.5540, 961.1099
342.0361, 958.8520
342.5182, 958.5214
343.0003, 959.1028
343.4825, 960.1027
343.9646, 959.1846
344.4467, 950.7282
344.9288, 928.5897
345.4109, 910.7978
345.8930, 901.1848
346.3752, 893.9204
346.8573, 884.2100
347.3394, 871.4206
347.8215, 858.9483
348.3036, 851.1904
348.7857, 848.8546
349.2679, 848.3577
349.7500, 853.1931
350.2321, 856.8709
350.7142, 858.4148
351.1963, 856.5518
351.6784, 848.1937
352.1606, 827.8264
352.6427, 796.0353
353.1248, 771.3340
353.6069, 755.5482
354.0890, 745.7159
354.5711, 743.2008
355.0533, 745.0727
355.5354, 745.8871
356.0175, 742.5643
356.4996, 736.0980
356.9817, 728.9254
357.4638, 720.1891
357.9460, 712.6473
358.4281, 707.6068
358.9102, 704.1937
359.3923, 701.2981
359.8744, 698.1644
360.3565, 696.4435
360.8387, 701.1270
361.3208, 713.8027
361.8029, 718.3903
362.2850, 703.7125
362.7671, 682.1713
363.2492, 666.0850
363.7314, 657.1973
364.2135, 649.4894
364.6956, 636.2463
365.1777, 619.3784
365.6598, 610.0238
366.1419, 614.0261
366.6241, 621.2327
367.1062, 621.4958
367.5883, 615.3317
368.0704, 606.8440
368.5525, 597.4438
369.0346, 586.8911
369.5168, 573.4943
369.9989, 556.1912
370.4810, 541.0816
370.9631, 534.2750
371.4452, 534.5784
371.9273, 535.0012
372.4095, 534.2528
372.8916, 533.6327
373.3737, 535.8407
373.8558, 540.1699
374.3379, 540.6190
374.8200, 532.3938
375.3022, 517.8555
375.7843, 507.5485
376.2664, 503.3180
376.7485, 500.5585
377.2306, 498.8879
377.7127, 497.3917
378.1949, 493.2569
378.6770, 484.8466
379.1591, 475.9860
379.6412, 475.2986
380.1233, 490.5999
380.6054, 499.5262
381.0876, 498.1653
381.5697, 491.1937
382.0518, 481.2763
382.5339, 469.5848
383.0160, 458.8339
383.4981, 452.2465
383.9803, 450.4293
384.4624, 450.5594
384.9445, 456.5549
385.4266, 460.5765
385.9087, 456.7524
386.3908, 447.3189
386.8730, 439.0086
387.3551, 436.7993
387.8372, 440.1398
388.3193, 443.0742
388.8014, 447.0849
389.2835, 448.7930
389.7657, 445.3156
390.2478, 439.9947
390.7299, 437.1062
391.2120, 438.5400
391.6941, 432.5895
392.1762, 442.9337
392.6584, 447.9336
393.1405, 447.8771
393.6226, 427.6184
394.1047, 433.4466
394.5868, 428.8204
395.0689, 423.7654
395.5511, 433.2651
396.0332, 415.9446
396.5153, 425.2137
396.9974, 423.8687
397.4795, 427.3817
397.9616, 420.3753
398.4438, 416.6178
398.9259, 423.3830
399.4080, 424.3219
399.8901, 416.1047
400.3722, 419.9263
400.8543, 402.2384
401.3365, 403.4251
401.8186, 412.7557
402.3007, 405.0675
402.7828, 402.8463
403.2649, 408.6425
403.7470, 422.4981
404.2292, 433.8745
404.7113, 429.8209
405.1934, 413.7227
405.6755, 405.2723
406.1576, 414.5952
406.6397, 430.6138
407.1219, 434.3314
407.6040, 423.7773
408.0861, 413.9133
408.5682, 410.0653
409.0503, 409.2970
409.5324, 407.5187
410.0146, 403.9942
410.4967, 400.7943
410.9788, 400.2311
411.4609, 402.7719
411.9430, 404.0427
412.4251, 404.4810
412.9073, 403.3436
413.3894, 398.4297
413.8715, 391.3325
414.3536, 386.8177
414.8357, 388.1756
415.3178, 393.8059
415.8000, 396.1552
416.2821, 389.4077
416.7642, 386.4052
417.2463, 390.6803
417.7284, 398.2456
418.2105, 406.7933
418.6927, 415.0377
419.1748, 419.4402
419.6569, 412.4240
420.1390, 385.7031
420.6211, 370.6661
421.1032, 373.8504
421.5854, 382.2841
422.0675, 394.9421
422.5496, 408.2359
423.0317, 413.7980
423.5138, 402.0301
423.9959, 376.8152
424.4781, 362.4796
424.9602, 364.1049
425.4423, 368.6343
425.9244, 371.7819
426.4065, 374.3269
426.8886, 376.6600
427.3708, 378.0163
427.8529, 381.6582
428.3350, 396.0887
428.8171, 421.8047
429.2992, 435.3151
429.7813, 424.7242
430.2635, 403.4810
430.7456, 384.8012
431.2277, 368.3224
431.7098, 360.4973
432.1919, 370.8147
432.6740, 390.2418
433.1562, 402.4618
433.6383, 405.0154
434.1204, 403.0469
434.6025, 400.0096
435.0846, 395.8671
435.5667, 391.2043
436.0489, 384.9437
436.5310, 379.1812
437.0131, 373.2332
437.4952, 368.5630
437.9773, 370.6725
438.4594, 383.5453
438.9416, 401.2846
439.4237, 407.7068
439.9058, 391.3425
440.3879, 379.6680
440.8700, 374.4932
441.3521, 374.1995
441.8343, 379.8047
442.3164, 390.2029
442.7985, 399.6081
443.2806, 401.3313
443.7627, 394.3458
444.2448, 386.9140
444.7270, 373.9476
445.2091, 365.7689
445.6912, 370.3187
446.1733, 381.6015
446.6554, 388.0709
447.1375, 382.5944
447.6197, 370.7698
448.1018, 367.3847
448.5839, 376.3914
449.0660, 382.8394
449.5481, 381.7970
450.0302, 377.3682
450.5124, 370.4102
450.9945, 361.2194
451.4766, 355.7920
451.9587, 363.7518
452.4408, 380.9245
452.9229, 386.2756
453.4051, 373.2831
453.8872, 357.4309
454.3693, 351.7301
454.8514, 353.5544
455.3335, 356.3468
455.8156, 359.0759
456.2978, 361.8769
456.7799, 365.9169
457.2620, 370.6159
457.7441, 372.3008
458.2262, 368.4950
458.7083, 361.4906
459.1904, 357.3540
459.6725, 356.1236
460.1547, 357.0396
460.6368, 361.5549
461.1189, 367.3263
461.6010, 373.1331
462.0831, 378.2324
462.5652, 379.9272
463.0474, 374.8242
463.5295, 361.8736
464.0116, 351.3526
464.4937, 341.9043
464.9758, 336.2181
465.4579, 336.3931
465.9401, 340.7205
466.4222, 347.0719
466.9043, 354.5734
467.3864, 361.9625
467.8685, 366.2678
468.3506, 366.8940
468.8328, 366.1325
469.3149, 359.3748
469.7970, 355.0169
470.2791, 362.1406
470.7612, 379.7603
471.2433, 393.6508
471.7255, 391.6065
472.2076, 377.0731
472.6897, 360.3155
473.1718, 338.7523
473.6539, 324.1321
474.1360, 330.4767
474.6182, 348.6604
475.1003, 359.9849
475.5824, 359.5516
476.0645, 354.3815
476.5466, 346.6946
477.0287, 337.8795
477.5109, 332.1513
477.9930, 331.0287
478.4751, 333.3979
478.9572, 338.2966
479.4393, 347.6736
479.9214, 353.1853
480.4036, 351.0021
480.8857, 347.4673
481.3678, 346.9780
481.8499, 349.4903
482.3320, 353.0186
482.8141, 356.3724
483.2963, 359.3020
483.7784, 360.1259
484.2605, 357.7467
484.7426, 354.5242
485.2247, 349.4454
485.7068, 344.4259
486.1890, 340.9961
486.6711, 339.6380
487.1532, 340.3375
487.6353, 343.3106
488.1174, 348.6141
488.5995, 355.8379
489.0817, 370.6657
489.5638, 379.3762
490.0459, 370.2905
490.5280, 350.2308
491.0101, 335.2853
491.4922, 334.6007
491.9744, 338.7135
492.4565, 333.9065
492.9386, 321.2664
493.4207, 317.2732
493.9028, 331.8839
494.3849, 353.8615
494.8671, 362.7975
495.3492, 356.7795
495.8313, 350.3983
496.3134, 347.1465
496.7955, 345.0497
497.2776, 341.5579
497.7598, 336.7873
498.2419, 333.2152
498.7240, 332.7450
499.2061, 335.3064
499.6882, 340.0918
500.1703, 352.1007
500.6525, 360.2757
501.1346, 360.9882
501.6167, 357.7603
502.0988, 355.2282
502.5809, 354.5568
503.0630, 352.2110
503.5452, 340.9486
504.0273, 318.2161
504.5094, 305.5991
504.9915, 307.6954
505.4736, 316.0115
505.9557, 332.1503
506.4379, 350.7782
506.9200, 359.9219
507.4021, 350.1904
507.8842, 333.9941
508.3663, 327.7185
508.8484, 331.1469
509.3306, 338.3740
509.8127, 350.3650
510.2948, 361.6553
510.7769, 362.4808
511.2590, 351.4900
511.7411, 342.6147
512.2233, 341.3749
512.7054, 342.6037
513.1875, 340.6646
513.6696, 335.6791
514.1517, 332.1029
514.6339, 333.4274
515.1160, 338.5962
515.5981, 340.7849
516.0802, 335.0284
516.5623, 332.4307
517.0444, 338.0948
517.5266, 345.0947
518.0087, 346.3068
518.4908, 340.5496
518.9729, 332.2266
519.4550, 325.1367
519.9371, 319.2101
520.4193, 317.7511
520.9014, 324.3223
521.3835, 330.1303
521.8656, 330.5445
522.3477, 327.9820
522.8298, 326.2223
523.3120, 326.6069
523.7941, 327.6218
524.2762, 327.3220
524.7583, 326.1646
525.2404, 327.1310
525.7225, 331.9272
526.2047, 336.6231
526.6868, 335.7444
527.1689, 329.0151
527.6510, 324.3233
528.1331, 322.9249
528.6152, 323.2987
529.0974, 326.5236
529.5795, 330.7812
530.0616, 330.7271
530.5437, 323.2472
531.0258, 312.4283
531.5079, 308.7583
531.9901, 318.9042
532.4722, 324.0685
532.9543, 318.1571
533.4364, 312.5947
533.9185, 315.5919
534.4006, 325.8785
534.8828, 336.6395
535.3649, 344.1451
535.8470, 347.9026
536.3291, 344.8961
536.8112, 332.9079
537.2933, 322.5119
537.7755, 317.5175
538.2576, 316.3868
538.7397, 318.3836
539.2218, 324.1588
539.7039, 328.1100
540.1860, 323.9604
540.6682, 317.5894
541.1503, 320.0789
541.6324, 332.3431
542.1145, 343.4095
542.5966, 344.6179
543.0787, 337.3641
543.5609, 333.5427
544.0430, 335.9051
544.5251, 337.7649
545.0072, 338.1063
545.4893, 337.1716
545.9714, 333.5786
546.4536, 327.8780
546.9357, 324.8696
547.4178, 331.3977
547.8999, 347.9849
548.3820, 358.4633
548.8641, 361.2412
549.3463, 359.8145
549.8284, 353.6713
550.3105, 345.3691
550.7926, 338.1361
551.2747, 332.7904
551.7568, 329.1400
552.2390, 326.6570
552.7211, 325.6423
553.2032, 328.4074
553.6853, 336.5768
554.1674, 343.9703
554.6495, 343.8997
555.1317, 336.4569
555.6138, 332.0838
556.0959, 330.6865
556.5780, 332.6669
557.0601, 342.9889
557.5422, 355.6981
558.0244, 359.3173
558.5065, 349.9498
558.9886, 335.6594
559.4707, 328.5646
559.9528, 330.1375
560.4349, 333.0096
560.9171, 342.5748
561.3992, 347.9603
561.8813, 340.8810
562.3634, 327.6829
562.8455, 320.6983
563.3276, 326.8011
563.8098, 336.3998
564.2919, 336.1862
564.7740, 326.7472
565.2561, 316.7963
565.7382, 306.1551
566.2203, 299.1662
566.7025, 303.8101
567.1846, 318.5522
567.6667, 328.1541
568.1488, 327.7628
568.6309, 324.0311
569.1130, 319.6361
569.5952, 315.4295
570.0773, 313.3015
570.5594, 314.0877
571.0415, 315.9565
571.5236, 315.1185
572.0057, 308.4325
572.4879, 307.6584
572.9700, 320.0924
573.4521, 330.8744
573.9342, 330.9953
574.4163, 324.7750
574.8984, 322.7650
575.3806, 331.6138
575.8627, 342.9062
576.3448, 341.4824
576.8269, 327.2405
577.3090, 318.2733
577.7911, 321.5851
578.2733, 327.2798
578.7554, 322.8765
579.2375, 309.8454
579.7196, 302.1998
580.2017, 308.0930
580.6838, 315.2049
581.1660, 312.4401
581.6481, 304.0702
582.1302, 302.7468
582.6123, 313.9938
583.0944, 329.7430
583.5765, 335.5267
584.0587, 326.7818
584.5408, 320.9506
585.0229, 322.3628
585.5050, 322.1632
585.9871, 314.2831
586.4692, 302.3399
586.9514, 293.4943
587.4335, 290.9557
587.9156, 293.0692
588.3977, 299.0121
588.8798, 308.6091
589.3619, 316.0250
589.8441, 319.6999
590.3262, 321.6127
590.8083, 324.3091
591.2904, 327.4103
591.7725, 327.0516
592.2546, 318.1094
592.7368, 310.1104
593.2189, 309.5982
593.7010, 313.9322
594.1831, 318.7383
594.6652, 322.3586
595.1473, 322.9776
595.6295, 316.6238
596.1116, 300.1246
596.5937, 291.9071
597.0758, 299.2563
597.5579, 307.6897
598.0400, 314.1588
598.5222, 318.3727
599.0043, 319.9203
599.4864, 318.2749
599.9685, 315.8237
600.4506, 316.2056
600.9327, 318.3194
601.4149, 315.1266
601.8970, 303.5049
602.3791, 294.2754
602.8612, 297.4177
603.3433, 312.0171
603.8254, 324.8811
604.3076, 340.4916
604.7897, 349.1992
605.2718, 342.2653
605.7539, 328.9276
606.2360, 321.6113
606.7181, 322.7204
607.2003, 324.7719
607.6824, 318.6564
608.1645, 304.7112
608.6466, 300.1233
609.1287, 313.7932
609.6108, 321.9268
610.0930, 308.1564
610.5751, 289.8560
611.0572, 287.7967
611.5393, 306.6116
612.0214, 325.6708
612.5035, 330.8177
612.9857, 327.2563
613.4678, 323.3643
613.9499, 319.9865
614.4320, 318.2026
614.9141, 318.7264
615.3962, 321.2972
615.8784, 325.0313
616.3605, 334.1062
616.8426, 338.4612
617.3247, 333.4395
617.8068, 326.8036
618.2889, 325.3960
618.7711, 328.2792
619.2532, 329.3214
619.7353, 323.5198
620.2174, 314.1166
620.6995, 309.9149
621.1816, 311.6330
621.6638, 314.7226
622.1459, 321.1424
622.6280, 325.1980
623.1101, 317.6744
623.5922, 299.7126
624.0743, 290.4911
624.5565, 303.7894
625.0386, 320.1661
625.5207, 324.2405
626.0028, 318.9937
626.4849, 312.5726
626.9670, 308.1456
627.4492, 306.6189
627.9313, 310.5837
628.4134, 323.1925
628.8955, 328.5158
629.3776, 316.9318
629.8597, 307.8284
630.3419, 309.3405
630.8240, 316.6761
631.3061, 322.4687
631.7882, 324.4018
632.2703, 324.0767
632.7524, 321.7220
633.2346, 318.2755
633.7167, 317.3994
634.1988, 319.9119
634.6809, 322.2179
635.1630, 321.0268
635.6451, 317.2818
636.1273, 317.1379
636.6094, 326.3460
637.0915, 331.0574
637.5736, 324.2999
638.0557, 315.1573
638.5378, 313.0923
639.0200, 317.9709
639.5021, 322.4177
639.9842, 320.3810
640.4663, 313.8238
640.9484, 309.6359
641.4305, 308.2462
641.9127, 307.2393
642.3948, 304.7802
642.8769, 303.6018
643.3590, 308.3461
643.8411, 318.7299
644.3232, 324.1958
644.8054, 317.6714
645.2875, 308.6943
645.7696, 303.7601
646.2517, 302.5862
646.7338, 304.7289
647.2159, 310.0258
647.6981, 315.0446
648.1802, 313.7292
648.6623, 303.7756
649.1444, 299.4894
649.6265, 308.2149
650.1086, 313.9321
650.5908, 306.6705
651.0729, 295.0895
651.5550, 292.7822
652.0371, 304.5084
652.5192, 316.5380
653.0013, 316.0138
653.4835, 308.5963
653.9656, 307.0387
654.4477, 312.6502
654.9298, 319.4584
655.4119, 324.0202
655.8940, 326.4426
656.3762, 327.0485
656.8583, 324.1537
657.3404, 321.6808
657.8225, 319.8526
658.3046, 318.2765
658.7867, 315.8058
659.2689, 313.2681
659.7510, 313.3466
660.2331, 318.3600
660.7152, 325.0952
661.1973, 327.3263
661.6794, 325.2558
662.1616, 326.0479
662.6437, 333.6787
663.1258, 338.7846
663.6079, 329.0445
664.0900, 305.6119
664.5721, 292.9010
665.0543, 298.6666
665.5364, 306.8156
666.0185, 314.1500
666.5006, 319.2781
666.9827, 319.8887
667.4648, 316.0341
667.9470, 311.1006
668.4291, 308.9037
668.9112, 308.3187
669.3933, 300.8398
669.8754, 282.3340
670.3575, 270.6484
670.8397, 275.2606
671.3218, 286.7557
671.8039, 294.8915
672.2860, 299.5068
672.7681, 302.3268
673.2502, 303.6349
673.7324, 303.5015
674.2145, 299.7796
674.6966, 294.8503
675.1787, 295.6798
675.6608, 304.8502
676.1429, 314.8674
676.6251, 313.6740
677.1072, 299.3220
677.5893, 289.2442
678.0714, 283.1214
678.5535, 282.0483
679.0356, 289.0398
679.5178, 299.7480
679.9999, 308.8443
680.4820, 315.3945
680.9641, 320.9367
681.4462, 328.4815
681.9283, 334.2790
682.4105, 332.4297
682.8926, 323.3804
683.3747, 310.7421
683.8568, 295.4941
684.3389, 281.6968
684.8210, 279.9444
685.3032, 297.8031
685.7853, 309.7054
686.2674, 311.1116
686.7495, 311.0709
687.2316, 314.8279
687.7137, 319.3888
688.1959, 317.7672
688.6780, 305.7505
689.1601, 294.6539
689.6422, 297.4443
690.1243, 307.4582
690.6064, 308.4418
691.0886, 298.6096
691.5707, 288.8693
692.0528, 286.6117
692.5349, 290.6501
693.0170, 296.7988
693.4991, 310.6758
693.9813, 317.2665
694.4634, 311.2257
694.9455, 302.7819
695.4276, 295.9909
695.9097, 292.0233
696.3918, 293.2433
696.8740, 303.3351
697.3561, 312.9694
697.8382, 307.5872
698.3203, 292.2727
698.8024, 286.9039
699.2845, 295.8689
699.7667, 307.0987
700.2488, 311.1238
700.7309, 308.6003
701.2130, 304.6979
701.6951, 291.9782
702.1772, 287.9998
702.6594, 306.6253
703.1415, 324.3836
703.6236, 318.6158
704.1057, 294.5283
704.5878, 277.7139
705.0699, 286.1925
705.5521, 303.5787
706.0342, 304.3238
706.5163, 291.7857
706.9984, 288.3099
707.4805, 300.6038
707.9626, 312.8676
708.4448, 308.8261
708.9269, 289.4907
709.4090, 279.1165
709.8911, 285.1056
710.3732, 289.7865
710.8553, 287.8329
711.3375, 285.5443
711.8196, 289.8251
712.3017, 299.7201
712.7838, 308.0634
713.2659, 311.0922
713.7480, 309.0637
714.2302, 298.3619
714.7123, 280.9199
715.1944, 274.0256
715.6765, 283.9277
716.1586, 297.0985
716.6407, 299.8205
717.1229, 292.1244
717.6050, 288.3971
718.0871, 292.3438
718.5692, 295.1051
719.0513, 293.3014
719.5334, 290.9431
720.0156, 293.1320
720.4977, 299.0561
720.9798, 301.9368
721.4619, 294.7278
721.9440, 284.7748
722.4261, 286.2136
722.9083, 297.2048
723.3904, 303.6779
723.8725, 301.3483
724.3546, 296.6779
724.8367, 296.6110
725.3188, 301.1389
725.8010, 301.7875
726.2831, 292.7487
726.7652, 287.4942
727.2473, 291.0512
727.7294, 297.2269
728.2115, 300.9064
728.6937, 301.6870
729.1758, 301.9861
729.6579, 305.2351
730.1400, 306.6937
730.6221, 294.2898
731.1042, 272.3299
731.5864, 265.3960
732.0685, 281.3602
732.5506, 299.8893
733.0327, 299.6976
733.5148, 281.8194
733.9969, 272.5405
734.4791, 279.5323
734.9612, 285.3332
735.4433, 288.2112
735.9254, 288.9959
736.4075, 287.0085
736.8896, 283.2472
737.3718, 281.4312
737.8539, 284.3841
738.3360, 289.0300
738.8181, 293.0608
739.3002, 295.9195
739.7823, 295.1609
740.2645, 290.2136
740.7466, 284.3622
741.2287, 280.4243
741.7108, 278.2678
742.1929, 276.8380
742.6750, 275.6610
743.1572, 276.0801
743.6393, 280.2102
744.1214, 284.2099
744.6035, 284.8868
745.0856, 283.0641
745.5677, 282.2881
746.0499, 284.4178
746.5320, 287.2650
747.0141, 288.4252
747.4962, 289.1792
747.9783, 293.7497
748.4604, 302.0603
748.9426, 306.4199
749.4247, 300.2425
749.9068, 286.6118
750.3889, 277.3283
750.8710, 271.9262
751.3531, 272.3938
751.8353, 284.0368
752.3174, 296.3409
752.7995, 305.7346
753.2816, 310.7271
753.7637, 306.4203
754.2458, 283.9996
754.7280, 266.5823
755.2101, 270.9285
755.6922, 283.8084
756.1743, 289.8096
756.6564, 287.9371
757.1385, 283.4328
757.6207, 279.0743
758.1028, 276.5345
758.5849, 273.9594
759.0670, 286.3078
759.5491, 293.3124
760.0313, 295.2602
760.5134, 277.0058
760.9955, 284.8383
761.4776, 282.2164
761.9597, 279.1658
762.4418, 290.6700
762.9240, 275.3540
763.4061, 286.6274
763.8882, 287.2868
764.3703, 292.8040
764.8524, 287.8021
765.3345, 284.9201
765.8167, 285.4187
766.2988, 285.5906
766.7809, 284.4005
767.2630, 282.5221
767.7451, 284.9698
768.2272, 292.8194
768.7094, 297.8555
769.1915, 295.3492
769.6736, 288.3864
770.1557, 282.8793
770.6378, 279.3606
771.1199, 275.7638
771.6021, 269.1119
772.0842, 265.6692
772.5663, 271.1317
773.0484, 279.8752
773.5305, 284.5307
774.0126, 283.4103
774.4948, 279.7113
774.9769, 273.0501
775.4590, 266.7716
775.9411, 268.3977
776.4232, 276.1104
776.9053, 279.6002
777.3875, 274.9797
777.8696, 267.3867
778.3517, 262.5815
778.8338, 260.5199
779.3159, 264.1475
779.7980, 281.2056
780.2802, 291.0571
780.7623, 280.1634
781.2444, 266.7674
781.7265, 267.7607
782.2086, 281.8731
782.6907, 291.8477
783.1729, 288.7079
783.6550, 282.9500
784.1371, 280.1772
784.6192, 279.7030
785.1013, 281.5523
785.5834, 284.9839
786.0656, 286.3001
786.5477, 281.9084
787.0298, 274.6874
787.5119, 273.4423
787.9940, 278.8004
788.4761, 284.1498
788.9583, 289.0468
789.4404, 292.3718
789.9225, 293.8505
790.4046, 292.9832
790.8867, 287.6821
791.3688, 271.1682
791.8510, 261.1263
792.3331, 264.6170
792.8152, 271.5517
793.2973, 275.9758
793.7794, 277.7863
794.2615, 278.4064
794.7437, 278.3103
795.2258, 278.0266
795.7079, 278.6819
796.1900, 279.4692
796.6721, 278.3337
797.1542, 275.1480
797.6364, 269.8561
798.1185, 261.6790
798.6006, 254.2514
799.0827, 254.9462
799.5648, 266.4630
800.0469, 273.4901
800.5291, 273.0258
801.0112, 272.0532
801.4933, 272.6186
801.9754, 273.9354
802.4575, 275.9659
802.9396, 278.6720
803.4218, 278.5273
803.9039, 267.7032
804.3860, 259.8749
804.8681, 271.1540
805.3502, 290.7366
805.8323, 298.4841
806.3145, 290.6668
806.7966, 279.0308
807.2787, 273.5188
807.7608, 272.7251
808.2429, 272.3437
808.7250, 272.3365
809.2072, 273.4881
809.6893, 276.2289
810.1714, 279.5506
810.6535, 283.1178
811.1356, 286.6204
811.6177, 287.7981
812.0999, 284.3876
812.5820, 281.9957
813.0641, 281.6033
813.5462, 281.8635
814.0283, 283.3549
814.5104, 284.5810
814.9926, 281.5388
815.4747, 271.4576
815.9568, 263.0943
816.4389, 266.4583
816.9210, 274.7384
817.4031, 276.2306
817.8853, 271.2675
818.3674, 265.9877
818.8495, 263.1359
819.3316, 263.2013
819.8137, 268.0722
820.2958, 278.2949
820.7780, 283.9640
821.2601, 284.1237
821.7422, 282.1305
822.2243, 278.3001
822.7064, 273.6428
823.1885, 269.2235
823.6707, 265.0015
824.1528, 261.6839
824.6349, 257.9190
825.1170, 256.7762
825.5991, 262.7899
826.0812, 269.8824
826.5634, 270.6455
827.0455, 265.3265
827.5276, 260.3235
828.0097, 259.6164
828.4918, 261.0164
828.9739, 259.6394
829.4560, 257.9169
829.9381, 266.6963
830.4202, 287.0856
830.9023, 304.2702
831.3845, 308.3973
831.8666, 301.7886
832.3487, 288.7688
832.8308, 263.9871
833.3129, 251.5667
833.7950, 258.4698
834.2772, 268.7824
834.7593, 275.8992
835.2414, 281.1192
835.7235, 287.2818
836.2056, 295.8546
836.6877, 298.0427
837.1699, 286.0666
837.6520, 272.8506
838.1341, 263.6620
838.6162, 259.4587
839.0983, 262.4740
839.5804, 272.2887
840.0626, 282.8570
840.5447, 290.2429
841.0268, 294.5410
841.5089, 296.3635
841.9910, 295.3826
842.4731, 287.7399
842.9553, 272.2777
843.4374, 259.4759
843.9195, 259.0378
844.4016, 267.7651
844.8837, 270.4428
845.3658, 263.4965
845.8480, 260.0196
846.3301, 259.9904
846.8122, 265.1791
847.2943, 284.5339
847.7764, 307.7145
848.2585, 312.6484
848.7407, 290.5376
849.2228, 272.5978
849.7049, 269.7434
850.1870, 271.4268
850.6691, 270.4147
851.1512, 268.8083
851.6334, 273.1984
852.1155, 284.5579
852.5976, 292.3124
853.0797, 282.1914
853.5618, 264.7895
854.0439, 261.0800
854.5261, 268.5115
855.0082, 275.7299
855.4903, 279.7501
855.9724, 278.9375
856.4545, 270.3376
856.9366, 256.7130
857.4188, 253.7678
857.9009, 265.8445
858.3830, 274.5473
858.8651, 276.2151
859.3472, 275.9890
859.8293, 277.6110
860.3115, 279.7744
860.7936, 278.5116
861.2757, 269.6413
861.7578, 267.5260
862.2399, 284.4426
862.7220, 299.0709
863.2042, 295.7033
863.6863, 282.5314
864.1684, 272.6535
864.6505, 269.5773
865.1326, 270.5585
865.6147, 277.1638
866.0969, 284.1677
866.5790, 283.3856
867.0611, 276.9182
867.5432, 271.1776
868.0253, 267.7194
868.5074, 264.3424
868.9896, 258.6204
869.4717, 252.2549
869.9538, 252.1134
870.4359, 259.2528
870.9180, 263.3746
871.4001, 260.7260
871.8823, 261.2907
872.3644, 274.4200
872.8465, 294.1023
873.3286, 303.5217
873.8107, 296.9677
874.2928, 292.7543
874.7750, 292.3720
875.2571, 292.7397
875.7392, 292.9363
876.2213, 292.9946
876.7034, 292.4964
877.1855, 291.5345
877.6677, 292.4673
878.1498, 299.7519
878.6319, 306.0898
879.1140, 306.5970
879.5961, 301.7752
880.0782, 289.1409
880.5604, 270.8776
881.0425, 258.4621
881.5246, 260.7259
882.0067, 269.7696
882.4888, 270.8219
882.9709, 265.3960
883.4531, 264.3171
883.9352, 269.0901
884.4173, 271.3454
884.8994, 265.7657
885.3815, 257.2523
885.8636, 255.0552
886.3458, 260.1302
886.8279, 266.6342
887.3100, 279.0314
887.7921, 285.1830
888.2742, 275.0854
888.7563, 261.7498
889.2385, 258.7574
889.7206, 265.3392
890.2027, 269.9518
890.6848, 270.4211
891.1669, 269.4407
891.6490, 266.7052
892.1312, 263.7934
892.6133, 261.8571
893.0954, 260.9632
893.5775, 260.7548
894.0596, 260.9942
894.5417, 262.4214
895.0239, 265.6688
895.5060, 270.5055
895.9881, 278.1062
896.4702, 287.0590
896.9523, 292.9992
897.4344, 294.3381
897.9166, 290.9742
898.3987, 279.8447
898.8808, 265.0162
899.3629, 269.1022
899.8450, 293.4398
900.3271, 305.5263
900.8093, 295.8507
901.2914, 280.5119
901.7735, 271.0747
902.2556, 267.3420
902.7377, 269.1737
903.2198, 282.9682
903.7020, 288.9341
904.1841, 279.7089
904.6662, 270.7576
905.1483, 269.9293
905.6304, 272.6284
906.1125, 271.6094
906.5947, 265.6222
907.0768, 263.1058
907.5589, 269.7662
908.0410, 276.0558
908.5231, 279.5793
909.0052, 278.7184
909.4874, 267.6306
909.9695, 249.5051
910.4516, 239.4134
910.9337, 248.8009
911.4158, 261.5713
911.8979, 259.0276
912.3801, 249.9781
912.8622, 250.5449
913.3443, 260.4701
913.8264, 270.9044
914.3085, 277.7472
914.7906, 282.2062
915.2728, 286.5451
915.7549, 290.1467
916.2370, 287.1877
916.7191, 277.2646
917.2012, 272.0461
917.6833, 276.0805
918.1655, 280.9860
918.6476, 278.2612
919.1297, 269.2891
919.6118, 263.2802
920.0939, 260.5105
920.5760, 260.0093
921.0582, 262.0583
921.5403, 265.9168
922.0224, 274.0398
922.5045, 282.7216
922.9866, 284.7848
923.4688, 278.2947
923.9509, 272.8249
924.4330, 270.2964
924.9151, 268.3277
925.3972, 264.4611
925.8793, 261.5897
926.3615, 264.4257
926.8436, 272.0575
927.3257, 277.0310
927.8078, 272.6792
928.2899, 270.2170
928.7720, 281.8748
929.2542, 297.5914
929.7363, 305.5521
930.2184, 305.3610
930.7005, 298.7191
931.1826, 286.4061
931.6647, 276.5481
932.1469, 281.3408
932.6290, 294.6897
933.1111, 301.0201
933.5932, 300.7875
934.0753, 297.7118
934.5574, 292.8141
935.0396, 287.8723
935.5217, 284.4484
936.0038, 282.2737
936.4859, 280.6698
936.9680, 279.8387
937.4501, 277.4391
937.9323, 272.0538
938.4144, 269.1293
938.8965, 272.6502
939.3786, 279.1948
939.8607, 282.9569
940.3428, 284.2614
940.8250, 280.8662
941.3071, 264.7905
941.7892, 255.4911
942.2713, 264.1770
942.7534, 275.1682
943.2355, 274.0414
943.7177, 263.6198
944.1998, 258.1034
944.6819, 262.1376
945.1640, 266.7433
945.6461, 270.5590
946.1282, 273.2508
946.6104, 273.2155
947.0925, 272.4214
947.5746, 275.7426
948.0567, 284.0138
948.5388, 287.5486
949.0209, 273.7935
949.5031, 259.5269
949.9852, 261.6028
950.4673, 272.5421
950.9494, 281.6055
951.4315, 286.5279
951.9136, 287.2444
952.3958, 283.1904
952.8779, 277.9372
953.3600, 275.0995
953.8421, 275.0549
954.3242, 281.1573
954.8063, 292.0227
955.2885, 297.6069
955.7706, 294.1866
956.2527, 287.9080
956.7348, 285.7769
957.2169, 286.4671
957.6990, 282.9326
958.1812, 274.7783
958.6633, 270.0220
959.1454, 270.1200
959.6275, 273.6430
960.1096, 280.8647
960.5917, 288.9867
961.0739, 290.6882
961.5560, 283.3204
962.0381, 282.3384
962.5202, 294.5697
963.0023, 299.5629
963.4844, 283.6560
963.9666, 265.0108
964.4487, 264.9288
964.9308, 281.5031
965.4129, 289.4489
965.8950, 279.9427
966.3771, 274.8607
966.8593, 280.8492
967.3414, 286.9903
967.8235, 286.7987
968.3056, 282.9007
968.7877, 279.6277
969.2698, 277.6168
969.7520, 276.7689
970.2341, 279.2212
970.7162, 280.3068
971.1983, 272.5092
971.6804, 265.5794
972.1625, 275.1017
972.6447, 296.3021
973.1268, 307.3569
973.6089, 296.8384
974.0910, 282.7500
974.5731, 277.7294
975.0552, 277.4685
975.5374, 277.9537
976.0195, 278.6987
976.5016, 280.2391
976.9837, 282.3552
977.4658, 282.2488
977.9479, 276.1096
978.4301, 268.6541
978.9122, 269.0656
979.3943, 274.2155
979.8764, 274.6370
980.3585, 269.7577
980.8406, 264.6814
981.3228, 261.9464
981.8049, 261.1681
982.2870, 261.3612
982.7691, 262.9565
983.2512, 270.1913
983.7333, 282.9657
984.2155, 291.3742
984.6976, 292.8788
985.1797, 289.4292
985.6618, 281.5222
986.1439, 271.7597
986.6260, 268.4595
987.1082, 272.6802
987.5903, 276.2610
988.0724, 278.7516
988.5545, 281.3620
989.0366, 285.7049
989.5187, 288.3521
990.0009, 284.0630
990.4830, 273.0912
990.9651, 266.7304
991.4472, 267.5210
991.9293, 267.6927
992.4114, 264.6068
992.8936, 262.9593
993.3757, 266.7466
993.8578, 273.4309
994.3399, 277.6291
994.8220, 278.5118
995.3041, 280.5454
995.7863, 283.5677
996.2684, 288.1797
996.7505, 299.9020
997.2326, 308.8384
997.7147, 303.4224
998.1968, 287.7306
998.6790, 277.4873
999.1611, 276.5019
999.6432, 278.8391
1000.125, 289.4171
1000.607, 295.8157
1001.090, 284.1760
1001.572, 267.3939
1002.054, 265.3265
1002.536, 278.5919
1003.018, 287.7232
1003.500, 275.5086
1003.982, 269.6716
1004.464, 296.6926
1004.946, 307.2987
1005.429, 312.5574
1005.911, 312.7628
1006.393, 292.7660
1006.875, 298.8562
1007.357, 294.4919
1007.839, 289.6989
1008.321, 299.4608
1008.803, 282.4023
1009.286, 291.9300
1009.768, 274.2110
1010.250, 264.5863
1010.732, 259.1504
1011.214, 260.1752
1011.696, 264.3031
1012.178, 268.5878
1012.660, 273.0633
1013.142, 279.2808
1013.625, 285.6988
1014.107, 286.5602
1014.589, 281.2118
1015.071, 275.8138
1015.553, 275.0392
1016.035, 276.5744
1016.517, 276.6787
1016.999, 275.6248
1017.482, 273.7996
1017.964, 271.5435
1018.446, 271.5880
1018.928, 274.9391
1019.410, 277.8090
1019.892, 275.5606
1020.374, 270.6253
1020.856, 271.3941
1021.338, 277.5042
1021.821, 284.8467
1022.303, 293.0076
1022.785, 297.7246
1023.267, 296.5559
1023.749, 292.4204
1024.231, 289.4265
1024.713, 287.5079
1025.195, 286.0244
1025.677, 285.1617
1026.160, 281.8755
1026.642, 274.0651
1027.124, 271.4672
1027.606, 282.3640
1028.088, 299.5408
1028.570, 306.3459
1029.052, 301.3094
1029.534, 298.4674
1030.017, 298.0860
1030.499, 299.8557
1030.981, 306.4789
1031.463, 308.3662
1031.945, 293.6579
1032.427, 269.2689
1032.909, 263.0467
1033.391, 285.4725
1033.874, 294.6615
1034.356, 281.8562
1034.838, 273.4563
1035.320, 282.9467
1035.802, 295.9135
1036.284, 295.7428
1036.766, 284.0128
1037.248, 277.1592
1037.730, 274.1904
1038.213, 278.3747
1038.695, 298.1079
1039.177, 313.8044
1039.659, 315.3413
1040.141, 308.9077
1040.623, 301.1170
1041.105, 291.6624
1041.587, 287.5352
1042.069, 292.1809
1042.552, 297.0512
1043.034, 304.7798
1043.516, 308.9446
1043.998, 304.0697
1044.480, 294.0908
1044.962, 284.6708
1045.444, 275.3993
1045.926, 271.7129
1046.409, 276.4376
1046.891, 283.5397
1047.373, 296.3225
1047.855, 306.6188
1048.337, 307.3206
1048.819, 301.4794
1049.301, 296.8825
1049.783, 295.4076
1050.266, 290.3277
1050.748, 271.5417
1051.230, 260.4234
1051.712, 272.4053
1052.194, 288.6014
1052.676, 292.4326
1053.158, 286.0559
1053.640, 279.0050
1054.122, 271.7339
1054.604, 267.7679
1055.087, 269.0270
1055.569, 272.5154
1056.051, 278.7274
1056.533, 285.0681
1057.015, 289.0331
1057.497, 290.6624
1057.979, 291.0551
1058.461, 289.8429
1058.944, 288.9666
1059.426, 290.8896
1059.908, 291.2796
1060.390, 285.2328
1060.872, 277.6754
1061.354, 274.9889
1061.836, 277.2297
1062.318, 279.8491
1062.801, 282.0729
1063.283, 283.2644
1063.765, 282.6165
1064.247, 281.4385
1064.729, 278.7140
1065.211, 277.0607
1065.693, 282.4780
1066.175, 294.2172
1066.657, 299.8102
1067.140, 290.0874
1067.622, 280.5293
1068.104, 278.6328
1068.586, 278.7697
1069.068, 276.5872
1069.550, 273.3669
1070.032, 271.0256
1070.514, 270.1478
1070.996, 272.4849
1071.479, 283.9965
1071.961, 292.0820
1072.443, 288.8965
1072.925, 281.5116
1073.407, 271.5894
1073.889, 263.6927
1074.371, 267.2393
1074.853, 283.5121
1075.335, 295.4692
1075.818, 291.8797
1076.300, 287.0027
1076.782, 290.4086
1077.264, 293.5951
1077.746, 285.0904
1078.228, 271.4528
1078.710, 268.4224
1079.192, 279.5516
1079.675, 287.7230
1080.157, 280.4087
1080.639, 274.2171
1081.121, 281.9457
1081.603, 291.4418
1082.085, 289.7987
1082.567, 280.8307
1083.049, 274.5136
1083.531, 273.2703
1084.014, 274.4534
1084.496, 279.4880
1084.978, 283.5189
1085.460, 280.9551
1085.942, 278.6776
1086.424, 286.1952
1086.906, 298.8140
1087.388, 304.9741
1087.870, 301.8563
1088.353, 293.1995
1088.835, 272.1534
1089.317, 256.1734
1089.799, 258.1322
1090.281, 266.0325
1090.763, 268.7303
1091.245, 267.5403
1091.727, 268.4884
1092.210, 273.2394
1092.692, 277.5385
1093.174, 278.4222
1093.656, 280.2254
1094.138, 287.6441
1094.620, 294.7273
1095.102, 295.9007
1095.584, 292.1272
1096.067, 285.1768
1096.549, 273.9348
1097.031, 270.6146
1097.513, 290.6567
1097.995, 304.8057
1098.477, 293.7894
1098.959, 277.0707
1099.441, 269.6205
1099.923, 271.4041
1100.406, 281.1256
1100.888, 301.5428
1101.370, 312.0278
1101.852, 300.7036
1102.334, 287.4077
1102.816, 275.1255
1103.298, 267.7003
1103.780, 271.5228
1104.262, 281.8890
1104.745, 286.9763
1105.227, 283.8628
1105.709, 282.9922
1106.191, 289.7772
1106.673, 294.2217
1107.155, 291.0036
1107.637, 286.4763
1108.119, 284.6007
1108.602, 285.4122
1109.084, 289.1711
1109.566, 297.2069
1110.048, 301.8048
1110.530, 301.9006
1111.012, 299.0288
1111.494, 288.2480
1111.976, 279.7510
1112.458, 283.5533
1112.941, 294.0084
1113.423, 298.2095
1113.905, 294.7852
1114.387, 290.6069
1114.869, 285.2365
1115.351, 279.6455
1115.833, 270.5067
1116.315, 265.4521
1116.797, 272.2872
1117.280, 284.8384
1117.762, 290.7308
1118.244, 289.0500
1118.726, 287.4681
1119.208, 286.8974
1119.690, 284.1977
1120.172, 276.1499
1120.654, 270.6947
1121.137, 273.9185
1121.619, 281.4068
1122.101, 286.0530
1122.583, 287.9755
1123.065, 282.6495
1123.547, 264.0244
1124.029, 258.8775
1124.511, 276.5142
1124.994, 293.2794
1125.476, 295.5530
1125.958, 291.0644
1126.440, 292.1151
1126.922, 298.1179
1127.404, 297.6742
1127.886, 289.8300
1128.368, 280.9784
1128.850, 271.1032
1129.333, 264.9156
1129.815, 265.0965
1130.297, 268.7027
1130.779, 271.9828
1131.261, 275.1784
1131.743, 279.8220
1132.225, 285.8881
1132.707, 291.4137
1133.189, 296.2062
1133.672, 297.2426
1134.154, 293.0117
1134.636, 287.1108
1135.118, 282.5655
1135.600, 280.8272
1136.082, 290.1193
1136.564, 306.8645
1137.046, 308.4429
1137.529, 294.9215
1138.011, 281.8690
1138.493, 275.0441
1138.975, 276.2459
1139.457, 289.7820
1139.939, 305.6544
1140.421, 301.8382
1140.903, 287.4179
1141.385, 288.9137
1141.868, 302.2433
1142.350, 306.0912
1142.832, 295.4127
1143.314, 279.8589
1143.796, 264.2546
1144.278, 253.5225
1144.760, 256.0460
1145.242, 265.4308
1145.724, 273.5218
1146.207, 280.0967
1146.689, 286.9243
1147.171, 293.5602
1147.653, 295.9305
1148.135, 290.8473
1148.617, 285.8010
1149.099, 287.7596
1149.581, 291.4109
1150.064, 292.7013
1150.546, 291.9012
1151.028, 288.7644
1151.510, 284.2608
1151.992, 281.2299
1152.474, 280.7490
1152.956, 281.0342
1153.438, 279.2927
1153.921, 280.4234
1154.403, 293.3413
1154.885, 305.3712
1155.367, 298.4752
1155.849, 281.3258
1156.331, 279.7412
1156.813, 301.4403
1157.295, 315.2552
1157.777, 308.3628
1158.260, 301.3578
1158.742, 300.7803
1159.224, 301.3161
1159.706, 300.2246
1160.188, 297.3806
1160.670, 292.1193
1161.152, 284.0519
1161.634, 278.1180
1162.116, 272.3691
1162.599, 272.8593
1163.081, 287.2774
1163.563, 295.8076
1164.045, 284.2850
1164.527, 268.2784
1165.009, 269.0556
1165.491, 284.2513
1165.973, 291.6979
1166.456, 289.2794
1166.938, 288.5618
1167.420, 290.4117
1167.902, 293.6837
1168.384, 298.4195
1168.866, 302.4463
1169.348, 303.5257
1169.830, 302.4983
1170.313, 302.4612
1170.795, 303.1429
1171.277, 298.5084
1171.759, 288.6947
1172.241, 280.8893
1172.723, 277.0373
1173.205, 277.1274
1173.687, 281.4570
1174.169, 287.9111
1174.651, 293.5897
1175.134, 298.6032
1175.616, 304.1611
1176.098, 309.1962
1176.580, 310.3814
1177.062, 307.3672
1177.544, 300.3762
1178.026, 289.3433
1178.508, 280.6915
1178.991, 283.9327
1179.473, 289.2598
1179.955, 282.8707
1180.437, 273.1904
1180.919, 273.5309
1181.401, 281.1398
1181.883, 285.0477
1182.365, 282.6548
1182.848, 283.1409
1183.330, 295.9240
1183.812, 306.6148
1184.294, 306.1662
1184.776, 302.5105
1185.258, 300.8453
1185.740, 300.5182
1186.222, 299.5027
1186.704, 297.8998
1187.187, 298.4601
1187.669, 304.5555
1188.151, 307.5612
1188.633, 304.5548
1189.115, 300.5262
1189.597, 295.1310
1190.079, 291.5793
1190.561, 294.4598
1191.043, 300.9968
1191.526, 301.5970
1192.008, 293.8360
1192.490, 291.1947
1192.972, 295.0611
1193.454, 300.7619
1193.936, 309.4177
1194.418, 312.0377
1194.900, 300.6473
1195.383, 286.1904
1195.865, 288.1442
1196.347, 303.7390
1196.829, 310.8155
1197.311, 309.7680
1197.793, 312.3177
1198.275, 319.4178
1198.757, 317.8705
1199.240, 302.2685
1199.722, 288.3972
1200.204, 293.4850
1200.686, 306.5354
1201.168, 307.0563
1201.650, 300.4625
1202.132, 298.8880
1202.614, 300.9656
1203.096, 300.6908
1203.578, 296.6311
1204.061, 289.2340
1204.543, 276.9180
1205.025, 269.2263
1205.507, 278.0194
1205.989, 290.2410
1206.471, 295.8845
1206.953, 296.9027
1207.435, 295.0052
1207.918, 291.5479
1208.400, 289.2245
1208.882, 288.9590
1209.364, 287.2720
1209.846, 278.1280
1210.328, 274.4792
1210.810, 284.6796
1211.292, 296.8818
1211.775, 306.8459
1212.257, 312.0199
1212.739, 306.1723
1213.221, 290.2019
1213.703, 285.6501
1214.185, 298.5989
1214.667, 306.5761
1215.149, 307.7833
1215.631, 305.3985
1216.114, 298.9898
1216.596, 294.4459
1217.078, 297.9731
1217.560, 305.1738
1218.042, 304.6963
1218.524, 297.0363
1219.006, 286.6732
1219.488, 274.8886
1219.970, 280.0022
1220.453, 303.0961
1220.935, 314.7762
1221.417, 299.1195
1221.899, 280.3817
1222.381, 288.8359
1222.863, 308.2358
1223.345, 315.6321
1223.827, 313.9022
1224.310, 304.1263
1224.792, 290.5731
1225.274, 281.1725
1225.756, 278.1790
1226.238, 281.7224
1226.720, 296.7243
1227.202, 307.7330
1227.684, 304.5151
1228.167, 296.6695
1228.649, 286.0628
1229.131, 277.7503
1229.613, 277.5462
1230.095, 284.3708
1230.577, 293.9903
1231.059, 308.6288
1231.541, 316.3761
1232.023, 314.8148
1232.505, 309.6826
1232.988, 297.4643
1233.470, 290.5308
1233.952, 299.0354
1234.434, 310.7592
1234.916, 306.4771
1235.398, 289.9695
1235.880, 288.2392
1236.362, 301.7222
1236.845, 312.0557
1237.327, 317.8296
1237.809, 314.4252
1238.291, 300.7544
1238.773, 289.0230
1239.255, 288.6182
1239.737, 294.2617
1240.219, 301.6454
1240.702, 307.3974
1241.184, 301.7968
1241.666, 291.0925
1242.148, 288.0677
1242.630, 292.9245
1243.112, 300.6364
1243.594, 309.3996
1244.076, 314.8833
1244.558, 313.3754
1245.041, 309.5789
1245.523, 302.6537
1246.005, 297.7598
1246.487, 301.5445
1246.969, 308.0191
1247.451, 307.0524
1247.933, 299.7304
1248.415, 299.8220
1248.897, 316.5056
1249.380, 318.7805
1249.862, 295.4553
1250.344, 282.2365
1250.826, 290.0761
1251.308, 305.1491
1251.790, 321.4270
1252.272, 331.9485
1252.754, 322.0092
1253.237, 296.6395
1253.719, 290.0411
1254.201, 299.6497
1254.683, 300.0746
1255.165, 290.4410
1255.647, 285.7204
1256.129, 290.5779
1256.611, 298.6025
1257.094, 306.6982
1257.576, 309.7172
1258.058, 295.9035
1258.540, 278.9563
1259.022, 274.7274
1259.504, 279.2087
1259.986, 289.9888
1260.468, 302.1702
1260.950, 302.8220
1261.432, 287.3376
1261.915, 279.2262
1262.397, 291.3458
1262.879, 303.8103
1263.361, 314.4635
1263.843, 320.2315
1264.325, 316.9864
1264.807, 310.4094
1265.289, 306.6607
1265.772, 304.8999
1266.254, 300.9008
1266.736, 293.5086
1267.218, 291.5513
1267.700, 295.8170
1268.182, 296.5177
1268.664, 291.2158
1269.146, 291.8774
1269.629, 305.6920
1270.111, 321.9294
1270.593, 327.9539
1271.075, 326.7772
1271.557, 321.6837
1272.039, 315.1274
1272.521, 311.6984
1273.003, 311.1048
##END=



