##NAMES=Valleriite
##RRUFFID=R070750
##IDEAL CHEMISTRY=2[(Fe,Cu)S]&#183;1.53[(Mg,Al)(OH)_2_]
##LOCALITY=Talnakh Cu-Ni Deposit, Taimyr Peninsula, Noril'sk, Putoran Mts, Taymyrskiy Autonomous Okrug, Eastern-Siberian Region, Russia
##OWNER=RRUFF
##SOURCE=Michael Scott
##DESCRIPTION=Bronze-yellow metallic massive associated with calcite
##STATUS=The identification of this mineral is not yet confirmed.
##URL=rruff.info/R070750
193.4400, 512.7878
193.9221, 504.8755
194.4042, 489.2985
194.8863, 473.1527
195.3684, 462.3751
195.8505, 457.0026
196.3327, 455.3465
196.8148, 457.8752
197.2969, 464.0060
197.7790, 470.5387
198.2611, 478.1609
198.7432, 484.3072
199.2254, 484.5404
199.7075, 477.8911
200.1896, 472.8436
200.6717, 471.8313
201.1538, 474.8471
201.6359, 483.6952
202.1181, 501.9050
202.6002, 520.5200
203.0823, 521.4033
203.5644, 499.8042
204.0465, 480.3693
204.5286, 475.6187
205.0108, 487.8698
205.4929, 499.0056
205.9750, 510.2952
206.4571, 518.8279
206.9392, 514.6567
207.4213, 492.7843
207.9035, 471.8921
208.3856, 464.2969
208.8677, 473.7407
209.3498, 480.6916
209.8319, 483.1674
210.3140, 481.9765
210.7962, 479.9865
211.2783, 475.8942
211.7604, 473.5768
212.2425, 476.6453
212.7246, 486.9847
213.2067, 496.8052
213.6889, 505.5718
214.1710, 513.1923
214.6531, 517.0287
215.1352, 515.2162
215.6173, 512.4126
216.0994, 514.0836
216.5816, 523.3221
217.0637, 529.0400
217.5458, 527.4156
218.0279, 517.7910
218.5100, 512.1887
218.9921, 511.4019
219.4743, 513.8491
219.9564, 518.7023
220.4385, 529.4832
220.9206, 535.0743
221.4027, 529.8435
221.8848, 509.6520
222.3670, 498.8546
222.8491, 501.5894
223.3312, 511.1992
223.8133, 515.2614
224.2954, 510.2119
224.7775, 505.8380
225.2596, 506.0358
225.7418, 512.3892
226.2239, 518.9672
226.7060, 525.8875
227.1881, 532.9460
227.6702, 539.8750
228.1523, 547.1962
228.6345, 553.5317
229.1166, 558.4217
229.5987, 562.6609
230.0808, 562.9968
230.5629, 555.6902
231.0450, 544.1749
231.5272, 543.6794
232.0093, 561.5917
232.4914, 580.9725
232.9735, 591.2035
233.4556, 585.9107
233.9377, 584.6035
234.4199, 592.1661
234.9020, 606.8042
235.3841, 610.2183
235.8662, 593.2462
236.3483, 575.4515
236.8304, 572.1675
237.3126, 590.7571
237.7947, 609.9168
238.2768, 628.2397
238.7589, 645.6573
239.2410, 656.6507
239.7231, 659.5179
240.2053, 657.6633
240.6874, 653.4371
241.1695, 643.1036
241.6516, 637.1719
242.1337, 639.6431
242.6158, 651.7030
243.0980, 656.6064
243.5801, 650.4628
244.0622, 640.4177
244.5443, 634.7817
245.0264, 635.5994
245.5085, 637.3594
245.9907, 639.3765
246.4728, 642.2259
246.9549, 641.5439
247.4370, 634.5056
247.9191, 625.9890
248.4012, 623.3404
248.8834, 629.2461
249.3655, 636.4717
249.8476, 643.7410
250.3297, 652.2477
250.8118, 655.8457
251.2939, 653.0924
251.7761, 646.2544
252.2582, 639.2261
252.7403, 631.9359
253.2224, 624.4594
253.7045, 615.5587
254.1866, 601.6969
254.6688, 598.2948
255.1509, 611.0125
255.6330, 631.4708
256.1151, 640.9850
256.5972, 635.6734
257.0793, 626.1436
257.5615, 615.8029
258.0436, 601.9926
258.5257, 594.9040
259.0078, 596.2543
259.4899, 603.7641
259.9720, 612.6666
260.4542, 626.8353
260.9363, 635.3266
261.4184, 629.7198
261.9005, 602.2498
262.3826, 586.4771
262.8647, 588.3074
263.3469, 601.9907
263.8290, 607.6187
264.3111, 602.4749
264.7932, 594.7803
265.2753, 589.6348
265.7574, 588.4990
266.2396, 584.2870
266.7217, 574.1180
267.2038, 560.8900
267.6859, 556.6259
268.1680, 564.3758
268.6501, 574.3414
269.1323, 579.6622
269.6144, 579.2004
270.0965, 579.2966
270.5786, 581.4569
271.0607, 584.6296
271.5428, 583.1252
272.0250, 574.6938
272.5071, 567.3740
272.9892, 569.5779
273.4713, 584.3591
273.9534, 590.8800
274.4355, 583.0794
274.9177, 565.1147
275.3998, 556.6122
275.8819, 559.9528
276.3640, 565.7770
276.8461, 564.7929
277.3282, 555.7351
277.8104, 552.6113
278.2925, 560.8914
278.7746, 576.7949
279.2567, 581.6611
279.7388, 573.2552
280.2209, 562.4918
280.7031, 559.0958
281.1852, 563.3168
281.6673, 569.6148
282.1494, 578.7669
282.6315, 588.7474
283.1136, 589.2385
283.5958, 578.5065
284.0779, 567.3135
284.5600, 567.7845
285.0421, 579.4898
285.5242, 588.2228
286.0063, 588.8475
286.4884, 584.1891
286.9706, 584.8278
287.4527, 591.4534
287.9348, 598.2907
288.4169, 597.3618
288.8990, 589.9167
289.3811, 587.7612
289.8633, 597.2905
290.3454, 613.4373
290.8275, 621.6604
291.3096, 621.5305
291.7917, 618.3305
292.2738, 617.4711
292.7560, 618.1781
293.2381, 616.3337
293.7202, 608.5195
294.2023, 598.2617
294.6844, 593.2813
295.1665, 593.7013
295.6487, 596.8335
296.1308, 600.7136
296.6129, 605.3719
297.0950, 610.9440
297.5771, 619.3511
298.0592, 627.7125
298.5414, 630.7217
299.0235, 628.3475
299.5056, 624.0897
299.9877, 620.8265
300.4698, 618.0068
300.9519, 614.1111
301.4341, 604.8282
301.9162, 596.4103
302.3983, 600.1219
302.8804, 615.6329
303.3625, 629.3252
303.8446, 624.0202
304.3268, 609.5925
304.8089, 603.8279
305.2910, 622.0030
305.7731, 646.2468
306.2552, 659.5625
306.7373, 662.3491
307.2195, 660.1124
307.7016, 652.5408
308.1837, 643.3416
308.6658, 637.7897
309.1479, 638.0400
309.6300, 642.4235
310.1122, 652.3322
310.5943, 667.3488
311.0764, 679.0240
311.5585, 679.4840
312.0406, 674.8439
312.5227, 671.9202
313.0049, 674.1577
313.4870, 677.9110
313.9691, 682.9736
314.4512, 688.9998
314.9333, 690.9709
315.4154, 678.8101
315.8976, 664.7563
316.3797, 660.3703
316.8618, 676.8786
317.3439, 696.4857
317.8260, 715.7607
318.3081, 734.0081
318.7903, 743.4377
319.2724, 732.8755
319.7545, 716.8517
320.2366, 706.8814
320.7187, 706.5208
321.2008, 711.5558
321.6830, 725.9136
322.1651, 747.9771
322.6472, 761.1075
323.1293, 753.4826
323.6114, 740.9728
324.0935, 734.2822
324.5757, 745.3314
325.0578, 750.7090
325.5399, 740.9753
326.0220, 718.5995
326.5041, 709.0640
326.9862, 727.3666
327.4684, 749.8810
327.9505, 763.0927
328.4326, 759.3467
328.9147, 755.7589
329.3968, 753.4694
329.8789, 752.1757
330.3611, 749.8752
330.8432, 744.7689
331.3253, 740.3968
331.8074, 739.0228
332.2895, 743.5518
332.7716, 745.6931
333.2538, 743.5612
333.7359, 738.6423
334.2180, 737.2462
334.7001, 740.9811
335.1822, 745.6650
335.6643, 748.7745
336.1465, 749.3949
336.6286, 751.7413
337.1107, 757.2587
337.5928, 764.0966
338.0749, 765.7689
338.5570, 760.1780
339.0392, 755.6587
339.5213, 758.7180
340.0034, 770.9804
340.4855, 776.1652
340.9676, 771.8611
341.4497, 762.0394
341.9319, 754.3220
342.4140, 748.7579
342.8961, 745.0674
343.3782, 744.5331
343.8603, 746.7324
344.3424, 746.2773
344.8246, 743.0999
345.3067, 736.8057
345.7888, 722.9031
346.2709, 702.3469
346.7530, 688.0366
347.2351, 691.8650
347.7173, 707.5399
348.1994, 714.2048
348.6815, 710.2521
349.1636, 700.7179
349.6457, 689.2684
350.1278, 676.6992
350.6100, 666.1481
351.0921, 660.9969
351.5742, 658.1848
352.0563, 651.2863
352.5384, 639.4677
353.0205, 630.2603
353.5027, 634.9929
353.9848, 647.2714
354.4669, 654.3889
354.9490, 647.2921
355.4311, 634.8524
355.9132, 624.7722
356.3954, 617.2510
356.8775, 610.4888
357.3596, 604.9617
357.8417, 599.0239
358.3238, 590.4216
358.8059, 570.5668
359.2881, 554.3159
359.7702, 554.1594
360.2523, 568.7777
360.7344, 578.1072
361.2165, 568.0032
361.6986, 551.2404
362.1808, 538.7955
362.6629, 539.0183
363.1450, 538.3779
363.6271, 531.4808
364.1092, 519.4063
364.5913, 509.9243
365.0735, 507.5750
365.5556, 506.6099
366.0377, 503.4935
366.5198, 491.7364
367.0019, 484.8504
367.4840, 487.9161
367.9662, 498.0219
368.4482, 502.2551
368.9304, 498.2208
369.4125, 490.1866
369.8946, 479.6414
370.3767, 462.5157
370.8588, 449.6518
371.3409, 441.2651
371.8231, 436.9980
372.3052, 436.6894
372.7873, 443.6356
373.2694, 449.0910
373.7515, 448.8847
374.2336, 441.1619
374.7158, 435.2237
375.1979, 430.5795
375.6800, 428.2371
376.1621, 432.6241
376.6442, 447.4931
377.1263, 453.6199
377.6085, 438.2537
378.0906, 402.6969
378.5727, 384.1512
379.0548, 385.5013
379.5369, 395.7185
380.0190, 403.2745
380.5012, 408.2037
380.9833, 409.5689
381.4654, 405.7208
381.9475, 398.3687
382.4296, 391.8951
382.9117, 386.2965
383.3939, 382.4060
383.8760, 382.1005
384.3581, 384.3542
384.8402, 385.9290
385.3223, 385.0323
385.8044, 383.7605
386.2866, 387.6076
386.7687, 395.4119
387.2508, 398.2820
387.7329, 383.2533
388.2150, 361.4897
388.6971, 348.6904
389.1793, 353.8571
389.6614, 360.6069
390.1435, 355.5872
390.6256, 341.7965
391.1077, 328.7056
391.5898, 318.5987
392.0720, 312.5624
392.5541, 312.2284
393.0362, 320.4222
393.5183, 328.0275
394.0004, 331.6002
394.4825, 332.2157
394.9647, 331.8422
395.4468, 327.5097
395.9289, 325.2509
396.4110, 328.8539
396.8931, 341.3884
397.3752, 349.6661
397.8574, 348.1202
398.3395, 342.6805
398.8216, 340.4581
399.3037, 341.8188
399.7858, 346.3772
400.2679, 357.6722
400.7501, 377.0538
401.2322, 382.1205
401.7143, 364.4846
402.1964, 340.8372
402.6785, 325.4340
403.1606, 320.9706
403.6428, 318.1834
404.1249, 315.6641
404.6070, 313.7375
405.0891, 314.2122
405.5712, 317.0979
406.0533, 322.3099
406.5355, 331.6989
407.0176, 345.8280
407.4997, 353.6525
407.9818, 352.3513
408.4639, 346.5899
408.9460, 346.9965
409.4282, 353.5769
409.9103, 358.9270
410.3924, 358.1766
410.8745, 352.7529
411.3566, 346.3752
411.8387, 338.4470
412.3209, 333.2594
412.8030, 341.1408
413.2851, 356.9185
413.7672, 365.3027
414.2493, 352.5095
414.7314, 331.8360
415.2136, 317.2213
415.6957, 309.1836
416.1778, 307.2060
416.6599, 317.9155
417.1420, 332.6713
417.6241, 339.8799
418.1063, 327.6940
418.5884, 314.2252
419.0705, 308.3983
419.5526, 309.5339
420.0347, 312.5869
420.5168, 317.3491
420.9990, 322.3171
421.4811, 326.3100
421.9632, 328.1152
422.4453, 330.4442
422.9274, 337.5775
423.4095, 346.0147
423.8917, 345.8475
424.3738, 324.1625
424.8559, 304.5280
425.3380, 295.4813
425.8201, 300.5541
426.3022, 306.7047
426.7844, 316.0197
427.2665, 325.1365
427.7486, 328.1486
428.2307, 321.2723
428.7128, 316.9749
429.1949, 320.7585
429.6771, 332.2377
430.1592, 333.8030
430.6413, 322.8042
431.1234, 308.6673
431.6055, 298.8895
432.0876, 293.3764
432.5698, 297.0475
433.0519, 315.2083
433.5340, 339.7144
434.0161, 350.5355
434.4982, 347.8697
434.9803, 339.8451
435.4625, 327.3659
435.9446, 314.0421
436.4267, 310.7090
436.9088, 321.5450
437.3909, 335.1428
437.8730, 339.6535
438.3552, 336.7959
438.8373, 331.3697
439.3194, 320.9805
439.8015, 312.0530
440.2836, 312.7371
440.7657, 324.7624
441.2479, 334.4193
441.7300, 331.3356
442.2121, 322.4856
442.6942, 316.1511
443.1763, 317.5707
443.6584, 319.3479
444.1406, 318.8232
444.6227, 316.0940
445.1048, 313.4352
445.5869, 308.3802
446.0690, 305.4868
446.5511, 307.5052
447.0333, 327.2274
447.5154, 335.3517
447.9975, 324.5566
448.4796, 302.5880
448.9617, 290.7269
449.4438, 294.1582
449.9260, 299.5093
450.4081, 301.4081
450.8902, 298.8457
451.3723, 298.9275
451.8544, 302.5771
452.3365, 307.4138
452.8186, 310.1331
453.3008, 310.5231
453.7829, 310.9819
454.2650, 311.7854
454.7471, 313.2855
455.2292, 317.5371
455.7113, 324.7326
456.1935, 331.5992
456.6756, 337.5053
457.1577, 341.0270
457.6398, 337.2570
458.1219, 321.8326
458.6040, 304.9424
459.0862, 300.8106
459.5683, 306.0623
460.0504, 309.4332
460.5325, 299.9940
461.0146, 288.4305
461.4967, 285.5885
461.9789, 294.3909
462.4610, 302.2885
462.9431, 300.7279
463.4252, 295.0927
463.9073, 292.3564
464.3894, 295.8140
464.8716, 301.2778
465.3537, 309.7890
465.8358, 321.2280
466.3179, 326.3220
466.8000, 317.7704
467.2821, 306.9153
467.7643, 300.5694
468.2464, 299.9642
468.7285, 302.3748
469.2106, 311.5202
469.6927, 322.5911
470.1748, 320.5636
470.6570, 298.1400
471.1391, 280.3191
471.6212, 280.5039
472.1033, 300.2766
472.5854, 309.9718
473.0675, 307.2082
473.5497, 300.8103
474.0318, 303.2602
474.5139, 313.5310
474.9960, 318.7375
475.4781, 311.7071
475.9602, 299.4458
476.4424, 298.2575
476.9245, 307.2196
477.4066, 314.6118
477.8887, 308.0706
478.3708, 295.6239
478.8529, 289.7898
479.3351, 295.0023
479.8172, 302.0364
480.2993, 304.8770
480.7814, 304.3808
481.2635, 302.4180
481.7456, 295.9711
482.2278, 291.3450
482.7099, 293.4816
483.1920, 303.8315
483.6741, 310.7186
484.1562, 309.4450
484.6383, 304.3232
485.1205, 299.0901
485.6026, 290.2625
486.0847, 286.0859
486.5668, 290.5911
487.0489, 300.9731
487.5310, 303.4532
488.0132, 293.0374
488.4953, 282.8867
488.9774, 279.0750
489.4595, 282.1533
489.9416, 290.1627
490.4237, 305.9458
490.9059, 321.6047
491.3880, 323.7847
491.8701, 312.5513
492.3522, 301.9796
492.8343, 298.2555
493.3164, 298.2357
493.7986, 291.6787
494.2807, 278.8557
494.7628, 269.8585
495.2449, 277.9843
495.7270, 294.5974
496.2091, 304.0429
496.6913, 301.1814
497.1734, 295.0320
497.6555, 291.8703
498.1376, 290.8193
498.6197, 289.8057
499.1018, 286.6225
499.5840, 284.2490
500.0661, 283.9553
500.5482, 285.7984
501.0303, 290.3507
501.5124, 306.5139
501.9945, 321.0539
502.4767, 321.9461
502.9588, 285.1788
503.4409, 264.3519
503.9230, 271.4829
504.4051, 298.7927
504.8872, 313.7294
505.3694, 312.7095
505.8515, 306.2442
506.3336, 297.2326
506.8157, 284.2257
507.2978, 279.9940
507.7799, 286.7446
508.2621, 297.2011
508.7442, 301.4539
509.2263, 300.0455
509.7084, 299.4681
510.1905, 303.5188
510.6726, 308.5613
511.1548, 306.2444
511.6369, 297.1362
512.1190, 287.9194
512.6011, 281.2943
513.0832, 278.0388
513.5653, 280.4651
514.0474, 291.5067
514.5295, 300.6712
515.0117, 299.6160
515.4938, 292.5522
515.9759, 286.6745
516.4580, 282.1442
516.9401, 281.2821
517.4222, 288.0590
517.9044, 303.0563
518.3865, 310.6112
518.8686, 304.5664
519.3507, 293.6628
519.8328, 282.2203
520.3149, 265.7648
520.7971, 258.3167
521.2792, 263.9272
521.7613, 276.9341
522.2434, 284.4709
522.7255, 285.5265
523.2076, 285.5190
523.6898, 285.3665
524.1719, 285.5871
524.6540, 292.4480
525.1361, 307.0954
525.6182, 319.3262
526.1003, 315.1768
526.5825, 300.2474
527.0646, 291.3060
527.5467, 295.2279
528.0288, 301.7780
528.5109, 299.7865
528.9930, 291.4197
529.4752, 283.0147
529.9573, 275.1793
530.4394, 270.4590
530.9215, 272.3416
531.4036, 282.1174
531.8857, 289.5914
532.3679, 288.2819
532.8500, 284.6522
533.3321, 284.6018
533.8142, 295.5432
534.2963, 301.9860
534.7784, 300.5037
535.2606, 293.4068
535.7427, 288.5511
536.2248, 285.4888
536.7069, 285.4189
537.1890, 290.8614
537.6711, 302.8226
538.1533, 305.4901
538.6354, 296.6909
539.1175, 285.0371
539.5996, 280.5674
540.0817, 282.4505
540.5638, 285.5047
541.0460, 289.6091
541.5281, 292.6842
542.0102, 288.3772
542.4923, 278.8308
542.9744, 274.0397
543.4565, 286.9996
543.9387, 303.5723
544.4208, 308.7298
544.9029, 299.4773
545.3850, 290.0531
545.8671, 289.3858
546.3492, 291.2361
546.8314, 288.7905
547.3135, 271.2269
547.7956, 259.5940
548.2777, 260.5219
548.7598, 271.3179
549.2419, 280.6301
549.7241, 289.6384
550.2062, 295.5128
550.6883, 296.3137
551.1704, 290.8243
551.6525, 287.3259
552.1346, 285.8293
552.6168, 286.2229
553.0989, 289.7088
553.5810, 296.0395
554.0631, 299.4832
554.5452, 297.8680
555.0273, 293.6801
555.5095, 291.1551
555.9916, 283.2328
556.4737, 289.5813
556.9558, 292.6165
557.4379, 292.5164
557.9200, 279.8905
558.4022, 283.4388
558.8843, 280.5054
559.3664, 277.3061
559.8485, 283.1311
560.3306, 272.3269
560.8127, 278.0089
561.2949, 277.1094
561.7770, 263.1538
562.2591, 252.6082
562.7412, 253.4953
563.2233, 278.2130
563.7054, 297.7222
564.1876, 299.1844
564.6697, 279.8426
565.1518, 270.4056
565.6339, 273.0843
566.1160, 280.7164
566.5981, 288.7537
567.0803, 296.7875
567.5624, 296.8437
568.0445, 284.4011
568.5266, 268.7046
569.0087, 265.8081
569.4908, 273.4669
569.9730, 282.2674
570.4551, 287.8566
570.9372, 291.7378
571.4193, 296.3372
571.9014, 301.6780
572.3835, 304.0681
572.8657, 297.2941
573.3478, 289.0083
573.8299, 286.1423
574.3120, 299.2339
574.7941, 304.7332
575.2762, 291.4156
575.7584, 269.3529
576.2405, 259.0300
576.7226, 267.4538
577.2047, 276.0782
577.6868, 279.3814
578.1689, 277.8575
578.6511, 280.0490
579.1332, 286.7728
579.6153, 294.1714
580.0974, 300.1754
580.5795, 304.6130
581.0616, 305.9525
581.5438, 304.0449
582.0259, 298.9480
582.5080, 286.9867
582.9901, 271.7177
583.4722, 261.9399
583.9543, 264.9832
584.4365, 272.0655
584.9186, 276.3270
585.4007, 278.5625
585.8828, 283.4210
586.3649, 300.2081
586.8470, 314.5000
587.3292, 317.0144
587.8113, 300.9276
588.2934, 288.3081
588.7755, 280.1693
589.2576, 275.8401
589.7397, 275.0082
590.2219, 278.8104
590.7040, 283.5280
591.1861, 290.3748
591.6682, 296.6525
592.1503, 290.2903
592.6324, 270.0710
593.1146, 257.1220
593.5967, 271.1984
594.0788, 300.4332
594.5609, 310.3241
595.0430, 299.6819
595.5251, 286.3077
596.0073, 285.3722
596.4894, 290.5631
596.9715, 293.7068
597.4536, 292.5076
597.9357, 289.3141
598.4178, 282.0918
598.9000, 273.9866
599.3821, 270.9594
599.8642, 279.3137
600.3463, 287.6971
600.8284, 293.4417
601.3105, 296.5932
601.7927, 298.3493
602.2748, 298.5814
602.7569, 297.6799
603.2390, 295.7389
603.7211, 292.6978
604.2032, 289.2356
604.6854, 285.2169
605.1675, 281.3792
605.6496, 278.2778
606.1317, 276.1248
606.6138, 275.7880
607.0959, 277.4081
607.5781, 281.1212
608.0602, 290.3756
608.5423, 302.6479
609.0244, 309.1239
609.5065, 299.7956
609.9886, 287.2244
610.4708, 278.3148
610.9529, 273.6150
611.4350, 272.6708
611.9171, 277.3025
612.3992, 284.4906
612.8813, 292.3600
613.3635, 304.7165
613.8456, 309.8287
614.3277, 304.5013
614.8098, 293.9814
615.2919, 288.7733
615.7740, 289.3912
616.2562, 290.1306
616.7383, 288.0666
617.2204, 285.0688
617.7025, 287.7798
618.1846, 295.6823
618.6667, 301.9510
619.1489, 301.8514
619.6310, 297.3182
620.1131, 288.8239
620.5952, 274.9313
621.0773, 265.8073
621.5594, 271.3750
622.0416, 282.7865
622.5237, 290.5752
623.0058, 290.5939
623.4879, 289.3248
623.9700, 285.3298
624.4521, 280.8741
624.9343, 282.7300
625.4164, 294.9616
625.8985, 304.4509
626.3806, 305.9467
626.8627, 300.3043
627.3448, 294.4160
627.8270, 287.7534
628.3091, 285.1653
628.7912, 296.9315
629.2733, 315.5376
629.7554, 319.1380
630.2375, 302.1070
630.7197, 283.4452
631.2018, 281.0313
631.6839, 287.7794
632.1660, 292.9851
632.6481, 289.7618
633.1302, 287.4529
633.6124, 292.0594
634.0945, 300.8842
634.5766, 303.3902
635.0587, 289.7118
635.5408, 279.6613
636.0229, 281.4572
636.5051, 296.2468
636.9872, 301.4525
637.4693, 294.5284
637.9514, 285.2787
638.4335, 281.6866
638.9156, 283.2267
639.3978, 285.9308
639.8799, 289.9548
640.3620, 292.7223
640.8441, 289.1412
641.3262, 282.0988
641.8083, 277.8777
642.2905, 280.7870
642.7726, 285.3789
643.2547, 289.8963
643.7368, 293.5678
644.2189, 293.9323
644.7010, 284.0746
645.1832, 276.3607
645.6653, 277.5129
646.1474, 288.8177
646.6295, 295.5267
647.1116, 296.9613
647.5938, 294.8885
648.0759, 288.0616
648.5580, 275.3884
649.0401, 274.1350
649.5222, 288.3223
650.0043, 305.8827
650.4865, 310.0150
650.9686, 303.5107
651.4507, 295.6775
651.9328, 287.2166
652.4149, 281.7596
652.8970, 285.2211
653.3792, 294.9331
653.8613, 302.7462
654.3434, 305.9906
654.8255, 305.9041
655.3076, 302.0154
655.7897, 293.8701
656.2718, 286.9977
656.7539, 278.0101
657.2360, 274.1885
657.7181, 282.5482
658.2003, 308.5086
658.6824, 320.9431
659.1645, 316.1838
659.6466, 304.8865
660.1287, 301.3138
660.6108, 304.0413
661.0930, 304.9865
661.5751, 301.3225
662.0572, 296.0998
662.5393, 292.5383
663.0214, 290.3676
663.5035, 288.8477
663.9857, 287.0628
664.4678, 286.3438
664.9499, 288.6278
665.4320, 293.7245
665.9141, 295.9341
666.3962, 293.8802
666.8784, 288.9753
667.3605, 280.4051
667.8426, 265.6666
668.3247, 258.8056
668.8068, 261.0020
669.2889, 268.2906
669.7711, 278.8949
670.2532, 292.0848
670.7353, 300.0632
671.2174, 300.6563
671.6995, 297.3537
672.1816, 291.6651
672.6638, 285.4563
673.1459, 283.2235
673.6280, 293.0186
674.1101, 301.7114
674.5922, 300.1142
675.0743, 290.1273
675.5565, 282.3537
676.0386, 278.6557
676.5207, 278.0956
677.0028, 280.9518
677.4849, 287.7325
677.9670, 292.9567
678.4492, 296.1325
678.9313, 298.8986
679.4134, 303.7257
679.8955, 310.1115
680.3776, 311.3749
680.8597, 306.0042
681.3419, 299.3031
681.8240, 297.7610
682.3061, 299.3217
682.7882, 299.6578
683.2703, 295.4572
683.7524, 292.2278
684.2346, 294.5912
684.7167, 300.2143
685.1988, 303.7575
685.6809, 303.0295
686.1630, 300.9059
686.6451, 297.0800
687.1273, 292.0558
687.6094, 291.3500
688.0915, 297.5157
688.5736, 301.4299
689.0557, 295.2044
689.5378, 280.3886
690.0200, 275.5898
690.5021, 281.7105
690.9842, 289.4574
691.4663, 289.9245
691.9484, 286.4031
692.4305, 284.4888
692.9127, 286.1734
693.3948, 286.8018
693.8769, 280.8454
694.3590, 273.1899
694.8411, 270.3768
695.3232, 279.4230
695.8054, 286.3691
696.2875, 289.6773
696.7696, 289.7323
697.2517, 286.3383
697.7338, 277.4319
698.2159, 272.7700
698.6981, 278.6007
699.1802, 290.4872
699.6623, 289.7285
700.1444, 277.2214
700.6265, 268.6263
701.1086, 282.0950
701.5908, 301.7067
702.0729, 306.0351
702.5550, 292.6839
703.0371, 279.4179
703.5192, 275.2188
704.0013, 274.3417
704.4835, 272.0262
704.9656, 262.3818
705.4477, 261.4892
705.9298, 275.9083
706.4119, 293.4780
706.8940, 297.7579
707.3762, 286.0870
707.8583, 279.5604
708.3404, 283.4491
708.8225, 291.5594
709.3046, 292.0954
709.7867, 286.7378
710.2689, 282.3228
710.7510, 282.6404
711.2331, 284.7397
711.7152, 287.0442
712.1973, 289.1900
712.6794, 289.6115
713.1616, 284.8889
713.6437, 280.8309
714.1258, 279.7571
714.6079, 281.5847
715.0900, 287.7297
715.5721, 302.3586
716.0543, 313.7825
716.5364, 311.8643
717.0185, 296.7449
717.5006, 286.8637
717.9827, 283.4939
718.4648, 282.9376
718.9470, 281.5724
719.4291, 280.2448
719.9112, 281.0562
720.3933, 285.8678
720.8754, 289.5997
721.3575, 287.8165
721.8397, 283.3512
722.3218, 280.3233
722.8039, 280.7299
723.2860, 281.2574
723.7681, 281.4675
724.2502, 281.4486
724.7324, 281.4922
725.2145, 281.6787
725.6966, 281.4681
726.1787, 280.0176
726.6608, 278.3008
727.1429, 280.0112
727.6251, 284.7891
728.1072, 289.0582
728.5893, 291.0317
729.0714, 291.0133
729.5535, 288.2177
730.0356, 282.6306
730.5178, 279.0422
730.9999, 281.4103
731.4820, 284.8423
731.9641, 286.2203
732.4462, 285.1498
732.9283, 282.8497
733.4105, 278.3777
733.8926, 274.1744
734.3747, 272.9380
734.8568, 274.6093
735.3389, 276.5057
735.8210, 278.2989
736.3032, 280.1026
736.7853, 282.3771
737.2674, 284.7141
737.7495, 286.2993
738.2316, 287.2912
738.7137, 286.8734
739.1959, 283.7083
739.6780, 278.8599
740.1601, 274.7317
740.6422, 269.3525
741.1243, 268.0602
741.6064, 274.2230
742.0886, 285.2376
742.5707, 288.5454
743.0528, 282.8879
743.5349, 277.2672
744.0170, 276.2309
744.4991, 278.5781
744.9813, 282.2830
745.4634, 287.0197
745.9455, 289.2363
746.4276, 283.1573
746.9097, 275.7625
747.3918, 273.0101
747.8740, 275.9509
748.3561, 280.1777
748.8382, 288.7693
749.3203, 295.0580
749.8024, 293.8753
750.2845, 280.5799
750.7667, 275.1202
751.2488, 279.6515
751.7309, 286.8831
752.2130, 288.9232
752.6951, 286.3329
753.1772, 280.7611
753.6594, 270.7331
754.1415, 263.5188
754.6236, 270.9042
755.1057, 284.7429
755.5878, 292.2907
756.0699, 280.9424
756.5521, 271.8716
757.0342, 272.3578
757.5163, 279.0224
757.9984, 284.6907
758.4805, 291.8836
758.9626, 292.0773
759.4448, 280.5907
759.9269, 262.3394
760.4090, 251.6279
760.8911, 248.3302
761.3732, 250.4013
761.8553, 262.2466
762.3375, 275.6467
762.8196, 279.0344
763.3017, 273.6647
763.7838, 268.3562
764.2659, 266.9295
764.7480, 266.9206
765.2302, 267.8626
765.7123, 270.0572
766.1944, 268.6529
766.6765, 260.0109
767.1586, 253.6704
767.6407, 256.9800
768.1229, 269.8018
768.6050, 281.1615
769.0871, 291.3615
769.5692, 295.7667
770.0513, 284.7143
770.5334, 266.7184
771.0156, 255.3170
771.4977, 252.8625
771.9798, 255.4495
772.4619, 267.1006
772.9440, 279.7430
773.4261, 284.9978
773.9083, 274.6599
774.3904, 268.7701
774.8725, 270.0460
775.3546, 273.3657
775.8367, 270.3248
776.3188, 260.8598
776.8010, 256.1468
777.2831, 260.0107
777.7652, 266.2444
778.2473, 265.2822
778.7294, 259.9979
779.2115, 256.9099
779.6937, 261.7186
780.1758, 266.2494
780.6579, 264.5387
781.1400, 259.6007
781.6221, 260.9989
782.1042, 276.6663
782.5864, 286.4903
783.0685, 284.0355
783.5506, 272.9051
784.0327, 265.6254
784.5148, 262.2080
784.9969, 261.9044
785.4791, 267.4025
785.9612, 274.2700
786.4433, 272.8330
786.9254, 265.0355
787.4075, 260.8073
787.8896, 269.2276
788.3718, 279.4702
788.8539, 286.9703
789.3360, 291.4906
789.8181, 288.1316
790.3002, 269.4226
790.7823, 254.8476
791.2645, 258.1401
791.7466, 278.8100
792.2287, 285.5315
792.7108, 277.5036
793.1929, 267.4080
793.6750, 265.2949
794.1572, 268.1754
794.6393, 273.0890
795.1214, 280.2677
795.6035, 283.6493
796.0856, 275.5005
796.5677, 265.4354
797.0499, 261.7904
797.5320, 269.3734
798.0141, 271.8840
798.4962, 267.0545
798.9783, 260.7542
799.4604, 259.6339
799.9426, 263.2311
800.4247, 264.2338
800.9068, 261.2572
801.3889, 257.8238
801.8710, 257.7513
802.3531, 259.6608
802.8353, 261.7127
803.3174, 264.7049
803.7995, 265.3942
804.2816, 256.5587
804.7637, 247.4400
805.2458, 252.0805
805.7280, 280.6845
806.2101, 296.9941
806.6922, 294.3760
807.1743, 281.3786
807.6564, 270.9763
808.1385, 263.0889
808.6207, 256.9550
809.1028, 251.1045
809.5849, 249.0934
810.0670, 259.9240
810.5491, 276.4255
811.0313, 284.6274
811.5134, 270.9298
811.9955, 258.8357
812.4776, 254.2373
812.9597, 255.1621
813.4418, 257.6258
813.9240, 262.4414
814.4061, 265.5983
814.8882, 265.9821
815.3703, 263.9588
815.8524, 258.9697
816.3345, 251.8073
816.8167, 246.3992
817.2988, 245.3568
817.7809, 246.0523
818.2630, 246.6143
818.7451, 247.3201
819.2272, 249.5257
819.7094, 254.5790
820.1915, 260.0794
820.6736, 265.8553
821.1556, 271.5985
821.6378, 275.2027
822.1199, 276.5976
822.6020, 276.3053
823.0841, 274.1548
823.5662, 270.6740
824.0483, 265.9819
824.5305, 260.5069
825.0126, 256.3436
825.4947, 254.6446
825.9768, 254.6208
826.4589, 257.3424
826.9410, 262.8814
827.4232, 263.0726
827.9053, 254.2957
828.3874, 246.7566
828.8695, 246.3102
829.3516, 251.6619
829.8337, 250.5298
830.3159, 243.0862
830.7980, 240.6373
831.2801, 257.8145
831.7622, 280.5152
832.2443, 294.6839
832.7264, 299.2813
833.2086, 295.6667
833.6907, 274.0528
834.1728, 253.4947
834.6549, 243.8331
835.1370, 245.9354
835.6191, 250.2682
836.1013, 257.5688
836.5834, 264.1628
837.0655, 267.0758
837.5476, 267.2054
838.0297, 267.1573
838.5118, 267.0628
838.9940, 266.5157
839.4761, 263.6021
839.9582, 261.2499
840.4403, 262.1785
840.9224, 267.5812
841.4045, 272.3815
841.8867, 277.9059
842.3688, 280.6451
842.8509, 276.7572
843.3330, 265.8954
843.8151, 260.6664
844.2972, 261.6059
844.7794, 263.5219
845.2615, 260.4471
845.7436, 256.1251
846.2257, 257.1430
846.7078, 265.3293
847.1899, 270.0023
847.6721, 260.3190
848.1542, 250.6582
848.6363, 253.0356
849.1184, 274.0520
849.6005, 278.9913
850.0826, 262.8137
850.5648, 244.5164
851.0469, 243.0010
851.5290, 253.6273
852.0111, 261.4827
852.4932, 265.1462
852.9753, 266.4439
853.4575, 264.7415
853.9396, 262.5222
854.4217, 262.1817
854.9038, 264.9340
855.3859, 266.9621
855.8680, 267.7487
856.3502, 268.1313
856.8323, 270.0925
857.3144, 273.8011
857.7965, 267.9246
858.2786, 250.5067
858.7607, 235.8341
859.2429, 241.8384
859.7250, 256.8973
860.2071, 264.8078
860.6892, 261.6091
861.1713, 258.9676
861.6534, 263.7353
862.1356, 268.7387
862.6177, 267.6137
863.0998, 256.3878
863.5819, 256.1192
864.0640, 270.2058
864.5461, 283.9188
865.0283, 279.9363
865.5104, 265.0941
865.9925, 259.0464
866.4746, 264.4634
866.9567, 270.7572
867.4388, 271.9967
867.9210, 270.4417
868.4031, 267.5215
868.8852, 262.0528
869.3673, 259.4527
869.8494, 260.5914
870.3315, 263.2410
870.8137, 266.9406
871.2958, 271.2465
871.7779, 270.1046
872.2600, 262.8734
872.7421, 255.6987
873.2242, 254.0142
873.7064, 255.1433
874.1885, 256.0734
874.6706, 256.0480
875.1527, 257.7940
875.6348, 264.5291
876.1169, 270.9064
876.5991, 273.7765
877.0812, 272.7312
877.5633, 271.7874
878.0454, 270.9501
878.5275, 270.1487
879.0096, 268.0522
879.4918, 266.4364
879.9739, 269.5493
880.4560, 277.8966
880.9381, 284.1212
881.4202, 284.2472
881.9023, 281.2986
882.3845, 275.6306
882.8666, 266.2262
883.3487, 265.4671
883.8308, 277.0366
884.3129, 285.9277
884.7950, 276.8980
885.2772, 257.4866
885.7593, 252.5023
886.2414, 261.7980
886.7235, 270.4887
887.2056, 267.5460
887.6877, 261.5572
888.1699, 257.8979
888.6520, 257.1997
889.1341, 258.3991
889.6162, 262.8823
890.0983, 266.5286
890.5804, 267.0277
891.0626, 264.8866
891.5447, 263.2379
892.0268, 262.0375
892.5089, 260.7630
892.9910, 258.2513
893.4731, 256.1308
893.9553, 256.3473
894.4374, 258.6889
894.9195, 260.2601
895.4016, 261.7534
895.8837, 260.3062
896.3658, 251.6601
896.8480, 239.0774
897.3301, 244.8181
897.8122, 268.8578
898.2943, 290.0057
898.7764, 297.8759
899.2585, 295.5013
899.7407, 280.6620
900.2228, 257.4671
900.7049, 241.2191
901.1870, 238.9058
901.6691, 243.1975
902.1512, 254.1854
902.6334, 269.5197
903.1155, 281.8881
903.5976, 291.8672
904.0797, 292.6269
904.5618, 275.7625
905.0439, 255.8439
905.5261, 260.4005
906.0082, 280.7571
906.4903, 294.0919
906.9724, 283.6135
907.4545, 272.7508
907.9366, 270.6552
908.4188, 273.3842
908.9009, 272.6042
909.3830, 266.5577
909.8651, 264.4665
910.3472, 269.2668
910.8293, 276.8923
911.3115, 282.5647
911.7936, 285.5404
912.2757, 283.2052
912.7578, 268.8752
913.2399, 258.8616
913.7220, 268.2344
914.2042, 283.4702
914.6863, 283.8970
915.1684, 258.4364
915.6505, 249.5547
916.1326, 265.9716
916.6147, 287.1963
917.0969, 281.4012
917.5790, 258.2886
918.0611, 247.8628
918.5432, 258.8576
919.0253, 271.2723
919.5074, 271.3963
919.9896, 267.3784
920.4717, 267.3630
920.9538, 274.2395
921.4359, 279.9206
921.9180, 286.1803
922.4001, 287.4179
922.8823, 272.4446
923.3644, 247.6805
923.8465, 238.3667
924.3286, 246.6431
924.8107, 260.4109
925.2928, 278.8923
925.7750, 293.5033
926.2571, 294.9013
926.7392, 278.9945
927.2213, 271.7701
927.7034, 278.2775
928.1855, 283.6656
928.6677, 277.0713
929.1498, 261.7824
929.6319, 255.5252
930.1140, 257.7343
930.5961, 261.2314
931.0782, 259.3177
931.5604, 258.7634
932.0425, 266.2039
932.5246, 280.8602
933.0067, 292.3049
933.4888, 302.9801
933.9709, 304.2292
934.4531, 289.0358
934.9352, 265.1812
935.4173, 257.5163
935.8994, 264.0810
936.3815, 272.6915
936.8636, 280.7005
937.3458, 285.2890
937.8279, 282.1073
938.3100, 274.1675
938.7921, 268.5093
939.2742, 266.7759
939.7563, 266.3697
940.2385, 267.8002
940.7206, 269.3420
941.2027, 266.8795
941.6848, 261.3499
942.1669, 257.8639
942.6490, 258.1245
943.1312, 259.7369
943.6133, 261.6865
944.0954, 263.5051
944.5775, 264.5417
945.0596, 262.2795
945.5417, 263.7334
946.0239, 270.5909
946.5060, 278.4052
946.9881, 283.0793
947.4702, 284.7426
947.9523, 283.4096
948.4344, 278.8717
948.9166, 274.3353
949.3987, 273.1555
949.8808, 272.3500
950.3629, 268.8403
950.8450, 261.3036
951.3271, 256.5851
951.8093, 254.7364
952.2914, 255.8118
952.7735, 261.6357
953.2556, 270.5369
953.7377, 274.2216
954.2198, 273.1190
954.7020, 271.0565
955.1841, 267.9844
955.6662, 266.9141
956.1483, 272.8185
956.6304, 283.7643
957.1125, 285.9799
957.5947, 273.7920
958.0768, 265.6733
958.5589, 268.2449
959.0410, 276.8822
959.5231, 280.5334
960.0052, 280.4325
960.4874, 281.2431
960.9695, 287.4488
961.4516, 291.5689
961.9337, 286.3928
962.4158, 277.3808
962.8979, 274.5862
963.3801, 281.9346
963.8622, 285.4916
964.3443, 282.8073
964.8264, 278.7272
965.3085, 279.8350
965.7906, 284.6165
966.2728, 290.0313
966.7549, 296.1607
967.2370, 299.2096
967.7191, 294.1040
968.2012, 287.2081
968.6833, 283.9469
969.1655, 285.3577
969.6476, 284.6974
970.1297, 281.3152
970.6118, 278.5857
971.0939, 280.6625
971.5760, 284.5435
972.0582, 283.2588
972.5403, 277.3155
973.0224, 273.3806
973.5045, 275.4425
973.9866, 279.3918
974.4688, 284.5401
974.9509, 290.0957
975.4330, 291.6488
975.9151, 288.6548
976.3972, 287.3342
976.8793, 292.7116
977.3615, 297.5314
977.8436, 286.7761
978.3257, 267.5363
978.8078, 255.9599
979.2899, 265.0250
979.7720, 272.7893
980.2542, 273.8506
980.7363, 272.6213
981.2184, 275.1259
981.7005, 281.4336
982.1826, 289.5515
982.6647, 300.2012
983.1469, 306.5612
983.6290, 297.5125
984.1111, 282.5644
984.5932, 271.9972
985.0753, 267.7048
985.5574, 268.2881
986.0395, 277.5683
986.5216, 285.3986
987.0037, 283.5918
987.4858, 273.6546
987.9680, 272.3780
988.4501, 279.3201
988.9322, 287.0573
989.4143, 294.9676
989.8964, 298.1085
990.3785, 287.5459
990.8607, 266.8980
991.3428, 259.8228
991.8249, 275.1832
992.3070, 286.5996
992.7891, 285.4395
993.2712, 278.5497
993.7534, 282.9656
994.2355, 294.5978
994.7176, 299.6951
995.1997, 289.8940
995.6818, 279.0744
996.1639, 272.3549
996.6461, 269.8572
997.1282, 271.9245
997.6103, 280.7727
998.0924, 286.1280
998.5745, 287.1148
999.0566, 286.5106
999.5388, 278.5997
1000.021, 286.5264
1000.503, 291.1535
1000.985, 292.6584
1001.467, 281.6899
1001.949, 286.8283
1002.431, 285.5118
1002.914, 283.9314
1003.396, 291.3367
1003.878, 282.1824
1004.360, 289.4452
1004.842, 290.1546
1005.324, 293.8634
1005.806, 291.0774
1006.288, 290.2974
1006.771, 296.0150
1007.253, 298.1345
1007.735, 294.6009
1008.217, 298.5002
1008.699, 289.1191
1009.181, 280.9874
1009.663, 276.9431
1010.145, 278.4030
1010.627, 280.0409
1011.110, 280.7326
1011.592, 282.3234
1012.074, 287.8737
1012.556, 293.8353
1013.038, 296.6129
1013.520, 295.2165
1014.002, 295.2687
1014.484, 297.8977
1014.966, 298.3299
1015.449, 289.5974
1015.931, 277.5967
1016.413, 278.6798
1016.895, 290.2208
1017.377, 298.1896
1017.859, 290.3287
1018.341, 283.9475
1018.823, 286.2132
1019.306, 294.3010
1019.788, 302.4727
1020.270, 310.9150
1020.752, 316.5331
1021.234, 318.8629
1021.716, 317.2991
1022.198, 307.0382
1022.680, 294.0833
1023.162, 287.2070
1023.645, 291.7296
1024.127, 294.3049
1024.609, 292.8740
1025.091, 291.0747
1025.573, 291.8651
1026.055, 294.8414
1026.537, 298.0767
1027.019, 301.3565
1027.502, 302.6388
1027.984, 297.6681
1028.466, 292.9376
1028.948, 292.8600
1029.430, 296.9335
1029.912, 301.7964
1030.394, 308.5485
1030.876, 311.5375
1031.359, 308.0299
1031.841, 302.2893
1032.323, 300.2624
1032.805, 301.3488
1033.287, 304.6639
1033.769, 312.8502
1034.251, 317.6328
1034.733, 314.9732
1035.215, 310.3029
1035.698, 307.7822
1036.180, 307.4174
1036.662, 308.1894
1037.144, 310.1604
1037.626, 309.2948
1038.108, 296.9095
1038.590, 284.7560
1039.072, 284.8136
1039.554, 296.5089
1040.037, 302.3472
1040.519, 297.9441
1041.001, 296.5452
1041.483, 304.0450
1041.965, 314.3982
1042.447, 314.2009
1042.929, 306.8836
1043.411, 301.6841
1043.894, 301.2744
1044.376, 304.1474
1044.858, 314.0462
1045.340, 323.9345
1045.822, 326.7085
1046.304, 321.5502
1046.786, 318.2809
1047.268, 317.4680
1047.750, 315.0331
1048.233, 302.2484
1048.715, 289.8476
1049.197, 292.5041
1049.679, 309.3742
1050.161, 317.9815
1050.643, 311.2143
1051.125, 305.8158
1051.607, 307.6273
1052.089, 312.3458
1052.572, 307.4930
1053.054, 296.7866
1053.536, 292.8982
1054.018, 305.3281
1054.500, 314.4009
1054.982, 306.9538
1055.464, 294.2445
1055.946, 287.3221
1056.429, 287.0876
1056.911, 286.9490
1057.393, 286.6387
1057.875, 288.3055
1058.357, 297.5562
1058.839, 307.0401
1059.321, 307.0499
1059.803, 298.3917
1060.286, 292.7473
1060.768, 295.6489
1061.250, 294.1364
1061.732, 282.1405
1062.214, 267.5851
1062.696, 269.1147
1063.178, 282.6145
1063.660, 294.7333
1064.142, 301.9005
1064.625, 306.7914
1065.107, 309.3072
1065.589, 311.0480
1066.071, 314.0518
1066.553, 319.1828
1067.035, 317.9945
1067.517, 309.9548
1067.999, 302.8620
1068.481, 305.1535
1068.964, 309.1869
1069.446, 306.2528
1069.928, 297.6513
1070.410, 290.2169
1070.892, 284.5668
1071.374, 281.1829
1071.856, 280.6791
1072.338, 281.6103
1072.820, 281.8955
1073.303, 281.5900
1073.785, 280.3424
1074.267, 277.3076
1074.749, 276.5798
1075.231, 282.4661
1075.713, 289.3008
1076.195, 293.9390
1076.677, 296.3965
1077.160, 293.7316
1077.642, 285.9106
1078.124, 280.4871
1078.606, 284.6687
1079.088, 291.0036
1079.570, 293.4622
1080.052, 292.9291
1080.534, 291.5948
1081.016, 288.1840
1081.499, 288.2814
1081.981, 293.8759
1082.463, 299.5598
1082.945, 296.0977
1083.427, 288.5042
1083.909, 288.0254
1084.391, 296.8419
1084.873, 302.4823
1085.355, 294.8022
1085.838, 288.9631
1086.320, 293.5699
1086.802, 305.0362
1087.284, 302.9673
1087.766, 289.2909
1088.248, 279.7834
1088.730, 283.5082
1089.212, 290.4716
1089.695, 296.6299
1090.177, 300.5798
1090.659, 300.0951
1091.141, 293.7948
1091.623, 287.7278
1092.105, 281.6536
1092.587, 278.2637
1093.069, 281.9429
1093.552, 288.6123
1094.034, 292.8905
1094.516, 294.7449
1094.998, 297.7596
1095.480, 309.0797
1095.962, 310.4584
1096.444, 293.5761
1096.926, 268.7002
1097.408, 257.8763
1097.891, 257.9651
1098.373, 259.1713
1098.855, 258.0506
1099.337, 260.3741
1099.819, 274.2882
1100.301, 288.1478
1100.783, 292.5847
1101.265, 287.3563
1101.747, 286.9615
1102.230, 291.3065
1102.712, 294.0137
1103.194, 287.5905
1103.676, 280.9641
1104.158, 281.4091
1104.640, 287.4358
1105.122, 295.8528
1105.604, 310.5145
1106.087, 313.3338
1106.569, 299.3578
1107.051, 282.7256
1107.533, 279.3721
1108.015, 285.1082
1108.497, 297.0363
1108.979, 315.4873
1109.461, 322.7521
1109.943, 306.7606
1110.426, 290.5340
1110.908, 281.5706
1111.390, 278.4572
1111.872, 279.8429
1112.354, 283.9063
1112.836, 283.5321
1113.318, 271.2175
1113.800, 263.1967
1114.282, 271.7719
1114.765, 284.2528
1115.247, 288.2593
1115.729, 282.8880
1116.211, 282.5035
1116.693, 287.2938
1117.175, 291.5485
1117.657, 291.4882
1118.139, 289.0274
1118.622, 282.6945
1119.104, 275.1540
1119.586, 275.9366
1120.068, 287.9615
1120.550, 298.5416
1121.032, 306.1420
1121.514, 309.5454
1121.996, 303.6971
1122.479, 294.1671
1122.961, 289.4304
1123.443, 291.3809
1123.925, 292.2366
1124.407, 290.2205
1124.889, 288.4678
1125.371, 288.6308
1125.853, 289.7620
1126.335, 289.4225
1126.818, 287.8140
1127.300, 285.4037
1127.782, 280.5219
1128.264, 277.8757
1128.746, 281.1485
1129.228, 285.1741
1129.710, 284.9079
1130.192, 280.6912
1130.674, 280.3866
1131.157, 283.8590
1131.639, 283.8703
1132.121, 266.8870
1132.603, 253.5620
1133.085, 260.8682
1133.567, 281.2680
1134.049, 295.0057
1134.531, 302.1022
1135.014, 301.8921
1135.496, 292.9596
1135.978, 283.3098
1136.460, 281.4889
1136.942, 283.2310
1137.424, 284.2672
1137.906, 283.9327
1138.388, 284.7223
1138.870, 287.1507
1139.353, 288.8548
1139.835, 288.2368
1140.317, 287.0927
1140.799, 290.1065
1141.281, 294.5308
1141.763, 294.9863
1142.245, 286.8912
1142.727, 279.6969
1143.209, 272.8140
1143.692, 269.3108
1144.174, 272.9041
1144.656, 281.7151
1145.138, 291.8166
1145.620, 302.1094
1146.102, 307.1000
1146.584, 302.8455
1147.066, 293.9233
1147.549, 277.9684
1148.031, 261.9146
1148.513, 259.4237
1148.995, 268.3266
1149.477, 274.3909
1149.959, 275.1649
1150.441, 278.7172
1150.923, 301.0350
1151.406, 317.6615
1151.888, 308.3307
1152.370, 279.3409
1152.852, 262.5910
1153.334, 257.9731
1153.816, 255.8725
1154.298, 252.7576
1154.780, 251.7476
1155.262, 255.9914
1155.745, 263.6744
1156.227, 274.4495
1156.709, 290.6170
1157.191, 293.2934
1157.673, 280.3021
1158.155, 270.0884
1158.637, 277.9807
1159.119, 292.1394
1159.601, 301.3267
1160.084, 305.8155
1160.566, 306.0767
1161.048, 301.2876
1161.530, 293.9041
1162.012, 282.5578
1162.494, 273.4896
1162.976, 276.4260
1163.458, 284.4998
1163.941, 286.7488
1164.423, 282.9989
1164.905, 280.0226
1165.387, 277.9374
1165.869, 280.1128
1166.351, 290.1290
1166.833, 300.1965
1167.315, 291.5685
1167.797, 273.5558
1168.280, 269.3909
1168.762, 286.6967
1169.244, 299.1888
1169.726, 295.6567
1170.208, 288.2272
1170.690, 280.1682
1171.172, 272.9155
1171.654, 273.6817
1172.136, 280.3882
1172.619, 285.0494
1173.101, 283.8564
1173.583, 281.3076
1174.065, 276.8323
1174.547, 273.7221
1175.029, 274.6678
1175.511, 279.5496
1175.993, 287.2473
1176.476, 297.2410
1176.958, 304.7895
1177.440, 305.2632
1177.922, 304.2640
1178.404, 306.2088
1178.886, 307.5596
1179.368, 301.3906
1179.850, 287.4576
1180.333, 278.6526
1180.815, 276.2758
1181.297, 276.6283
1181.779, 278.8693
1182.261, 280.8371
1182.743, 279.9426
1183.225, 277.3301
1183.707, 278.2109
1184.189, 283.0090
1184.672, 285.9833
1185.154, 285.5226
1185.636, 283.7955
1186.118, 281.8484
1186.600, 280.3505
1187.082, 280.2618
1187.564, 281.7011
1188.046, 282.5052
1188.528, 282.6841
1189.011, 281.9754
1189.493, 279.8014
1189.975, 277.4519
1190.457, 276.0139
1190.939, 275.5889
1191.421, 276.5276
1191.903, 279.5951
1192.385, 281.4344
1192.868, 281.6166
1193.350, 282.7398
1193.832, 288.2241
1194.314, 294.5327
1194.796, 296.7929
1195.278, 296.0172
1195.760, 294.7820
1196.242, 293.6993
1196.724, 291.6522
1197.207, 288.2425
1197.689, 284.9731
1198.171, 282.9551
1198.653, 282.2556
1199.135, 283.4084
1199.617, 286.1593
1200.099, 288.6222
1200.581, 290.1773
1201.063, 292.1515
1201.546, 295.0670
1202.028, 297.8317
1202.510, 299.6591
1202.992, 299.9130
1203.474, 295.7039
1203.956, 286.1717
1204.438, 284.0074
1204.920, 297.3481
1205.403, 305.1108
1205.885, 297.9693
1206.367, 284.8859
1206.849, 285.7434
1207.331, 293.8274
1207.813, 294.5507
1208.295, 280.2130
1208.777, 274.5880
1209.260, 284.7869
1209.742, 295.9867
1210.224, 300.0776
1210.706, 299.9111
1211.188, 304.9433
1211.670, 311.8201
1212.152, 311.5380
1212.634, 291.4402
1213.116, 280.6808
1213.599, 285.6713
1214.081, 294.2711
1214.563, 297.7407
1215.045, 297.0769
1215.527, 294.0359
1216.009, 289.2897
1216.491, 285.2968
1216.973, 282.3503
1217.455, 281.5218
1217.938, 283.2108
1218.420, 286.3701
1218.902, 291.7890
1219.384, 297.3229
1219.866, 294.7585
1220.348, 284.7667
1220.830, 278.5283
1221.312, 285.6997
1221.795, 290.1699
1222.277, 286.6609
1222.759, 281.0923
1223.241, 286.1014
1223.723, 296.4084
1224.205, 294.4347
1224.687, 276.9872
1225.169, 269.0267
1225.651, 291.9564
1226.134, 311.2083
1226.616, 316.7762
1227.098, 312.4564
1227.580, 302.5573
1228.062, 290.1381
1228.544, 284.2375
1229.026, 288.1521
1229.508, 292.1217
1229.990, 294.9949
1230.473, 294.5160
1230.955, 287.1753
1231.437, 277.5791
1231.919, 282.2582
1232.401, 295.5454
1232.883, 300.9546
1233.365, 286.3632
1233.847, 280.2203
1234.329, 294.1351
1234.812, 307.8467
1235.294, 306.2612
1235.776, 295.0227
1236.258, 292.8077
1236.740, 296.6260
1237.222, 296.9940
1237.704, 284.8333
1238.186, 276.9250
1238.669, 276.0486
1239.151, 278.2466
1239.633, 280.8992
1240.115, 283.6470
1240.597, 286.0210
1241.079, 287.6452
1241.561, 287.0926
1242.043, 280.7957
1242.526, 276.3303
1243.008, 273.9459
1243.490, 275.2469
1243.972, 286.3899
1244.454, 301.1777
1244.936, 303.5665
1245.418, 294.4322
1245.900, 288.1584
1246.382, 293.6872
1246.865, 295.2697
1247.347, 288.3506
1247.829, 280.8882
1248.311, 286.6870
1248.793, 298.6339
1249.275, 303.9218
1249.757, 301.2374
1250.239, 294.6650
1250.721, 280.8828
1251.204, 272.4756
1251.686, 273.2546
1252.168, 279.2104
1252.650, 288.6445
1253.132, 296.9472
1253.614, 293.0973
1254.096, 273.2692
1254.578, 269.9648
1255.061, 293.3277
1255.543, 310.0954
1256.025, 306.3771
1256.507, 294.4792
1256.989, 292.9950
1257.471, 296.0417
1257.953, 294.0069
1258.435, 282.8073
1258.917, 278.6670
1259.400, 283.3705
1259.882, 288.3594
1260.364, 288.5680
1260.846, 288.8072
1261.328, 300.4365
1261.810, 314.2464
1262.292, 314.4771
1262.774, 293.7076
1263.256, 283.2285
1263.739, 284.0338
1264.221, 288.5787
1264.703, 295.4466
1265.185, 300.5671
1265.667, 297.1349
1266.149, 290.0530
1266.631, 287.9223
1267.113, 293.3198
1267.596, 293.5280
1268.078, 288.0897
1268.560, 284.0213
1269.042, 287.5612
1269.524, 292.8521
1270.006, 296.6956
1270.488, 298.4684
1270.970, 297.3704
1271.453, 292.9707
1271.935, 287.8743
1272.417, 282.1830
1272.899, 282.0302
1273.381, 304.6187
1273.863, 320.5773
1274.345, 299.8502
1274.827, 266.2229
1275.309, 259.1621
1275.792, 277.5175
1276.274, 291.4411
1276.756, 298.7063
##END=



