##NAMES=Varennesite
##RRUFFID=R110194
##IDEAL CHEMISTRY=Na_8_(Mn^2+^,Fe^3+^,Ti^4+^)_2_Si_10_O_25_(OH,Cl)_2_&#183;12H_2_O
##LOCALITY=Demix-Varennes quarry, Saint-Amable sill, Varennes & St-Amable, Lajemmerais RCM, Monteregie, Quebec, Canada
##OWNER=RRUFF
##SOURCE=Donald Doell
##DESCRIPTION=Pale to dirty yellow platy
##STATUS=The identification of this mineral has been confirmed only by single crystal X-ray diffraction.
##URL=rruff.info/R110194
8.975323e+001, 0.000000e+000
9.023535e+001, 4.546825e+003
9.071747e+001, 4.431638e+003
9.119958e+001, 4.373554e+003
9.168170e+001, 4.502118e+003
9.216382e+001, 4.636682e+003
9.264594e+001, 4.731743e+003
9.312805e+001, 4.793326e+003
9.361017e+001, 4.840282e+003
9.409229e+001, 4.875276e+003
9.457440e+001, 4.896166e+003
9.505651e+001, 4.907854e+003
9.553863e+001, 4.913916e+003
9.602074e+001, 4.915833e+003
9.650286e+001, 4.914052e+003
9.698498e+001, 4.905579e+003
9.746709e+001, 4.883188e+003
9.794921e+001, 4.865138e+003
9.843133e+001, 4.853670e+003
9.891344e+001, 4.844154e+003
9.939556e+001, 4.833617e+003
9.987768e+001, 4.822489e+003
1.003598e+002, 4.813508e+003
1.008419e+002, 4.808041e+003
1.013240e+002, 4.806046e+003
1.018061e+002, 4.805446e+003
1.022883e+002, 4.806787e+003
1.027704e+002, 4.808457e+003
1.032525e+002, 4.808271e+003
1.037346e+002, 4.805414e+003
1.042167e+002, 4.803577e+003
1.046988e+002, 4.804717e+003
1.051810e+002, 4.807206e+003
1.056631e+002, 4.808990e+003
1.061452e+002, 4.808757e+003
1.066273e+002, 4.806886e+003
1.071094e+002, 4.805197e+003
1.075915e+002, 4.803201e+003
1.080737e+002, 4.801698e+003
1.085558e+002, 4.801035e+003
1.090379e+002, 4.801021e+003
1.095200e+002, 4.801246e+003
1.100021e+002, 4.801227e+003
1.104842e+002, 4.800720e+003
1.109664e+002, 4.801235e+003
1.114485e+002, 4.803089e+003
1.119306e+002, 4.805617e+003
1.124127e+002, 4.808734e+003
1.128948e+002, 4.812301e+003
1.133769e+002, 4.816081e+003
1.138591e+002, 4.819784e+003
1.143412e+002, 4.824253e+003
1.148233e+002, 4.826806e+003
1.153054e+002, 4.827716e+003
1.157875e+002, 4.826674e+003
1.162696e+002, 4.822199e+003
1.167517e+002, 4.813473e+003
1.172339e+002, 4.803411e+003
1.177160e+002, 4.799633e+003
1.181981e+002, 4.804133e+003
1.186802e+002, 4.808768e+003
1.191623e+002, 4.810928e+003
1.196444e+002, 4.811310e+003
1.201266e+002, 4.812004e+003
1.206087e+002, 4.814232e+003
1.210908e+002, 4.816957e+003
1.215729e+002, 4.818176e+003
1.220550e+002, 4.817334e+003
1.225371e+002, 4.815874e+003
1.230193e+002, 4.815094e+003
1.235014e+002, 4.815093e+003
1.239835e+002, 4.814847e+003
1.244656e+002, 4.813099e+003
1.249477e+002, 4.811139e+003
1.254298e+002, 4.810150e+003
1.259120e+002, 4.810576e+003
1.263941e+002, 4.812214e+003
1.268762e+002, 4.814774e+003
1.273583e+002, 4.819095e+003
1.278404e+002, 4.823042e+003
1.283225e+002, 4.826931e+003
1.288047e+002, 4.830014e+003
1.292868e+002, 4.831080e+003
1.297689e+002, 4.829070e+003
1.302510e+002, 4.824279e+003
1.307331e+002, 4.820890e+003
1.312152e+002, 4.821225e+003
1.316974e+002, 4.820798e+003
1.321795e+002, 4.816607e+003
1.326616e+002, 4.810422e+003
1.331437e+002, 4.806763e+003
1.336258e+002, 4.810104e+003
1.341079e+002, 4.822264e+003
1.345901e+002, 4.829324e+003
1.350722e+002, 4.828564e+003
1.355543e+002, 4.826006e+003
1.360364e+002, 4.824294e+003
1.365185e+002, 4.823981e+003
1.370006e+002, 4.825188e+003
1.374828e+002, 4.828479e+003
1.379649e+002, 4.834525e+003
1.384470e+002, 4.839244e+003
1.389291e+002, 4.842663e+003
1.394112e+002, 4.844584e+003
1.398933e+002, 4.844240e+003
1.403755e+002, 4.841064e+003
1.408576e+002, 4.837197e+003
1.413397e+002, 4.835276e+003
1.418218e+002, 4.835061e+003
1.423039e+002, 4.835799e+003
1.427860e+002, 4.837929e+003
1.432681e+002, 4.840936e+003
1.437503e+002, 4.842760e+003
1.442324e+002, 4.841720e+003
1.447145e+002, 4.840786e+003
1.451966e+002, 4.842712e+003
1.456787e+002, 4.847502e+003
1.461608e+002, 4.852947e+003
1.466430e+002, 4.857407e+003
1.471251e+002, 4.860854e+003
1.476072e+002, 4.863513e+003
1.480893e+002, 4.864925e+003
1.485714e+002, 4.865823e+003
1.490535e+002, 4.866400e+003
1.495357e+002, 4.866733e+003
1.500178e+002, 4.867063e+003
1.504999e+002, 4.867667e+003
1.509820e+002, 4.868354e+003
1.514641e+002, 4.869865e+003
1.519462e+002, 4.872734e+003
1.524284e+002, 4.876030e+003
1.529105e+002, 4.879200e+003
1.533926e+002, 4.881995e+003
1.538747e+002, 4.884344e+003
1.543568e+002, 4.886044e+003
1.548389e+002, 4.886768e+003
1.553211e+002, 4.887092e+003
1.558032e+002, 4.886424e+003
1.562853e+002, 4.885546e+003
1.567674e+002, 4.885447e+003
1.572495e+002, 4.886644e+003
1.577316e+002, 4.888822e+003
1.582138e+002, 4.890677e+003
1.586959e+002, 4.892827e+003
1.591780e+002, 4.894038e+003
1.596601e+002, 4.892687e+003
1.601422e+002, 4.890038e+003
1.606243e+002, 4.889141e+003
1.611065e+002, 4.892071e+003
1.615886e+002, 4.897993e+003
1.620707e+002, 4.902645e+003
1.625528e+002, 4.905722e+003
1.630349e+002, 4.907980e+003
1.635170e+002, 4.909709e+003
1.639991e+002, 4.910932e+003
1.644813e+002, 4.911710e+003
1.649634e+002, 4.911615e+003
1.654455e+002, 4.911225e+003
1.659276e+002, 4.911894e+003
1.664097e+002, 4.914778e+003
1.668918e+002, 4.917979e+003
1.673740e+002, 4.919167e+003
1.678561e+002, 4.917990e+003
1.683382e+002, 4.916445e+003
1.688203e+002, 4.914717e+003
1.693024e+002, 4.913523e+003
1.697845e+002, 4.914126e+003
1.702667e+002, 4.917839e+003
1.707488e+002, 4.923148e+003
1.712309e+002, 4.926552e+003
1.717130e+002, 4.927442e+003
1.721951e+002, 4.927370e+003
1.726772e+002, 4.926091e+003
1.731594e+002, 4.924595e+003
1.736415e+002, 4.924329e+003
1.741236e+002, 4.926271e+003
1.746057e+002, 4.930147e+003
1.750878e+002, 4.934307e+003
1.755699e+002, 4.940314e+003
1.760521e+002, 4.944770e+003
1.765342e+002, 4.946508e+003
1.770163e+002, 4.946134e+003
1.774984e+002, 4.944492e+003
1.779805e+002, 4.941870e+003
1.784626e+002, 4.938243e+003
1.789448e+002, 4.937237e+003
1.794269e+002, 4.940111e+003
1.799090e+002, 4.944318e+003
1.803911e+002, 4.949954e+003
1.808732e+002, 4.956433e+003
1.813553e+002, 4.962651e+003
1.818375e+002, 4.967677e+003
1.823196e+002, 4.971392e+003
1.828017e+002, 4.974640e+003
1.832838e+002, 4.977699e+003
1.837659e+002, 4.980114e+003
1.842480e+002, 4.981333e+003
1.847301e+002, 4.981507e+003
1.852123e+002, 4.981455e+003
1.856944e+002, 4.981956e+003
1.861765e+002, 4.983117e+003
1.866586e+002, 4.983807e+003
1.871407e+002, 4.983797e+003
1.876228e+002, 4.983501e+003
1.881050e+002, 4.982748e+003
1.885871e+002, 4.981604e+003
1.890692e+002, 4.981322e+003
1.895513e+002, 4.983568e+003
1.900334e+002, 4.988284e+003
1.905155e+002, 4.992329e+003
1.909977e+002, 4.995328e+003
1.914798e+002, 4.997525e+003
1.919619e+002, 4.999187e+003
1.924440e+002, 5.000348e+003
1.929261e+002, 5.001006e+003
1.934082e+002, 5.000592e+003
1.938904e+002, 4.999516e+003
1.943725e+002, 4.999158e+003
1.948546e+002, 5.000102e+003
1.953367e+002, 5.002028e+003
1.958188e+002, 5.004604e+003
1.963009e+002, 5.008392e+003
1.967831e+002, 5.011498e+003
1.972652e+002, 5.012025e+003
1.977473e+002, 5.010775e+003
1.982294e+002, 5.009718e+003
1.987115e+002, 5.009724e+003
1.991936e+002, 5.010718e+003
1.996758e+002, 5.012334e+003
2.001579e+002, 5.014459e+003
2.006400e+002, 5.017487e+003
2.011221e+002, 5.021766e+003
2.016042e+002, 5.026974e+003
2.020863e+002, 5.032279e+003
2.025685e+002, 5.036914e+003
2.030506e+002, 5.040958e+003
2.035327e+002, 5.045925e+003
2.040148e+002, 5.053464e+003
2.044969e+002, 5.060138e+003
2.049790e+002, 5.064595e+003
2.054612e+002, 5.067107e+003
2.059433e+002, 5.068583e+003
2.064254e+002, 5.069867e+003
2.069075e+002, 5.071033e+003
2.073896e+002, 5.070396e+003
2.078717e+002, 5.065362e+003
2.083539e+002, 5.060787e+003
2.088360e+002, 5.057903e+003
2.093181e+002, 5.056796e+003
2.098002e+002, 5.057253e+003
2.102823e+002, 5.059394e+003
2.107644e+002, 5.063592e+003
2.112466e+002, 5.066126e+003
2.117287e+002, 5.064287e+003
2.122108e+002, 5.063478e+003
2.126929e+002, 5.066790e+003
2.131750e+002, 5.073392e+003
2.136571e+002, 5.080211e+003
2.141393e+002, 5.084499e+003
2.146214e+002, 5.086021e+003
2.151035e+002, 5.086359e+003
2.155856e+002, 5.083486e+003
2.160677e+002, 5.081487e+003
2.165498e+002, 5.083208e+003
2.170320e+002, 5.088106e+003
2.175141e+002, 5.093006e+003
2.179962e+002, 5.094695e+003
2.184783e+002, 5.092539e+003
2.189604e+002, 5.093533e+003
2.194425e+002, 5.099974e+003
2.199247e+002, 5.107276e+003
2.204068e+002, 5.112849e+003
2.208889e+002, 5.116548e+003
2.213710e+002, 5.119467e+003
2.218531e+002, 5.122514e+003
2.223352e+002, 5.125657e+003
2.228174e+002, 5.128183e+003
2.232995e+002, 5.129667e+003
2.237816e+002, 5.130834e+003
2.242637e+002, 5.132061e+003
2.247458e+002, 5.133396e+003
2.252279e+002, 5.135044e+003
2.257100e+002, 5.137458e+003
2.261922e+002, 5.140430e+003
2.266743e+002, 5.142506e+003
2.271564e+002, 5.141499e+003
2.276385e+002, 5.140867e+003
2.281206e+002, 5.144914e+003
2.286027e+002, 5.153999e+003
2.290849e+002, 5.162505e+003
2.295670e+002, 5.166022e+003
2.300491e+002, 5.165685e+003
2.305312e+002, 5.164717e+003
2.310133e+002, 5.162164e+003
2.314954e+002, 5.160015e+003
2.319776e+002, 5.161181e+003
2.324597e+002, 5.166163e+003
2.329418e+002, 5.170954e+003
2.334239e+002, 5.171739e+003
2.339060e+002, 5.170915e+003
2.343881e+002, 5.172290e+003
2.348703e+002, 5.177794e+003
2.353524e+002, 5.185077e+003
2.358345e+002, 5.191152e+003
2.363166e+002, 5.195945e+003
2.367987e+002, 5.199896e+003
2.372808e+002, 5.204042e+003
2.377630e+002, 5.207218e+003
2.382451e+002, 5.207583e+003
2.387272e+002, 5.203718e+003
2.392093e+002, 5.198013e+003
2.396914e+002, 5.194076e+003
2.401735e+002, 5.192021e+003
2.406557e+002, 5.191420e+003
2.411378e+002, 5.194090e+003
2.416199e+002, 5.197260e+003
2.421020e+002, 5.197609e+003
2.425841e+002, 5.193324e+003
2.430662e+002, 5.187948e+003
2.435484e+002, 5.188115e+003
2.440305e+002, 5.196068e+003
2.445126e+002, 5.203565e+003
2.449947e+002, 5.208639e+003
2.454768e+002, 5.212187e+003
2.459589e+002, 5.214300e+003
2.464410e+002, 5.214888e+003
2.469232e+002, 5.215521e+003
2.474053e+002, 5.219941e+003
2.478874e+002, 5.231787e+003
2.483695e+002, 5.238375e+003
2.488516e+002, 5.233405e+003
2.493337e+002, 5.225378e+003
2.498159e+002, 5.220549e+003
2.502980e+002, 5.220842e+003
2.507801e+002, 5.224211e+003
2.512622e+002, 5.227643e+003
2.517443e+002, 5.231913e+003
2.522264e+002, 5.234266e+003
2.527086e+002, 5.232849e+003
2.531907e+002, 5.230784e+003
2.536728e+002, 5.230311e+003
2.541549e+002, 5.231975e+003
2.546370e+002, 5.234749e+003
2.551191e+002, 5.237137e+003
2.556013e+002, 5.239044e+003
2.560834e+002, 5.240757e+003
2.565655e+002, 5.242291e+003
2.570476e+002, 5.243701e+003
2.575297e+002, 5.244405e+003
2.580118e+002, 5.244614e+003
2.584940e+002, 5.245785e+003
2.589761e+002, 5.250422e+003
2.594582e+002, 5.261630e+003
2.599403e+002, 5.268266e+003
2.604224e+002, 5.267678e+003
2.609045e+002, 5.265646e+003
2.613867e+002, 5.265443e+003
2.618688e+002, 5.267542e+003
2.623509e+002, 5.270724e+003
2.628330e+002, 5.273837e+003
2.633151e+002, 5.277472e+003
2.637972e+002, 5.278600e+003
2.642794e+002, 5.275510e+003
2.647615e+002, 5.271874e+003
2.652436e+002, 5.268608e+003
2.657257e+002, 5.266412e+003
2.662078e+002, 5.266707e+003
2.666899e+002, 5.271276e+003
2.671721e+002, 5.281078e+003
2.676542e+002, 5.289034e+003
2.681363e+002, 5.294555e+003
2.686184e+002, 5.299192e+003
2.691005e+002, 5.304343e+003
2.695826e+002, 5.309476e+003
2.700648e+002, 5.312358e+003
2.705469e+002, 5.310671e+003
2.710290e+002, 5.304146e+003
2.715111e+002, 5.301188e+003
2.719932e+002, 5.304055e+003
2.724753e+002, 5.307432e+003
2.729575e+002, 5.309015e+003
2.734396e+002, 5.309212e+003
2.739217e+002, 5.309506e+003
2.744038e+002, 5.310854e+003
2.748859e+002, 5.313218e+003
2.753680e+002, 5.316110e+003
2.758501e+002, 5.321055e+003
2.763322e+002, 5.324813e+003
2.768144e+002, 5.325147e+003
2.772965e+002, 5.323451e+003
2.777786e+002, 5.323180e+003
2.782607e+002, 5.326580e+003
2.787428e+002, 5.332295e+003
2.792249e+002, 5.334315e+003
2.797071e+002, 5.328854e+003
2.801892e+002, 5.324916e+003
2.806713e+002, 5.325875e+003
2.811534e+002, 5.329749e+003
2.816355e+002, 5.333396e+003
2.821176e+002, 5.335677e+003
2.825998e+002, 5.336341e+003
2.830819e+002, 5.334227e+003
2.835640e+002, 5.327218e+003
2.840461e+002, 5.321854e+003
2.845282e+002, 5.319705e+003
2.850103e+002, 5.319955e+003
2.854925e+002, 5.321869e+003
2.859746e+002, 5.325398e+003
2.864567e+002, 5.329439e+003
2.869388e+002, 5.332064e+003
2.874209e+002, 5.332902e+003
2.879030e+002, 5.333755e+003
2.883852e+002, 5.333928e+003
2.888673e+002, 5.334636e+003
2.893494e+002, 5.338436e+003
2.898315e+002, 5.346062e+003
2.903136e+002, 5.353250e+003
2.907957e+002, 5.353854e+003
2.912779e+002, 5.346651e+003
2.917600e+002, 5.342243e+003
2.922421e+002, 5.343963e+003
2.927242e+002, 5.347615e+003
2.932063e+002, 5.348694e+003
2.936884e+002, 5.346664e+003
2.941706e+002, 5.344827e+003
2.946527e+002, 5.346698e+003
2.951348e+002, 5.352321e+003
2.956169e+002, 5.355943e+003
2.960990e+002, 5.355214e+003
2.965811e+002, 5.353978e+003
2.970633e+002, 5.356247e+003
2.975454e+002, 5.361733e+003
2.980275e+002, 5.365690e+003
2.985096e+002, 5.364452e+003
2.989917e+002, 5.358563e+003
2.994738e+002, 5.353426e+003
2.999560e+002, 5.346698e+003
3.004381e+002, 5.342826e+003
3.009202e+002, 5.346627e+003
3.014023e+002, 5.356404e+003
3.018844e+002, 5.364256e+003
3.023665e+002, 5.365565e+003
3.028487e+002, 5.362412e+003
3.033308e+002, 5.361489e+003
3.038129e+002, 5.364051e+003
3.042950e+002, 5.366515e+003
3.047771e+002, 5.366054e+003
3.052592e+002, 5.364175e+003
3.057414e+002, 5.365500e+003
3.062235e+002, 5.372831e+003
3.067056e+002, 5.382196e+003
3.071877e+002, 5.385044e+003
3.076698e+002, 5.379815e+003
3.081519e+002, 5.375930e+003
3.086341e+002, 5.378146e+003
3.091162e+002, 5.383340e+003
3.095983e+002, 5.386142e+003
3.100804e+002, 5.385084e+003
3.105625e+002, 5.381873e+003
3.110446e+002, 5.378171e+003
3.115268e+002, 5.373896e+003
3.120089e+002, 5.370409e+003
3.124910e+002, 5.366314e+003
3.129731e+002, 5.363909e+003
3.134552e+002, 5.367158e+003
3.139373e+002, 5.376824e+003
3.144195e+002, 5.387335e+003
3.149016e+002, 5.394602e+003
3.153837e+002, 5.398313e+003
3.158658e+002, 5.397394e+003
3.163479e+002, 5.386286e+003
3.168300e+002, 5.374339e+003
3.173121e+002, 5.369883e+003
3.177943e+002, 5.372785e+003
3.182764e+002, 5.377194e+003
3.187585e+002, 5.379687e+003
3.192406e+002, 5.380463e+003
3.197227e+002, 5.381126e+003
3.202048e+002, 5.382330e+003
3.206870e+002, 5.382832e+003
3.211691e+002, 5.381165e+003
3.216512e+002, 5.378048e+003
3.221333e+002, 5.376191e+003
3.226154e+002, 5.377327e+003
3.230975e+002, 5.379983e+003
3.235797e+002, 5.380188e+003
3.240618e+002, 5.376743e+003
3.245439e+002, 5.373944e+003
3.250260e+002, 5.373522e+003
3.255081e+002, 5.374749e+003
3.259902e+002, 5.376292e+003
3.264724e+002, 5.377758e+003
3.269545e+002, 5.379361e+003
3.274366e+002, 5.381753e+003
3.279187e+002, 5.385279e+003
3.284008e+002, 5.387544e+003
3.288829e+002, 5.387832e+003
3.293651e+002, 5.386715e+003
3.298472e+002, 5.384259e+003
3.303293e+002, 5.380460e+003
3.308114e+002, 5.377072e+003
3.312935e+002, 5.376138e+003
3.317756e+002, 5.377884e+003
3.322578e+002, 5.378486e+003
3.327399e+002, 5.375951e+003
3.332220e+002, 5.373620e+003
3.337041e+002, 5.373732e+003
3.341862e+002, 5.376354e+003
3.346683e+002, 5.381083e+003
3.351505e+002, 5.388521e+003
3.356326e+002, 5.397813e+003
3.361147e+002, 5.402896e+003
3.365968e+002, 5.402333e+003
3.370789e+002, 5.399749e+003
3.375610e+002, 5.395413e+003
3.380432e+002, 5.390197e+003
3.385253e+002, 5.386367e+003
3.390074e+002, 5.385243e+003
3.394895e+002, 5.385556e+003
3.399716e+002, 5.383712e+003
3.404537e+002, 5.378365e+003
3.409359e+002, 5.373719e+003
3.414180e+002, 5.370204e+003
3.419001e+002, 5.367959e+003
3.423822e+002, 5.367805e+003
3.428643e+002, 5.369983e+003
3.433464e+002, 5.372510e+003
3.438286e+002, 5.372470e+003
3.443107e+002, 5.368448e+003
3.447928e+002, 5.365864e+003
3.452749e+002, 5.366124e+003
3.457570e+002, 5.366886e+003
3.462391e+002, 5.365704e+003
3.467213e+002, 5.362754e+003
3.472034e+002, 5.360897e+003
3.476855e+002, 5.363206e+003
3.481676e+002, 5.370040e+003
3.486497e+002, 5.372983e+003
3.491318e+002, 5.370701e+003
3.496140e+002, 5.366655e+003
3.500961e+002, 5.359904e+003
3.505782e+002, 5.352517e+003
3.510603e+002, 5.349339e+003
3.515424e+002, 5.353710e+003
3.520245e+002, 5.363389e+003
3.525067e+002, 5.368688e+003
3.529888e+002, 5.365060e+003
3.534709e+002, 5.362682e+003
3.539530e+002, 5.363097e+003
3.544351e+002, 5.365245e+003
3.549172e+002, 5.368516e+003
3.553994e+002, 5.372582e+003
3.558815e+002, 5.376044e+003
3.563636e+002, 5.376348e+003
3.568457e+002, 5.370751e+003
3.573278e+002, 5.367466e+003
3.578099e+002, 5.367295e+003
3.582920e+002, 5.368542e+003
3.587741e+002, 5.370562e+003
3.592563e+002, 5.372993e+003
3.597384e+002, 5.375334e+003
3.602205e+002, 5.377295e+003
3.607026e+002, 5.379075e+003
3.611847e+002, 5.378398e+003
3.616668e+002, 5.371568e+003
3.621490e+002, 5.366279e+003
3.626311e+002, 5.365701e+003
3.631132e+002, 5.368530e+003
3.635953e+002, 5.372393e+003
3.640774e+002, 5.376040e+003
3.645595e+002, 5.379040e+003
3.650417e+002, 5.379434e+003
3.655238e+002, 5.374454e+003
3.660059e+002, 5.370549e+003
3.664880e+002, 5.367837e+003
3.669701e+002, 5.366799e+003
3.674522e+002, 5.368493e+003
3.679344e+002, 5.373069e+003
3.684165e+002, 5.378688e+003
3.688986e+002, 5.382898e+003
3.693807e+002, 5.386353e+003
3.698628e+002, 5.386385e+003
3.703449e+002, 5.380305e+003
3.708271e+002, 5.373243e+003
3.713092e+002, 5.367264e+003
3.717913e+002, 5.362772e+003
3.722734e+002, 5.359433e+003
3.727555e+002, 5.356863e+003
3.732376e+002, 5.355111e+003
3.737198e+002, 5.355418e+003
3.742019e+002, 5.360136e+003
3.746840e+002, 5.364118e+003
3.751661e+002, 5.365938e+003
3.756482e+002, 5.365931e+003
3.761303e+002, 5.364380e+003
3.766125e+002, 5.361071e+003
3.770946e+002, 5.357103e+003
3.775767e+002, 5.354798e+003
3.780588e+002, 5.354198e+003
3.785409e+002, 5.355160e+003
3.790230e+002, 5.359053e+003
3.795052e+002, 5.363574e+003
3.799873e+002, 5.367171e+003
3.804694e+002, 5.369508e+003
3.809515e+002, 5.370700e+003
3.814336e+002, 5.370319e+003
3.819157e+002, 5.368394e+003
3.823979e+002, 5.367438e+003
3.828800e+002, 5.369179e+003
3.833621e+002, 5.370150e+003
3.838442e+002, 5.367474e+003
3.843263e+002, 5.362000e+003
3.848084e+002, 5.356821e+003
3.852906e+002, 5.353237e+003
3.857727e+002, 5.351186e+003
3.862548e+002, 5.350799e+003
3.867369e+002, 5.352440e+003
3.872190e+002, 5.354476e+003
3.877011e+002, 5.356789e+003
3.881833e+002, 5.358697e+003
3.886654e+002, 5.358843e+003
3.891475e+002, 5.355958e+003
3.896296e+002, 5.353137e+003
3.901117e+002, 5.353145e+003
3.905938e+002, 5.355769e+003
3.910760e+002, 5.359568e+003
3.915581e+002, 5.365182e+003
3.920402e+002, 5.370430e+003
3.925223e+002, 5.372287e+003
3.930044e+002, 5.370731e+003
3.934865e+002, 5.368048e+003
3.939687e+002, 5.363995e+003
3.944508e+002, 5.359746e+003
3.949329e+002, 5.357750e+003
3.954150e+002, 5.358563e+003
3.958971e+002, 5.359125e+003
3.963792e+002, 5.356049e+003
3.968614e+002, 5.349789e+003
3.973435e+002, 5.346008e+003
3.978256e+002, 5.345594e+003
3.983077e+002, 5.347076e+003
3.987898e+002, 5.351044e+003
3.992719e+002, 5.356412e+003
3.997540e+002, 5.359073e+003
4.002361e+002, 5.356287e+003
4.007183e+002, 5.350525e+003
4.012004e+002, 5.349396e+003
4.016825e+002, 5.356574e+003
4.021646e+002, 5.361174e+003
4.026467e+002, 5.358495e+003
4.031288e+002, 5.353559e+003
4.036110e+002, 5.353046e+003
4.040931e+002, 5.358227e+003
4.045752e+002, 5.364030e+003
4.050573e+002, 5.364237e+003
4.055394e+002, 5.357279e+003
4.060215e+002, 5.352504e+003
4.065037e+002, 5.351916e+003
4.069858e+002, 5.351374e+003
4.074679e+002, 5.348107e+003
4.079500e+002, 5.343151e+003
4.084321e+002, 5.339338e+003
4.089142e+002, 5.338420e+003
4.093964e+002, 5.339985e+003
4.098785e+002, 5.342128e+003
4.103606e+002, 5.345990e+003
4.108427e+002, 5.348870e+003
4.113248e+002, 5.349764e+003
4.118069e+002, 5.349989e+003
4.122891e+002, 5.350697e+003
4.127712e+002, 5.352222e+003
4.132533e+002, 5.354305e+003
4.137354e+002, 5.356814e+003
4.142175e+002, 5.360114e+003
4.146996e+002, 5.362369e+003
4.151818e+002, 5.363653e+003
4.156639e+002, 5.363773e+003
4.161460e+002, 5.361719e+003
4.166281e+002, 5.358383e+003
4.171102e+002, 5.355680e+003
4.175923e+002, 5.354713e+003
4.180745e+002, 5.355378e+003
4.185566e+002, 5.357579e+003
4.190387e+002, 5.362226e+003
4.195208e+002, 5.366398e+003
4.200029e+002, 5.369731e+003
4.204850e+002, 5.371937e+003
4.209672e+002, 5.372473e+003
4.214493e+002, 5.371189e+003
4.219314e+002, 5.368982e+003
4.224135e+002, 5.366795e+003
4.228956e+002, 5.364596e+003
4.233777e+002, 5.361373e+003
4.238599e+002, 5.355727e+003
4.243420e+002, 5.350833e+003
4.248241e+002, 5.350116e+003
4.253062e+002, 5.352354e+003
4.257883e+002, 5.353025e+003
4.262704e+002, 5.347964e+003
4.267526e+002, 5.341298e+003
4.272347e+002, 5.339663e+003
4.277168e+002, 5.343346e+003
4.281989e+002, 5.347722e+003
4.286810e+002, 5.350619e+003
4.291631e+002, 5.352524e+003
4.296453e+002, 5.354490e+003
4.301274e+002, 5.356156e+003
4.306095e+002, 5.358686e+003
4.310916e+002, 5.363892e+003
4.315737e+002, 5.370145e+003
4.320558e+002, 5.374002e+003
4.325380e+002, 5.374435e+003
4.330201e+002, 5.373275e+003
4.335022e+002, 5.372302e+003
4.339843e+002, 5.371437e+003
4.344664e+002, 5.371490e+003
4.349485e+002, 5.373095e+003
4.354307e+002, 5.375052e+003
4.359128e+002, 5.376694e+003
4.363949e+002, 5.377997e+003
4.368770e+002, 5.379080e+003
4.373591e+002, 5.379994e+003
4.378412e+002, 5.380783e+003
4.383234e+002, 5.381612e+003
4.388055e+002, 5.383003e+003
4.392876e+002, 5.383805e+003
4.397697e+002, 5.381306e+003
4.402518e+002, 5.379716e+003
4.407339e+002, 5.384834e+003
4.412160e+002, 5.396859e+003
4.416982e+002, 5.409137e+003
4.421803e+002, 5.413481e+003
4.426624e+002, 5.408401e+003
4.431445e+002, 5.406454e+003
4.436266e+002, 5.409323e+003
4.441087e+002, 5.413691e+003
4.445909e+002, 5.419229e+003
4.450730e+002, 5.425459e+003
4.455551e+002, 5.432216e+003
4.460372e+002, 5.439541e+003
4.465193e+002, 5.446397e+003
4.470014e+002, 5.450111e+003
4.474836e+002, 5.449454e+003
4.479657e+002, 5.449290e+003
4.484478e+002, 5.450967e+003
4.489299e+002, 5.453092e+003
4.494120e+002, 5.454515e+003
4.498941e+002, 5.455323e+003
4.503763e+002, 5.456872e+003
4.508584e+002, 5.460525e+003
4.513405e+002, 5.465834e+003
4.518226e+002, 5.471205e+003
4.523047e+002, 5.477255e+003
4.527868e+002, 5.481625e+003
4.532690e+002, 5.480978e+003
4.537511e+002, 5.478175e+003
4.542332e+002, 5.477607e+003
4.547153e+002, 5.481529e+003
4.551974e+002, 5.485201e+003
4.556795e+002, 5.484172e+003
4.561617e+002, 5.479366e+003
4.566438e+002, 5.474564e+003
4.571259e+002, 5.470457e+003
4.576080e+002, 5.467534e+003
4.580901e+002, 5.467710e+003
4.585722e+002, 5.471108e+003
4.590544e+002, 5.471308e+003
4.595365e+002, 5.464151e+003
4.600186e+002, 5.455560e+003
4.605007e+002, 5.450840e+003
4.609828e+002, 5.449791e+003
4.614649e+002, 5.449396e+003
4.619471e+002, 5.447978e+003
4.624292e+002, 5.445645e+003
4.629113e+002, 5.442711e+003
4.633934e+002, 5.440333e+003
4.638755e+002, 5.435919e+003
4.643576e+002, 5.426467e+003
4.648398e+002, 5.416218e+003
4.653219e+002, 5.409831e+003
4.658040e+002, 5.407989e+003
4.662861e+002, 5.407922e+003
4.667682e+002, 5.406719e+003
4.672503e+002, 5.404256e+003
4.677325e+002, 5.401427e+003
4.682146e+002, 5.398802e+003
4.686967e+002, 5.395100e+003
4.691788e+002, 5.387653e+003
4.696609e+002, 5.379521e+003
4.701430e+002, 5.375553e+003
4.706252e+002, 5.377984e+003
4.711073e+002, 5.383826e+003
4.715894e+002, 5.388779e+003
4.720715e+002, 5.393708e+003
4.725536e+002, 5.393961e+003
4.730357e+002, 5.383865e+003
4.735179e+002, 5.373086e+003
4.740000e+002, 5.367459e+003
4.744821e+002, 5.366311e+003
4.749642e+002, 5.365318e+003
4.754463e+002, 5.361369e+003
4.759284e+002, 5.356094e+003
4.764106e+002, 5.353262e+003
4.768927e+002, 5.353260e+003
4.773748e+002, 5.353318e+003
4.778569e+002, 5.351698e+003
4.783390e+002, 5.349631e+003
4.788211e+002, 5.349320e+003
4.793033e+002, 5.351517e+003
4.797854e+002, 5.352967e+003
4.802675e+002, 5.351016e+003
4.807496e+002, 5.347443e+003
4.812317e+002, 5.345340e+003
4.817138e+002, 5.345235e+003
4.821959e+002, 5.346662e+003
4.826780e+002, 5.349874e+003
4.831602e+002, 5.354719e+003
4.836423e+002, 5.356837e+003
4.841244e+002, 5.354499e+003
4.846065e+002, 5.351486e+003
4.850886e+002, 5.348971e+003
4.855707e+002, 5.346891e+003
4.860529e+002, 5.345000e+003
4.865350e+002, 5.343198e+003
4.870171e+002, 5.341698e+003
4.874992e+002, 5.341016e+003
4.879813e+002, 5.342097e+003
4.884634e+002, 5.341339e+003
4.889456e+002, 5.336327e+003
4.894277e+002, 5.332110e+003
4.899098e+002, 5.332669e+003
4.903919e+002, 5.335998e+003
4.908740e+002, 5.337068e+003
4.913561e+002, 5.332525e+003
4.918383e+002, 5.324697e+003
4.923204e+002, 5.319794e+003
4.928025e+002, 5.318141e+003
4.932846e+002, 5.318601e+003
4.937667e+002, 5.323406e+003
4.942488e+002, 5.328502e+003
4.947310e+002, 5.331546e+003
4.952131e+002, 5.332279e+003
4.956952e+002, 5.331188e+003
4.961773e+002, 5.327443e+003
4.966594e+002, 5.322213e+003
4.971415e+002, 5.319042e+003
4.976237e+002, 5.318460e+003
4.981058e+002, 5.317623e+003
4.985879e+002, 5.314093e+003
4.990700e+002, 5.309643e+003
4.995521e+002, 5.307771e+003
5.000342e+002, 5.309498e+003
5.005164e+002, 5.311714e+003
5.009985e+002, 5.312917e+003
5.014806e+002, 5.313567e+003
5.019627e+002, 5.314344e+003
5.024448e+002, 5.315380e+003
5.029269e+002, 5.317171e+003
5.034091e+002, 5.320883e+003
5.038912e+002, 5.326642e+003
5.043733e+002, 5.327610e+003
5.048554e+002, 5.319709e+003
5.053375e+002, 5.312163e+003
5.058196e+002, 5.308293e+003
5.063018e+002, 5.306880e+003
5.067839e+002, 5.306011e+003
5.072660e+002, 5.304977e+003
5.077481e+002, 5.304133e+003
5.082302e+002, 5.303977e+003
5.087123e+002, 5.304408e+003
5.091945e+002, 5.305872e+003
5.096766e+002, 5.309893e+003
5.101587e+002, 5.313409e+003
5.106408e+002, 5.315185e+003
5.111229e+002, 5.315604e+003
5.116050e+002, 5.315034e+003
5.120872e+002, 5.313138e+003
5.125693e+002, 5.312081e+003
5.130514e+002, 5.317004e+003
5.135335e+002, 5.329073e+003
5.140156e+002, 5.338368e+003
5.144977e+002, 5.342536e+003
5.149799e+002, 5.343253e+003
5.154620e+002, 5.341906e+003
5.159441e+002, 5.338584e+003
5.164262e+002, 5.333749e+003
5.169083e+002, 5.324896e+003
5.173904e+002, 5.316133e+003
5.178726e+002, 5.313952e+003
5.183547e+002, 5.317898e+003
5.188368e+002, 5.320862e+003
5.193189e+002, 5.319182e+003
5.198010e+002, 5.314860e+003
5.202831e+002, 5.312237e+003
5.207653e+002, 5.311029e+003
5.212474e+002, 5.311703e+003
5.217295e+002, 5.317067e+003
5.222116e+002, 5.322444e+003
5.226937e+002, 5.323005e+003
5.231758e+002, 5.319134e+003
5.236580e+002, 5.314741e+003
5.241401e+002, 5.312564e+003
5.246222e+002, 5.312334e+003
5.251043e+002, 5.312664e+003
5.255864e+002, 5.314322e+003
5.260685e+002, 5.315451e+003
5.265507e+002, 5.315029e+003
5.270328e+002, 5.314650e+003
5.275149e+002, 5.316122e+003
5.279970e+002, 5.319314e+003
5.284791e+002, 5.322246e+003
5.289612e+002, 5.323867e+003
5.294434e+002, 5.323841e+003
5.299255e+002, 5.318998e+003
5.304076e+002, 5.306172e+003
5.308897e+002, 5.295972e+003
5.313718e+002, 5.295457e+003
5.318539e+002, 5.298792e+003
5.323361e+002, 5.299796e+003
5.328182e+002, 5.297118e+003
5.333003e+002, 5.295376e+003
5.337824e+002, 5.299653e+003
5.342645e+002, 5.306640e+003
5.347466e+002, 5.308286e+003
5.352288e+002, 5.303182e+003
5.357109e+002, 5.297971e+003
5.361930e+002, 5.297778e+003
5.366751e+002, 5.301839e+003
5.371572e+002, 5.304825e+003
5.376393e+002, 5.306596e+003
5.381215e+002, 5.307572e+003
5.386036e+002, 5.306953e+003
5.390857e+002, 5.306010e+003
5.395678e+002, 5.306594e+003
5.400499e+002, 5.308944e+003
5.405320e+002, 5.311596e+003
5.410142e+002, 5.313053e+003
5.414963e+002, 5.313277e+003
5.419784e+002, 5.312923e+003
5.424604e+002, 5.311275e+003
5.429426e+002, 5.309840e+003
5.434247e+002, 5.308615e+003
5.439068e+002, 5.307888e+003
5.443889e+002, 5.307959e+003
5.448710e+002, 5.308899e+003
5.453531e+002, 5.310563e+003
5.458353e+002, 5.313523e+003
5.463174e+002, 5.317513e+003
5.467995e+002, 5.319332e+003
5.472816e+002, 5.318761e+003
5.477637e+002, 5.316124e+003
5.482458e+002, 5.308623e+003
5.487280e+002, 5.299813e+003
5.492101e+002, 5.295982e+003
5.496922e+002, 5.299984e+003
5.501743e+002, 5.305267e+003
5.506564e+002, 5.308372e+003
5.511385e+002, 5.309717e+003
5.516207e+002, 5.310092e+003
5.521028e+002, 5.309670e+003
5.525849e+002, 5.308442e+003
5.530670e+002, 5.306132e+003
5.535491e+002, 5.302745e+003
5.540313e+002, 5.300800e+003
5.545134e+002, 5.300182e+003
5.549955e+002, 5.300953e+003
5.554776e+002, 5.305802e+003
5.559597e+002, 5.310867e+003
5.564418e+002, 5.310130e+003
5.569240e+002, 5.302671e+003
5.574061e+002, 5.294452e+003
5.578882e+002, 5.292562e+003
5.583703e+002, 5.297232e+003
5.588524e+002, 5.301489e+003
5.593345e+002, 5.306083e+003
5.598167e+002, 5.308906e+003
5.602988e+002, 5.309412e+003
5.607809e+002, 5.307873e+003
5.612630e+002, 5.304056e+003
5.617451e+002, 5.297678e+003
5.622272e+002, 5.291298e+003
5.627094e+002, 5.287337e+003
5.631915e+002, 5.285172e+003
5.636736e+002, 5.282599e+003
5.641557e+002, 5.279159e+003
5.646378e+002, 5.276375e+003
5.651199e+002, 5.275958e+003
5.656021e+002, 5.277117e+003
5.660842e+002, 5.276227e+003
5.665663e+002, 5.270537e+003
5.670484e+002, 5.266786e+003
5.675305e+002, 5.269349e+003
5.680126e+002, 5.274188e+003
5.684948e+002, 5.276349e+003
5.689769e+002, 5.274968e+003
5.694590e+002, 5.271922e+003
5.699411e+002, 5.268916e+003
5.704232e+002, 5.265909e+003
5.709053e+002, 5.262067e+003
5.713875e+002, 5.255224e+003
5.718696e+002, 5.250542e+003
5.723517e+002, 5.250430e+003
5.728338e+002, 5.251702e+003
5.733159e+002, 5.251572e+003
5.737980e+002, 5.249537e+003
5.742802e+002, 5.246621e+003
5.747623e+002, 5.243186e+003
5.752444e+002, 5.239537e+003
5.757265e+002, 5.236813e+003
5.762086e+002, 5.234885e+003
5.766907e+002, 5.234569e+003
5.771729e+002, 5.237981e+003
5.776550e+002, 5.242234e+003
5.781371e+002, 5.242029e+003
5.786192e+002, 5.235831e+003
5.791013e+002, 5.231723e+003
5.795834e+002, 5.234698e+003
5.800656e+002, 5.240216e+003
5.805477e+002, 5.243634e+003
5.810298e+002, 5.244468e+003
5.815119e+002, 5.242977e+003
5.819940e+002, 5.238758e+003
5.824761e+002, 5.233384e+003
5.829583e+002, 5.232263e+003
5.834404e+002, 5.238388e+003
5.839225e+002, 5.244389e+003
5.844046e+002, 5.251795e+003
5.848867e+002, 5.257626e+003
5.853688e+002, 5.259600e+003
5.858510e+002, 5.258146e+003
5.863331e+002, 5.255069e+003
5.868152e+002, 5.251274e+003
5.872973e+002, 5.246970e+003
5.877794e+002, 5.242425e+003
5.882615e+002, 5.237427e+003
5.887437e+002, 5.233577e+003
5.892258e+002, 5.231552e+003
5.897079e+002, 5.230517e+003
5.901900e+002, 5.230274e+003
5.906721e+002, 5.230567e+003
5.911542e+002, 5.229564e+003
5.916364e+002, 5.225805e+003
5.921185e+002, 5.221352e+003
5.926006e+002, 5.217825e+003
5.930827e+002, 5.215116e+003
5.935648e+002, 5.212959e+003
5.940469e+002, 5.211357e+003
5.945291e+002, 5.209583e+003
5.950112e+002, 5.206312e+003
5.954933e+002, 5.200619e+003
5.959754e+002, 5.197920e+003
5.964575e+002, 5.201522e+003
5.969396e+002, 5.204077e+003
5.974218e+002, 5.201744e+003
5.979039e+002, 5.197225e+003
5.983860e+002, 5.194364e+003
5.988681e+002, 5.194482e+003
5.993502e+002, 5.196357e+003
5.998323e+002, 5.198904e+003
6.003145e+002, 5.202069e+003
6.007966e+002, 5.204711e+003
6.012787e+002, 5.206662e+003
6.017608e+002, 5.208212e+003
6.022429e+002, 5.209204e+003
6.027250e+002, 5.209929e+003
6.032072e+002, 5.210843e+003
6.036893e+002, 5.212053e+003
6.041714e+002, 5.213196e+003
6.046535e+002, 5.214833e+003
6.051356e+002, 5.215938e+003
6.056177e+002, 5.213943e+003
6.060999e+002, 5.209042e+003
6.065820e+002, 5.205785e+003
6.070641e+002, 5.207927e+003
6.075462e+002, 5.213858e+003
6.080283e+002, 5.216203e+003
6.085104e+002, 5.211631e+003
6.089926e+002, 5.208124e+003
6.094747e+002, 5.206146e+003
6.099568e+002, 5.205206e+003
6.104389e+002, 5.205615e+003
6.109210e+002, 5.206837e+003
6.114031e+002, 5.207271e+003
6.118853e+002, 5.205450e+003
6.123674e+002, 5.202999e+003
6.128495e+002, 5.204029e+003
6.133316e+002, 5.209007e+003
6.138137e+002, 5.211942e+003
6.142958e+002, 5.210207e+003
6.147780e+002, 5.207518e+003
6.152601e+002, 5.208172e+003
6.157422e+002, 5.211497e+003
6.162243e+002, 5.213333e+003
6.167064e+002, 5.211299e+003
6.171885e+002, 5.209025e+003
6.176707e+002, 5.209194e+003
6.181528e+002, 5.210724e+003
6.186349e+002, 5.211231e+003
6.191170e+002, 5.210024e+003
6.195991e+002, 5.208385e+003
6.200812e+002, 5.207830e+003
6.205634e+002, 5.208417e+003
6.210455e+002, 5.208994e+003
6.215276e+002, 5.208675e+003
6.220097e+002, 5.209483e+003
6.224918e+002, 5.214184e+003
6.229739e+002, 5.218875e+003
6.234561e+002, 5.218864e+003
6.239382e+002, 5.213538e+003
6.244203e+002, 5.207331e+003
6.249023e+002, 5.203608e+003
6.253845e+002, 5.201797e+003
6.258666e+002, 5.201128e+003
6.263487e+002, 5.201847e+003
6.268308e+002, 5.200258e+003
6.273129e+002, 5.193468e+003
6.277950e+002, 5.184549e+003
6.282772e+002, 5.179408e+003
6.287593e+002, 5.178458e+003
6.292414e+002, 5.178193e+003
6.297235e+002, 5.177135e+003
6.302056e+002, 5.177431e+003
6.306877e+002, 5.181875e+003
6.311699e+002, 5.188795e+003
6.316520e+002, 5.194232e+003
6.321341e+002, 5.196350e+003
6.326162e+002, 5.196561e+003
6.330983e+002, 5.197429e+003
6.335804e+002, 5.199472e+003
6.340626e+002, 5.199468e+003
6.345447e+002, 5.195674e+003
6.350268e+002, 5.192063e+003
6.355089e+002, 5.191074e+003
6.359910e+002, 5.191146e+003
6.364731e+002, 5.189928e+003
6.369553e+002, 5.186821e+003
6.374374e+002, 5.182632e+003
6.379195e+002, 5.176934e+003
6.384016e+002, 5.170873e+003
6.388837e+002, 5.166274e+003
6.393658e+002, 5.163403e+003
6.398480e+002, 5.162840e+003
6.403301e+002, 5.165590e+003
6.408122e+002, 5.170183e+003
6.412943e+002, 5.171724e+003
6.417764e+002, 5.167974e+003
6.422585e+002, 5.164194e+003
6.427407e+002, 5.158178e+003
6.432228e+002, 5.154052e+003
6.437049e+002, 5.156536e+003
6.441870e+002, 5.163047e+003
6.446691e+002, 5.166586e+003
6.451512e+002, 5.163059e+003
6.456334e+002, 5.156917e+003
6.461155e+002, 5.155721e+003
6.465976e+002, 5.159447e+003
6.470797e+002, 5.162441e+003
6.475618e+002, 5.164313e+003
6.480439e+002, 5.164448e+003
6.485261e+002, 5.161296e+003
6.490082e+002, 5.155991e+003
6.494903e+002, 5.152231e+003
6.499724e+002, 5.151806e+003
6.504545e+002, 5.150630e+003
6.509366e+002, 5.146724e+003
6.514188e+002, 5.141403e+003
6.519009e+002, 5.136227e+003
6.523830e+002, 5.131342e+003
6.528651e+002, 5.125783e+003
6.533472e+002, 5.118537e+003
6.538293e+002, 5.110671e+003
6.543115e+002, 5.106528e+003
6.547936e+002, 5.107999e+003
6.552757e+002, 5.108561e+003
6.557578e+002, 5.107194e+003
6.562399e+002, 5.104724e+003
6.567220e+002, 5.100417e+003
6.572042e+002, 5.095249e+003
6.576863e+002, 5.092151e+003
6.581684e+002, 5.093365e+003
6.586505e+002, 5.095202e+003
6.591326e+002, 5.093663e+003
6.596147e+002, 5.089991e+003
6.600969e+002, 5.088173e+003
6.605790e+002, 5.089154e+003
6.610611e+002, 5.089327e+003
6.615432e+002, 5.084936e+003
6.620253e+002, 5.076698e+003
6.625074e+002, 5.072372e+003
6.629896e+002, 5.076777e+003
6.634717e+002, 5.078811e+003
6.639538e+002, 5.075819e+003
6.644359e+002, 5.071461e+003
6.649180e+002, 5.068739e+003
6.654001e+002, 5.067518e+003
6.658823e+002, 5.065646e+003
6.663644e+002, 5.061204e+003
6.668465e+002, 5.056337e+003
6.673286e+002, 5.055716e+003
6.678107e+002, 5.059179e+003
6.682928e+002, 5.060497e+003
6.687750e+002, 5.057294e+003
6.692571e+002, 5.054044e+003
6.697392e+002, 5.056178e+003
6.702213e+002, 5.062747e+003
6.707034e+002, 5.064396e+003
6.711855e+002, 5.056173e+003
6.716677e+002, 5.048866e+003
6.721498e+002, 5.047050e+003
6.726319e+002, 5.047160e+003
6.731140e+002, 5.045045e+003
6.735961e+002, 5.040458e+003
6.740782e+002, 5.036116e+003
6.745604e+002, 5.034286e+003
6.750425e+002, 5.033867e+003
6.755246e+002, 5.030494e+003
6.760067e+002, 5.022732e+003
6.764888e+002, 5.018633e+003
6.769709e+002, 5.021917e+003
6.774531e+002, 5.027010e+003
6.779352e+002, 5.031165e+003
6.784173e+002, 5.033697e+003
6.788994e+002, 5.031705e+003
6.793815e+002, 5.021383e+003
6.798636e+002, 5.010480e+003
6.803458e+002, 5.002987e+003
6.808279e+002, 4.998108e+003
6.813100e+002, 4.994662e+003
6.817921e+002, 4.992401e+003
6.822742e+002, 4.991583e+003
6.827563e+002, 4.992681e+003
6.832385e+002, 4.995069e+003
6.837206e+002, 4.995718e+003
6.842027e+002, 4.994411e+003
6.846848e+002, 4.991743e+003
6.851669e+002, 4.984165e+003
6.856490e+002, 4.978411e+003
6.861312e+002, 4.980358e+003
6.866133e+002, 4.987514e+003
6.870954e+002, 4.992118e+003
6.875775e+002, 4.990528e+003
6.880596e+002, 4.986765e+003
6.885417e+002, 4.983853e+003
6.890239e+002, 4.981597e+003
6.895060e+002, 4.979531e+003
6.899881e+002, 4.977574e+003
6.904702e+002, 4.976070e+003
6.909523e+002, 4.975437e+003
6.914344e+002, 4.975380e+003
6.919166e+002, 4.974304e+003
6.923987e+002, 4.971240e+003
6.928808e+002, 4.968706e+003
6.933629e+002, 4.967026e+003
6.938450e+002, 4.965699e+003
6.943271e+002, 4.964613e+003
6.948093e+002, 4.963588e+003
6.952914e+002, 4.962344e+003
6.957735e+002, 4.960790e+003
6.962556e+002, 4.958784e+003
6.967377e+002, 4.955373e+003
6.972198e+002, 4.951293e+003
6.977020e+002, 4.949749e+003
6.981841e+002, 4.951420e+003
6.986662e+002, 4.952608e+003
6.991483e+002, 4.950591e+003
6.996304e+002, 4.946169e+003
7.001125e+002, 4.942389e+003
7.005947e+002, 4.939096e+003
7.010768e+002, 4.936834e+003
7.015589e+002, 4.937380e+003
7.020410e+002, 4.937396e+003
7.025231e+002, 4.933855e+003
7.030052e+002, 4.928382e+003
7.034874e+002, 4.924347e+003
7.039695e+002, 4.923166e+003
7.044516e+002, 4.924457e+003
7.049337e+002, 4.929538e+003
7.054158e+002, 4.937108e+003
7.058979e+002, 4.940109e+003
7.063801e+002, 4.937285e+003
7.068622e+002, 4.933856e+003
7.073442e+002, 4.932393e+003
7.078264e+002, 4.932646e+003
7.083085e+002, 4.934353e+003
7.087906e+002, 4.938941e+003
7.092727e+002, 4.941140e+003
7.097548e+002, 4.938564e+003
7.102369e+002, 4.935416e+003
7.107191e+002, 4.934411e+003
7.112012e+002, 4.934537e+003
7.116833e+002, 4.933536e+003
7.121654e+002, 4.930602e+003
7.126475e+002, 4.927313e+003
7.131296e+002, 4.925683e+003
7.136118e+002, 4.925374e+003
7.140939e+002, 4.924279e+003
7.145760e+002, 4.922214e+003
7.150581e+002, 4.920232e+003
7.155402e+002, 4.917997e+003
7.160223e+002, 4.917019e+003
7.165045e+002, 4.921063e+003
7.169866e+002, 4.931600e+003
7.174687e+002, 4.937928e+003
7.179508e+002, 4.936893e+003
7.184329e+002, 4.933834e+003
7.189150e+002, 4.930380e+003
7.193972e+002, 4.926985e+003
7.198793e+002, 4.923573e+003
7.203614e+002, 4.920331e+003
7.208435e+002, 4.918543e+003
7.213256e+002, 4.919993e+003
7.218077e+002, 4.923780e+003
7.222899e+002, 4.926565e+003
7.227720e+002, 4.928360e+003
7.232541e+002, 4.929050e+003
7.237362e+002, 4.928677e+003
7.242183e+002, 4.927026e+003
7.247004e+002, 4.923102e+003
7.251826e+002, 4.916962e+003
7.256647e+002, 4.912853e+003
7.261468e+002, 4.912208e+003
7.266289e+002, 4.912220e+003
7.271110e+002, 4.911619e+003
7.275931e+002, 4.911335e+003
7.280753e+002, 4.911703e+003
7.285574e+002, 4.913319e+003
7.290395e+002, 4.918718e+003
7.295216e+002, 4.931653e+003
7.300037e+002, 4.946117e+003
7.304858e+002, 4.946025e+003
7.309680e+002, 4.930728e+003
7.314501e+002, 4.919259e+003
7.319322e+002, 4.915644e+003
7.324143e+002, 4.915736e+003
7.328964e+002, 4.917623e+003
7.333785e+002, 4.920550e+003
7.338607e+002, 4.920715e+003
7.343428e+002, 4.914765e+003
7.348249e+002, 4.911195e+003
7.353070e+002, 4.913859e+003
7.357891e+002, 4.917818e+003
7.362712e+002, 4.919107e+003
7.367534e+002, 4.918024e+003
7.372355e+002, 4.916464e+003
7.377176e+002, 4.915267e+003
7.381997e+002, 4.914890e+003
7.386818e+002, 4.916409e+003
7.391639e+002, 4.919588e+003
7.396461e+002, 4.922461e+003
7.401282e+002, 4.925167e+003
7.406103e+002, 4.926111e+003
7.410924e+002, 4.923882e+003
7.415745e+002, 4.919706e+003
7.420566e+002, 4.916143e+003
7.425388e+002, 4.913128e+003
7.430209e+002, 4.910907e+003
7.435030e+002, 4.909495e+003
7.439851e+002, 4.908904e+003
7.444672e+002, 4.909920e+003
7.449493e+002, 4.911466e+003
7.454315e+002, 4.911530e+003
7.459136e+002, 4.909733e+003
7.463957e+002, 4.908351e+003
7.468778e+002, 4.909892e+003
7.473599e+002, 4.913507e+003
7.478420e+002, 4.917450e+003
7.483242e+002, 4.921796e+003
7.488063e+002, 4.922544e+003
7.492884e+002, 4.917510e+003
7.497705e+002, 4.910338e+003
7.502526e+002, 4.904639e+003
7.507347e+002, 4.900399e+003
7.512169e+002, 4.899125e+003
7.516990e+002, 4.903686e+003
7.521811e+002, 4.907218e+003
7.526632e+002, 4.908451e+003
7.531453e+002, 4.907873e+003
7.536274e+002, 4.905384e+003
7.541096e+002, 4.901493e+003
7.545917e+002, 4.897522e+003
7.550738e+002, 4.894023e+003
7.555559e+002, 4.891205e+003
7.560380e+002, 4.888954e+003
7.565201e+002, 4.887572e+003
7.570023e+002, 4.889282e+003
7.574844e+002, 4.894718e+003
7.579665e+002, 4.898882e+003
7.584486e+002, 4.897772e+003
7.589307e+002, 4.893169e+003
7.594128e+002, 4.891052e+003
7.598950e+002, 4.892339e+003
7.603771e+002, 4.894510e+003
7.608592e+002, 4.897554e+003
7.613413e+002, 4.901374e+003
7.618234e+002, 4.907771e+003
7.623055e+002, 4.914231e+003
7.627877e+002, 4.916396e+003
7.632698e+002, 4.912914e+003
7.637519e+002, 4.908568e+003
7.642340e+002, 4.905763e+003
7.647161e+002, 4.904930e+003
7.651982e+002, 4.908167e+003
7.656804e+002, 4.914527e+003
7.661625e+002, 4.918933e+003
7.666446e+002, 4.919465e+003
7.671267e+002, 4.917063e+003
7.676088e+002, 4.912562e+003
7.680909e+002, 4.905780e+003
7.685731e+002, 4.900640e+003
7.690552e+002, 4.896712e+003
7.695373e+002, 4.895155e+003
7.700194e+002, 4.898281e+003
7.705015e+002, 4.902107e+003
7.709836e+002, 4.904177e+003
7.714658e+002, 4.904204e+003
7.719479e+002, 4.901854e+003
7.724300e+002, 4.894753e+003
7.729121e+002, 4.888281e+003
7.733942e+002, 4.886421e+003
7.738763e+002, 4.887563e+003
7.743585e+002, 4.889554e+003
7.748406e+002, 4.891955e+003
7.753227e+002, 4.895002e+003
7.758048e+002, 4.899033e+003
7.762869e+002, 4.903097e+003
7.767690e+002, 4.904823e+003
7.772512e+002, 4.904003e+003
7.777333e+002, 4.902276e+003
7.782154e+002, 4.898818e+003
7.786975e+002, 4.896243e+003
7.791796e+002, 4.896924e+003
7.796617e+002, 4.898990e+003
7.801439e+002, 4.898915e+003
7.806260e+002, 4.895819e+003
7.811081e+002, 4.894396e+003
7.815902e+002, 4.898852e+003
7.820723e+002, 4.902195e+003
7.825544e+002, 4.897295e+003
7.830366e+002, 4.889053e+003
7.835187e+002, 4.886159e+003
7.840008e+002, 4.890585e+003
7.844829e+002, 4.897494e+003
7.849650e+002, 4.903476e+003
7.854471e+002, 4.907883e+003
7.859293e+002, 4.907531e+003
7.864114e+002, 4.902314e+003
7.868935e+002, 4.899706e+003
7.873756e+002, 4.902151e+003
7.878577e+002, 4.905769e+003
7.883398e+002, 4.906087e+003
7.888220e+002, 4.904110e+003
7.893040e+002, 4.908271e+003
7.897861e+002, 4.928227e+003
7.902682e+002, 4.940252e+003
7.907504e+002, 4.939072e+003
7.912325e+002, 4.932740e+003
7.917146e+002, 4.923163e+003
7.921967e+002, 4.913232e+003
7.926788e+002, 4.907866e+003
7.931609e+002, 4.909184e+003
7.936431e+002, 4.912331e+003
7.941252e+002, 4.913857e+003
7.946073e+002, 4.913959e+003
7.950894e+002, 4.912403e+003
7.955715e+002, 4.909495e+003
7.960536e+002, 4.907235e+003
7.965358e+002, 4.906440e+003
7.970179e+002, 4.906550e+003
7.975000e+002, 4.906986e+003
7.979821e+002, 4.907794e+003
7.984642e+002, 4.907261e+003
7.989464e+002, 4.904477e+003
7.994285e+002, 4.901958e+003
7.999106e+002, 4.901141e+003
8.003927e+002, 4.900173e+003
8.008748e+002, 4.897263e+003
8.013569e+002, 4.892860e+003
8.018391e+002, 4.889351e+003
8.023212e+002, 4.887745e+003
8.028033e+002, 4.886655e+003
8.032854e+002, 4.883747e+003
8.037675e+002, 4.882054e+003
8.042496e+002, 4.886726e+003
8.047318e+002, 4.896368e+003
8.052139e+002, 4.904884e+003
8.056960e+002, 4.908932e+003
8.061781e+002, 4.910374e+003
8.066602e+002, 4.912019e+003
8.071423e+002, 4.913799e+003
8.076245e+002, 4.914648e+003
8.081066e+002, 4.914518e+003
8.085887e+002, 4.913274e+003
8.090708e+002, 4.910148e+003
8.095529e+002, 4.906851e+003
8.100350e+002, 4.906271e+003
8.105172e+002, 4.909058e+003
8.109993e+002, 4.910275e+003
8.114814e+002, 4.908375e+003
8.119635e+002, 4.906893e+003
8.124456e+002, 4.907474e+003
8.129277e+002, 4.908413e+003
8.134099e+002, 4.907322e+003
8.138920e+002, 4.904837e+003
8.143741e+002, 4.904476e+003
8.148562e+002, 4.908962e+003
8.153383e+002, 4.914172e+003
8.158204e+002, 4.914988e+003
8.163026e+002, 4.913455e+003
8.167847e+002, 4.914273e+003
8.172668e+002, 4.917813e+003
8.177489e+002, 4.921847e+003
8.182310e+002, 4.925180e+003
8.187131e+002, 4.927753e+003
8.191953e+002, 4.929412e+003
8.196774e+002, 4.930042e+003
8.201595e+002, 4.930195e+003
8.206416e+002, 4.929252e+003
8.211237e+002, 4.928993e+003
8.216058e+002, 4.932202e+003
8.220880e+002, 4.934865e+003
8.225701e+002, 4.930663e+003
8.230522e+002, 4.919955e+003
8.235343e+002, 4.914557e+003
8.240164e+002, 4.923107e+003
8.244985e+002, 4.929904e+003
8.249807e+002, 4.924122e+003
8.254628e+002, 4.915626e+003
8.259449e+002, 4.916213e+003
8.264270e+002, 4.925437e+003
8.269091e+002, 4.935952e+003
8.273912e+002, 4.944335e+003
8.278734e+002, 4.949119e+003
8.283555e+002, 4.945723e+003
8.288376e+002, 4.936693e+003
8.293197e+002, 4.933307e+003
8.298018e+002, 4.936592e+003
8.302839e+002, 4.940563e+003
8.307661e+002, 4.942587e+003
8.312482e+002, 4.942751e+003
8.317303e+002, 4.940991e+003
8.322124e+002, 4.936993e+003
8.326945e+002, 4.933293e+003
8.331766e+002, 4.928166e+003
8.336588e+002, 4.925936e+003
8.341409e+002, 4.930252e+003
8.346230e+002, 4.935508e+003
8.351051e+002, 4.937031e+003
8.355872e+002, 4.935186e+003
8.360693e+002, 4.933191e+003
8.365515e+002, 4.931692e+003
8.370336e+002, 4.930759e+003
8.375157e+002, 4.930464e+003
8.379978e+002, 4.930744e+003
8.384799e+002, 4.932167e+003
8.389620e+002, 4.934125e+003
8.394442e+002, 4.934433e+003
8.399263e+002, 4.932050e+003
8.404084e+002, 4.929525e+003
8.408905e+002, 4.930861e+003
8.413726e+002, 4.935304e+003
8.418547e+002, 4.938404e+003
8.423369e+002, 4.940018e+003
8.428190e+002, 4.941382e+003
8.433011e+002, 4.942907e+003
8.437832e+002, 4.944365e+003
8.442653e+002, 4.945437e+003
8.447474e+002, 4.946126e+003
8.452296e+002, 4.946958e+003
8.457117e+002, 4.950968e+003
8.461938e+002, 4.950459e+003
8.466759e+002, 4.938761e+003
8.471580e+002, 4.928106e+003
8.476401e+002, 4.927054e+003
8.481223e+002, 4.932776e+003
8.486044e+002, 4.938366e+003
8.490865e+002, 4.942320e+003
8.495686e+002, 4.944969e+003
8.500507e+002, 4.946189e+003
8.505328e+002, 4.946477e+003
8.510150e+002, 4.945643e+003
8.514971e+002, 4.944455e+003
8.519792e+002, 4.944950e+003
8.524613e+002, 4.947528e+003
8.529434e+002, 4.949769e+003
8.534255e+002, 4.948763e+003
8.539077e+002, 4.946033e+003
8.543898e+002, 4.946948e+003
8.548719e+002, 4.951503e+003
8.553540e+002, 4.954330e+003
8.558361e+002, 4.953923e+003
8.563182e+002, 4.953492e+003
8.568004e+002, 4.955614e+003
8.572825e+002, 4.959354e+003
8.577646e+002, 4.961836e+003
8.582467e+002, 4.963290e+003
8.587288e+002, 4.962857e+003
8.592109e+002, 4.959311e+003
8.596931e+002, 4.955342e+003
8.601752e+002, 4.949655e+003
8.606573e+002, 4.945325e+003
8.611394e+002, 4.946701e+003
8.616215e+002, 4.954012e+003
8.621036e+002, 4.961877e+003
8.625858e+002, 4.970866e+003
8.630679e+002, 4.976907e+003
8.635500e+002, 4.974687e+003
8.640321e+002, 4.969158e+003
8.645142e+002, 4.967245e+003
8.649963e+002, 4.969380e+003
8.654785e+002, 4.972650e+003
8.659606e+002, 4.975587e+003
8.664427e+002, 4.977033e+003
8.669248e+002, 4.974187e+003
8.674069e+002, 4.968015e+003
8.678890e+002, 4.963468e+003
8.683712e+002, 4.960826e+003
8.688533e+002, 4.960125e+003
8.693354e+002, 4.961716e+003
8.698175e+002, 4.964083e+003
8.702996e+002, 4.965173e+003
8.707817e+002, 4.964962e+003
8.712639e+002, 4.965226e+003
8.717459e+002, 4.966715e+003
8.722280e+002, 4.967343e+003
8.727101e+002, 4.965934e+003
8.731923e+002, 4.964354e+003
8.736744e+002, 4.963704e+003
8.741565e+002, 4.963759e+003
8.746386e+002, 4.963804e+003
8.751207e+002, 4.963479e+003
8.756028e+002, 4.963931e+003
8.760850e+002, 4.967550e+003
8.765671e+002, 4.970185e+003
8.770492e+002, 4.967370e+003
8.775313e+002, 4.961907e+003
8.780134e+002, 4.958594e+003
8.784955e+002, 4.958553e+003
8.789777e+002, 4.959933e+003
8.794598e+002, 4.961813e+003
8.799419e+002, 4.963679e+003
8.804240e+002, 4.963468e+003
8.809061e+002, 4.962460e+003
8.813882e+002, 4.966399e+003
8.818704e+002, 4.975871e+003
8.823525e+002, 4.984437e+003
8.828346e+002, 4.987754e+003
8.833167e+002, 4.988751e+003
8.837988e+002, 4.994302e+003
8.842809e+002, 5.005736e+003
8.847631e+002, 5.011634e+003
8.852452e+002, 5.010788e+003
8.857273e+002, 5.007174e+003
8.862094e+002, 5.000796e+003
8.866915e+002, 4.993619e+003
8.871736e+002, 4.987220e+003
8.876558e+002, 4.981698e+003
8.881379e+002, 4.978390e+003
8.886200e+002, 4.977662e+003
8.891021e+002, 4.978651e+003
8.895842e+002, 4.982711e+003
8.900663e+002, 4.987045e+003
8.905485e+002, 4.989771e+003
8.910306e+002, 4.991314e+003
8.915127e+002, 4.993120e+003
8.919948e+002, 4.995688e+003
8.924769e+002, 4.996626e+003
8.929590e+002, 4.993150e+003
8.934412e+002, 4.988363e+003
8.939233e+002, 4.985181e+003
8.944054e+002, 4.983399e+003
8.948875e+002, 4.982579e+003
8.953696e+002, 4.982513e+003
8.958517e+002, 4.982592e+003
8.963339e+002, 4.982146e+003
8.968160e+002, 4.982310e+003
8.972981e+002, 4.985790e+003
8.977802e+002, 4.992258e+003
8.982623e+002, 4.999472e+003
8.987444e+002, 5.007544e+003
8.992266e+002, 5.011403e+003
8.997087e+002, 5.007541e+003
9.001908e+002, 5.001420e+003
9.006729e+002, 5.001711e+003
9.011550e+002, 5.008885e+003
9.016371e+002, 5.011266e+003
9.021193e+002, 5.005740e+003
9.026014e+002, 5.001154e+003
9.030835e+002, 4.999469e+003
9.035656e+002, 4.998901e+003
9.040477e+002, 4.998705e+003
9.045298e+002, 4.998644e+003
9.050120e+002, 4.997861e+003
9.054941e+002, 4.995269e+003
9.059762e+002, 4.994923e+003
9.064583e+002, 5.000366e+003
9.069404e+002, 5.005692e+003
9.074225e+002, 5.008726e+003
9.079047e+002, 5.008741e+003
9.083868e+002, 5.003006e+003
9.088689e+002, 4.992610e+003
9.093510e+002, 4.985408e+003
9.098331e+002, 4.986704e+003
9.103152e+002, 4.992125e+003
9.107974e+002, 4.999683e+003
9.112795e+002, 5.007157e+003
9.117616e+002, 5.009817e+003
9.122437e+002, 5.007935e+003
9.127258e+002, 5.004649e+003
9.132079e+002, 5.001421e+003
9.136901e+002, 5.000000e+003
9.141722e+002, 5.003396e+003
9.146543e+002, 5.010710e+003
9.151364e+002, 5.016993e+003
9.156185e+002, 5.022195e+003
9.161006e+002, 5.027725e+003
9.165828e+002, 5.034460e+003
9.170649e+002, 5.039227e+003
9.175470e+002, 5.039081e+003
9.180291e+002, 5.035234e+003
9.185112e+002, 5.032070e+003
9.189933e+002, 5.029813e+003
9.194755e+002, 5.027731e+003
9.199576e+002, 5.026163e+003
9.204397e+002, 5.024370e+003
9.209218e+002, 5.021025e+003
9.214039e+002, 5.018056e+003
9.218860e+002, 5.018275e+003
9.223682e+002, 5.021534e+003
9.228503e+002, 5.023286e+003
9.233324e+002, 5.020340e+003
9.238145e+002, 5.019298e+003
9.242966e+002, 5.023814e+003
9.247787e+002, 5.029307e+003
9.252609e+002, 5.032663e+003
9.257430e+002, 5.033966e+003
9.262251e+002, 5.033553e+003
9.267072e+002, 5.031428e+003
9.271893e+002, 5.030329e+003
9.276714e+002, 5.032794e+003
9.281536e+002, 5.036458e+003
9.286357e+002, 5.039388e+003
9.291178e+002, 5.041539e+003
9.295999e+002, 5.042071e+003
9.300820e+002, 5.041570e+003
9.305641e+002, 5.043907e+003
9.310463e+002, 5.052173e+003
9.315284e+002, 5.060913e+003
9.320105e+002, 5.059752e+003
9.324926e+002, 5.051529e+003
9.329747e+002, 5.047579e+003
9.334568e+002, 5.048489e+003
9.339390e+002, 5.053425e+003
9.344211e+002, 5.062478e+003
9.349032e+002, 5.071528e+003
9.353853e+002, 5.076475e+003
9.358674e+002, 5.077235e+003
9.363495e+002, 5.071658e+003
9.368317e+002, 5.056536e+003
9.373138e+002, 5.049825e+003
9.377959e+002, 5.056800e+003
9.382780e+002, 5.065134e+003
9.387601e+002, 5.068265e+003
9.392422e+002, 5.068459e+003
9.397244e+002, 5.070029e+003
9.402065e+002, 5.073640e+003
9.406886e+002, 5.074450e+003
9.411707e+002, 5.069911e+003
9.416528e+002, 5.066057e+003
9.421349e+002, 5.063406e+003
9.426171e+002, 5.062318e+003
9.430992e+002, 5.064300e+003
9.435813e+002, 5.067885e+003
9.440634e+002, 5.069081e+003
9.445455e+002, 5.066187e+003
9.450276e+002, 5.064599e+003
9.455098e+002, 5.068250e+003
9.459919e+002, 5.071763e+003
9.464740e+002, 5.071313e+003
9.469561e+002, 5.068711e+003
9.474382e+002, 5.065823e+003
9.479203e+002, 5.063482e+003
9.484025e+002, 5.063125e+003
9.488846e+002, 5.066284e+003
9.493667e+002, 5.069735e+003
9.498488e+002, 5.069642e+003
9.503309e+002, 5.068272e+003
9.508130e+002, 5.068764e+003
9.512952e+002, 5.071263e+003
9.517773e+002, 5.076017e+003
9.522594e+002, 5.082762e+003
9.527415e+002, 5.088084e+003
9.532236e+002, 5.088026e+003
9.537057e+002, 5.085087e+003
9.541878e+002, 5.085951e+003
9.546699e+002, 5.089839e+003
9.551520e+002, 5.091256e+003
9.556342e+002, 5.089451e+003
9.561163e+002, 5.087610e+003
9.565984e+002, 5.087313e+003
9.570805e+002, 5.088813e+003
9.575626e+002, 5.093158e+003
9.580447e+002, 5.100283e+003
9.585269e+002, 5.103037e+003
9.590090e+002, 5.100429e+003
9.594911e+002, 5.097589e+003
9.599732e+002, 5.094875e+003
9.604553e+002, 5.094072e+003
9.609374e+002, 5.097589e+003
9.614196e+002, 5.103362e+003
9.619017e+002, 5.105345e+003
9.623838e+002, 5.101601e+003
9.628659e+002, 5.099867e+003
9.633480e+002, 5.100214e+003
9.638301e+002, 5.102411e+003
9.643123e+002, 5.106725e+003
9.647944e+002, 5.112427e+003
9.652765e+002, 5.119755e+003
9.657586e+002, 5.128081e+003
9.662407e+002, 5.134889e+003
9.667228e+002, 5.140588e+003
9.672050e+002, 5.143314e+003
9.676871e+002, 5.140704e+003
9.681692e+002, 5.137167e+003
9.686513e+002, 5.133871e+003
9.691334e+002, 5.132012e+003
9.696155e+002, 5.133915e+003
9.700977e+002, 5.139192e+003
9.705798e+002, 5.143116e+003
9.710619e+002, 5.141421e+003
9.715440e+002, 5.141512e+003
9.720261e+002, 5.151018e+003
9.725082e+002, 5.162399e+003
9.729904e+002, 5.167305e+003
9.734725e+002, 5.167290e+003
9.739546e+002, 5.166587e+003
9.744367e+002, 5.166823e+003
9.749188e+002, 5.169596e+003
9.754009e+002, 5.177118e+003
9.758831e+002, 5.186735e+003
9.763652e+002, 5.195760e+003
9.768473e+002, 5.203826e+003
9.773294e+002, 5.209059e+003
9.778115e+002, 5.212288e+003
9.782936e+002, 5.217972e+003
9.787758e+002, 5.228257e+003
9.792579e+002, 5.241297e+003
9.797400e+002, 5.254761e+003
9.802221e+002, 5.269211e+003
9.807042e+002, 5.288580e+003
9.811863e+002, 5.311475e+003
9.816685e+002, 5.325568e+003
9.821506e+002, 5.328422e+003
9.826327e+002, 5.328276e+003
9.831148e+002, 5.330056e+003
9.835969e+002, 5.334071e+003
9.840790e+002, 5.341800e+003
9.845612e+002, 5.353303e+003
9.850433e+002, 5.360386e+003
9.855254e+002, 5.362119e+003
9.860075e+002, 5.364808e+003
9.864896e+002, 5.370054e+003
9.869717e+002, 5.376984e+003
9.874539e+002, 5.385829e+003
9.879360e+002, 5.394903e+003
9.884181e+002, 5.398785e+003
9.889002e+002, 5.396256e+003
9.893823e+002, 5.392694e+003
9.898644e+002, 5.388653e+003
9.903466e+002, 5.382300e+003
9.908287e+002, 5.371328e+003
9.913108e+002, 5.359707e+003
9.917929e+002, 5.352031e+003
9.922750e+002, 5.347298e+003
9.927571e+002, 5.339432e+003
9.932393e+002, 5.326144e+003
9.937214e+002, 5.313993e+003
9.942035e+002, 5.304037e+003
9.946856e+002, 5.294064e+003
9.951677e+002, 5.282929e+003
9.956498e+002, 5.271630e+003
9.961320e+002, 5.261497e+003
9.966141e+002, 5.252334e+003
9.970962e+002, 5.242597e+003
9.975783e+002, 5.231364e+003
9.980604e+002, 5.220585e+003
9.985425e+002, 5.208124e+003
9.990247e+002, 5.198991e+003
9.995068e+002, 5.201425e+003
9.999889e+002, 5.206555e+003
1.000471e+003, 5.199232e+003
1.000953e+003, 5.179263e+003
1.001435e+003, 5.164765e+003
1.001917e+003, 5.166749e+003
1.002399e+003, 5.170545e+003
1.002882e+003, 5.168451e+003
1.003364e+003, 5.164300e+003
1.003846e+003, 5.160580e+003
1.004328e+003, 5.158013e+003
1.004810e+003, 5.157972e+003
1.005292e+003, 5.160375e+003
1.005774e+003, 5.161319e+003
1.006256e+003, 5.156637e+003
1.006739e+003, 5.151853e+003
1.007221e+003, 5.153224e+003
1.007703e+003, 5.157126e+003
1.008185e+003, 5.158989e+003
1.008667e+003, 5.158544e+003
1.009149e+003, 5.156416e+003
1.009631e+003, 5.152992e+003
1.010113e+003, 5.149691e+003
1.010595e+003, 5.147520e+003
1.011078e+003, 5.146456e+003
1.011560e+003, 5.146313e+003
1.012042e+003, 5.147290e+003
1.012524e+003, 5.151083e+003
1.013006e+003, 5.156780e+003
1.013488e+003, 5.159237e+003
1.013970e+003, 5.156290e+003
1.014452e+003, 5.152719e+003
1.014935e+003, 5.153999e+003
1.015417e+003, 5.158531e+003
1.015899e+003, 5.163465e+003
1.016381e+003, 5.168193e+003
1.016863e+003, 5.168934e+003
1.017345e+003, 5.165558e+003
1.017827e+003, 5.162878e+003
1.018309e+003, 5.163397e+003
1.018791e+003, 5.165680e+003
1.019274e+003, 5.168336e+003
1.019756e+003, 5.170908e+003
1.020238e+003, 5.170312e+003
1.020720e+003, 5.166752e+003
1.021202e+003, 5.165538e+003
1.021684e+003, 5.167739e+003
1.022166e+003, 5.169409e+003
1.022648e+003, 5.168001e+003
1.023130e+003, 5.166206e+003
1.023613e+003, 5.168803e+003
1.024095e+003, 5.175395e+003
1.024577e+003, 5.179269e+003
1.025059e+003, 5.180082e+003
1.025541e+003, 5.180537e+003
1.026023e+003, 5.181000e+003
1.026505e+003, 5.181289e+003
1.026987e+003, 5.180757e+003
1.027469e+003, 5.181131e+003
1.027952e+003, 5.186148e+003
1.028434e+003, 5.196138e+003
1.028916e+003, 5.203362e+003
1.029398e+003, 5.208595e+003
1.029880e+003, 5.207557e+003
1.030362e+003, 5.196315e+003
1.030844e+003, 5.186233e+003
1.031326e+003, 5.185479e+003
1.031809e+003, 5.189944e+003
1.032291e+003, 5.190997e+003
1.032773e+003, 5.187885e+003
1.033255e+003, 5.188378e+003
1.033737e+003, 5.194868e+003
1.034219e+003, 5.199868e+003
1.034701e+003, 5.201253e+003
1.035183e+003, 5.202087e+003
1.035666e+003, 5.205093e+003
1.036148e+003, 5.208464e+003
1.036630e+003, 5.208129e+003
1.037112e+003, 5.203292e+003
1.037594e+003, 5.198933e+003
1.038076e+003, 5.193133e+003
1.038558e+003, 5.190857e+003
1.039040e+003, 5.195460e+003
1.039522e+003, 5.200962e+003
1.040005e+003, 5.203267e+003
1.040487e+003, 5.203799e+003
1.040969e+003, 5.205317e+003
1.041451e+003, 5.207602e+003
1.041933e+003, 5.211913e+003
1.042415e+003, 5.223063e+003
1.042897e+003, 5.229563e+003
1.043379e+003, 5.226926e+003
1.043861e+003, 5.221461e+003
1.044344e+003, 5.214317e+003
1.044826e+003, 5.208276e+003
1.045308e+003, 5.209605e+003
1.045790e+003, 5.220165e+003
1.046272e+003, 5.227870e+003
1.046754e+003, 5.230586e+003
1.047236e+003, 5.231615e+003
1.047718e+003, 5.229550e+003
1.048201e+003, 5.228239e+003
1.048683e+003, 5.231997e+003
1.049165e+003, 5.237749e+003
1.049647e+003, 5.239220e+003
1.050129e+003, 5.235263e+003
1.050611e+003, 5.232094e+003
1.051093e+003, 5.228546e+003
1.051575e+003, 5.229041e+003
1.052057e+003, 5.236531e+003
1.052540e+003, 5.246849e+003
1.053022e+003, 5.259191e+003
1.053504e+003, 5.271267e+003
1.053986e+003, 5.279547e+003
1.054468e+003, 5.283524e+003
1.054950e+003, 5.284931e+003
1.055432e+003, 5.283732e+003
1.055914e+003, 5.280712e+003
1.056396e+003, 5.270849e+003
1.056879e+003, 5.264428e+003
1.057361e+003, 5.272760e+003
1.057843e+003, 5.288561e+003
1.058325e+003, 5.299691e+003
1.058807e+003, 5.304169e+003
1.059289e+003, 5.304070e+003
1.059771e+003, 5.295299e+003
1.060253e+003, 5.288560e+003
1.060736e+003, 5.290753e+003
1.061218e+003, 5.293726e+003
1.061700e+003, 5.290149e+003
1.062182e+003, 5.283472e+003
1.062664e+003, 5.280761e+003
1.063146e+003, 5.282706e+003
1.063628e+003, 5.282370e+003
1.064110e+003, 5.273299e+003
1.064593e+003, 5.267080e+003
1.065075e+003, 5.271987e+003
1.065557e+003, 5.278088e+003
1.066039e+003, 5.275969e+003
1.066521e+003, 5.270810e+003
1.067003e+003, 5.271172e+003
1.067485e+003, 5.278107e+003
1.067967e+003, 5.287509e+003
1.068449e+003, 5.301757e+003
1.068932e+003, 5.311350e+003
1.069414e+003, 5.307460e+003
1.069896e+003, 5.301938e+003
1.070378e+003, 5.305440e+003
1.070860e+003, 5.312048e+003
1.071342e+003, 5.310842e+003
1.071824e+003, 5.302281e+003
1.072306e+003, 5.298755e+003
1.072788e+003, 5.307145e+003
1.073271e+003, 5.315709e+003
1.073753e+003, 5.319034e+003
1.074235e+003, 5.320484e+003
1.074717e+003, 5.322953e+003
1.075199e+003, 5.324764e+003
1.075681e+003, 5.322500e+003
1.076163e+003, 5.316974e+003
1.076645e+003, 5.313251e+003
1.077127e+003, 5.313273e+003
1.077610e+003, 5.314562e+003
1.078092e+003, 5.316475e+003
1.078574e+003, 5.318731e+003
1.079056e+003, 5.321472e+003
1.079538e+003, 5.324261e+003
1.080020e+003, 5.326979e+003
1.080502e+003, 5.329296e+003
1.080984e+003, 5.330251e+003
1.081467e+003, 5.329321e+003
1.081949e+003, 5.328213e+003
1.082431e+003, 5.326154e+003
1.082913e+003, 5.325933e+003
1.083395e+003, 5.331239e+003
1.083877e+003, 5.337726e+003
1.084359e+003, 5.339943e+003
1.084841e+003, 5.339318e+003
1.085323e+003, 5.341219e+003
1.085806e+003, 5.347344e+003
1.086288e+003, 5.352722e+003
1.086770e+003, 5.353905e+003
1.087252e+003, 5.355451e+003
1.087734e+003, 5.363076e+003
1.088216e+003, 5.369271e+003
1.088698e+003, 5.364166e+003
1.089180e+003, 5.352885e+003
1.089662e+003, 5.347291e+003
1.090145e+003, 5.349811e+003
1.090627e+003, 5.353062e+003
1.091109e+003, 5.351797e+003
1.091591e+003, 5.354022e+003
1.092073e+003, 5.367055e+003
1.092555e+003, 5.381166e+003
1.093037e+003, 5.391084e+003
1.093519e+003, 5.395428e+003
1.094002e+003, 5.391440e+003
1.094484e+003, 5.379474e+003
1.094966e+003, 5.368111e+003
1.095448e+003, 5.358668e+003
1.095930e+003, 5.352331e+003
1.096412e+003, 5.351977e+003
1.096894e+003, 5.352173e+003
1.097376e+003, 5.347580e+003
1.097859e+003, 5.342552e+003
1.098341e+003, 5.343955e+003
1.098823e+003, 5.351347e+003
1.099305e+003, 5.357569e+003
1.099787e+003, 5.361689e+003
1.100269e+003, 5.363024e+003
1.100751e+003, 5.360071e+003
1.101233e+003, 5.355841e+003
1.101715e+003, 5.351202e+003
1.102198e+003, 5.346490e+003
1.102680e+003, 5.340952e+003
1.103162e+003, 5.335576e+003
1.103644e+003, 5.334041e+003
1.104126e+003, 5.338225e+003
1.104608e+003, 5.341959e+003
1.105090e+003, 5.342844e+003
1.105572e+003, 5.344869e+003
1.106054e+003, 5.350878e+003
1.106537e+003, 5.357255e+003
1.107019e+003, 5.361642e+003
1.107501e+003, 5.363993e+003
1.107983e+003, 5.363795e+003
1.108465e+003, 5.359967e+003
1.108947e+003, 5.359644e+003
1.109429e+003, 5.368723e+003
1.109911e+003, 5.373783e+003
1.110394e+003, 5.368561e+003
1.110876e+003, 5.362288e+003
1.111358e+003, 5.360791e+003
1.111840e+003, 5.361625e+003
1.112322e+003, 5.359833e+003
1.112804e+003, 5.355000e+003
1.113286e+003, 5.355135e+003
1.113768e+003, 5.366892e+003
1.114250e+003, 5.372419e+003
1.114733e+003, 5.364818e+003
1.115215e+003, 5.358736e+003
1.115697e+003, 5.363171e+003
1.116179e+003, 5.369629e+003
1.116661e+003, 5.367284e+003
1.117143e+003, 5.357747e+003
1.117625e+003, 5.352875e+003
1.118107e+003, 5.354492e+003
1.118589e+003, 5.356522e+003
1.119072e+003, 5.357977e+003
1.119554e+003, 5.362192e+003
1.120036e+003, 5.372529e+003
1.120518e+003, 5.382218e+003
1.121000e+003, 5.385016e+003
1.121482e+003, 5.383080e+003
1.121964e+003, 5.382854e+003
1.122446e+003, 5.384863e+003
1.122929e+003, 5.384657e+003
1.123411e+003, 5.380310e+003
1.123893e+003, 5.380632e+003
1.124375e+003, 5.388845e+003
1.124857e+003, 5.398022e+003
1.125339e+003, 5.404149e+003
1.125821e+003, 5.407675e+003
1.126303e+003, 5.408997e+003
1.126786e+003, 5.408261e+003
1.127268e+003, 5.409093e+003
1.127750e+003, 5.412005e+003
1.128232e+003, 5.411026e+003
1.128714e+003, 5.404744e+003
1.129196e+003, 5.399349e+003
1.129678e+003, 5.397547e+003
1.130160e+003, 5.398641e+003
1.130642e+003, 5.402293e+003
1.131125e+003, 5.407547e+003
1.131607e+003, 5.410286e+003
1.132089e+003, 5.410834e+003
1.132571e+003, 5.415161e+003
1.133053e+003, 5.423525e+003
1.133535e+003, 5.431194e+003
1.134017e+003, 5.436724e+003
1.134499e+003, 5.438852e+003
1.134981e+003, 5.436228e+003
1.135464e+003, 5.431549e+003
1.135946e+003, 5.428922e+003
1.136428e+003, 5.428500e+003
1.136910e+003, 5.431815e+003
1.137392e+003, 5.438034e+003
1.137874e+003, 5.442920e+003
1.138356e+003, 5.445982e+003
1.138838e+003, 5.450432e+003
1.139321e+003, 5.457940e+003
1.139803e+003, 5.464972e+003
1.140285e+003, 5.467299e+003
1.140767e+003, 5.466833e+003
1.141249e+003, 5.466429e+003
1.141731e+003, 5.466289e+003
1.142213e+003, 5.466957e+003
1.142695e+003, 5.468352e+003
1.143177e+003, 5.470493e+003
1.143660e+003, 5.473127e+003
1.144142e+003, 5.473987e+003
1.144624e+003, 5.470157e+003
1.145106e+003, 5.467162e+003
1.145588e+003, 5.472890e+003
1.146070e+003, 5.481134e+003
1.146552e+003, 5.484187e+003
1.147034e+003, 5.483683e+003
1.147516e+003, 5.482242e+003
1.147999e+003, 5.481279e+003
1.148481e+003, 5.483888e+003
1.148963e+003, 5.492157e+003
1.149445e+003, 5.499099e+003
1.149927e+003, 5.499177e+003
1.150409e+003, 5.497547e+003
1.150891e+003, 5.497976e+003
1.151373e+003, 5.498579e+003
1.151856e+003, 5.495415e+003
1.152338e+003, 5.491080e+003
1.152820e+003, 5.493029e+003
1.153302e+003, 5.502748e+003
1.153784e+003, 5.509023e+003
1.154266e+003, 5.503279e+003
1.154748e+003, 5.500362e+003
1.155230e+003, 5.508594e+003
1.155713e+003, 5.517400e+003
1.156195e+003, 5.519552e+003
1.156677e+003, 5.518881e+003
1.157159e+003, 5.521311e+003
1.157641e+003, 5.526431e+003
1.158123e+003, 5.528554e+003
1.158605e+003, 5.525188e+003
1.159087e+003, 5.523184e+003
1.159569e+003, 5.522210e+003
1.160052e+003, 5.523840e+003
1.160534e+003, 5.532053e+003
1.161016e+003, 5.538919e+003
1.161498e+003, 5.536285e+003
1.161980e+003, 5.529509e+003
1.162462e+003, 5.531005e+003
1.162944e+003, 5.541979e+003
1.163426e+003, 5.547803e+003
1.163908e+003, 5.545977e+003
1.164391e+003, 5.546376e+003
1.164873e+003, 5.551128e+003
1.165355e+003, 5.555556e+003
1.165837e+003, 5.557343e+003
1.166319e+003, 5.558033e+003
1.166801e+003, 5.559271e+003
1.167283e+003, 5.561137e+003
1.167765e+003, 5.564098e+003
1.168247e+003, 5.568181e+003
1.168730e+003, 5.572899e+003
1.169212e+003, 5.578286e+003
1.169694e+003, 5.581570e+003
1.170176e+003, 5.581962e+003
1.170658e+003, 5.580862e+003
1.171140e+003, 5.578739e+003
1.171622e+003, 5.579388e+003
1.172104e+003, 5.593025e+003
1.172587e+003, 5.612875e+003
1.173069e+003, 5.613410e+003
1.173551e+003, 5.599997e+003
1.174033e+003, 5.592538e+003
1.174515e+003, 5.592870e+003
1.174997e+003, 5.595128e+003
1.175479e+003, 5.596907e+003
1.175961e+003, 5.598155e+003
1.176443e+003, 5.598893e+003
1.176926e+003, 5.598947e+003
1.177408e+003, 5.596517e+003
1.177890e+003, 5.594432e+003
1.178372e+003, 5.598077e+003
1.178854e+003, 5.604831e+003
1.179336e+003, 5.609517e+003
1.179818e+003, 5.611389e+003
1.180300e+003, 5.612041e+003
1.180782e+003, 5.612196e+003
1.181265e+003, 5.610979e+003
1.181747e+003, 5.606217e+003
1.182229e+003, 5.601954e+003
1.182711e+003, 5.601538e+003
1.183193e+003, 5.602319e+003
1.183675e+003, 5.600361e+003
1.184157e+003, 5.598240e+003
1.184639e+003, 5.601975e+003
1.185122e+003, 5.612023e+003
1.185604e+003, 5.620243e+003
1.186086e+003, 5.625662e+003
1.186568e+003, 5.627761e+003
1.187050e+003, 5.623075e+003
1.187532e+003, 5.619233e+003
1.188014e+003, 5.619765e+003
1.188496e+003, 5.622271e+003
1.188979e+003, 5.624549e+003
1.189461e+003, 5.626948e+003
1.189943e+003, 5.630511e+003
1.190425e+003, 5.635427e+003
1.190907e+003, 5.640396e+003
1.191389e+003, 5.645899e+003
1.191871e+003, 5.650252e+003
1.192353e+003, 5.653817e+003
1.192835e+003, 5.653596e+003
1.193318e+003, 5.646532e+003
1.193800e+003, 5.639643e+003
1.194282e+003, 5.642092e+003
1.194764e+003, 5.651231e+003
1.195246e+003, 5.656677e+003
1.195728e+003, 5.658565e+003
1.196210e+003, 5.660218e+003
1.196692e+003, 5.661776e+003
1.197174e+003, 5.663068e+003
1.197657e+003, 5.664033e+003
1.198139e+003, 5.664140e+003
1.198621e+003, 5.662877e+003
1.199103e+003, 5.663024e+003
1.199585e+003, 5.669832e+003
1.200067e+003, 5.679387e+003
1.200549e+003, 5.684555e+003
1.201031e+003, 5.686089e+003
1.201514e+003, 5.683682e+003
1.201996e+003, 5.679583e+003
1.202478e+003, 5.679737e+003
1.202960e+003, 5.685507e+003
1.203442e+003, 5.694144e+003
1.203924e+003, 5.706518e+003
1.204406e+003, 5.713856e+003
1.204888e+003, 5.706486e+003
1.205370e+003, 5.694643e+003
1.205853e+003, 5.683837e+003
1.206335e+003, 5.675880e+003
1.206817e+003, 5.672927e+003
1.207299e+003, 5.674021e+003
1.207781e+003, 5.677209e+003
1.208263e+003, 5.682388e+003
1.208745e+003, 5.684860e+003
1.209227e+003, 5.678526e+003
1.209709e+003, 5.676806e+003
1.210192e+003, 5.688391e+003
1.210674e+003, 5.698119e+003
1.211156e+003, 5.694744e+003
1.211638e+003, 5.689010e+003
1.212120e+003, 5.692562e+003
1.212602e+003, 5.702528e+003
1.213084e+003, 5.707919e+003
1.213566e+003, 5.707661e+003
1.214049e+003, 5.708200e+003
1.214531e+003, 5.710210e+003
1.215013e+003, 5.709608e+003
1.215495e+003, 5.704577e+003
1.215977e+003, 5.702603e+003
1.216459e+003, 5.708325e+003
1.216941e+003, 5.715401e+003
1.217423e+003, 5.715671e+003
1.217906e+003, 5.711817e+003
1.218388e+003, 5.712815e+003
1.218870e+003, 5.717283e+003
1.219352e+003, 5.717397e+003
1.219834e+003, 5.713831e+003
1.220316e+003, 5.712726e+003
1.220798e+003, 5.715007e+003
1.221280e+003, 5.716013e+003
1.221762e+003, 5.713099e+003
1.222245e+003, 5.711218e+003
1.222727e+003, 5.715229e+003
1.223209e+003, 5.722992e+003
1.223691e+003, 5.734334e+003
1.224173e+003, 5.746181e+003
1.224655e+003, 5.756516e+003
1.225137e+003, 5.763158e+003
1.225619e+003, 5.760862e+003
1.226101e+003, 5.750604e+003
1.226584e+003, 5.742954e+003
1.227066e+003, 5.744081e+003
1.227548e+003, 5.740769e+003
1.228030e+003, 5.721260e+003
1.228512e+003, 5.706084e+003
1.228994e+003, 5.705700e+003
1.229476e+003, 5.711237e+003
1.229958e+003, 5.717616e+003
1.230441e+003, 5.724130e+003
1.230923e+003, 5.730193e+003
1.231405e+003, 5.735783e+003
1.231887e+003, 5.739831e+003
1.232369e+003, 5.742841e+003
1.232851e+003, 5.741894e+003
1.233333e+003, 5.734643e+003
1.233815e+003, 5.731373e+003
1.234297e+003, 5.735664e+003
1.234780e+003, 5.742623e+003
1.235262e+003, 5.749188e+003
1.235744e+003, 5.754315e+003
1.236226e+003, 5.755894e+003
1.236708e+003, 5.754673e+003
1.237190e+003, 5.753433e+003
1.237672e+003, 5.752351e+003
1.238154e+003, 5.752436e+003
1.238636e+003, 5.753558e+003
1.239119e+003, 5.754723e+003
1.239601e+003, 5.755605e+003
1.240083e+003, 5.756063e+003
1.240565e+003, 5.755737e+003
1.241047e+003, 5.756571e+003
1.241529e+003, 5.762734e+003
1.242011e+003, 5.768623e+003
1.242493e+003, 5.767940e+003
1.242975e+003, 5.764453e+003
1.243458e+003, 5.760639e+003
1.243940e+003, 5.758896e+003
1.244422e+003, 5.765409e+003
1.244904e+003, 5.779992e+003
1.245386e+003, 5.787058e+003
1.245868e+003, 5.777166e+003
1.246350e+003, 5.769572e+003
1.246832e+003, 5.766989e+003
1.247315e+003, 5.767944e+003
1.247797e+003, 5.774555e+003
1.248279e+003, 5.781201e+003
1.248761e+003, 5.783558e+003
1.249243e+003, 5.783622e+003
1.249725e+003, 5.784616e+003
1.250207e+003, 5.786595e+003
1.250689e+003, 5.792751e+003
1.251172e+003, 5.803962e+003
1.251654e+003, 5.807572e+003
1.252136e+003, 5.802235e+003
1.252618e+003, 5.799875e+003
1.253100e+003, 5.804047e+003
1.253582e+003, 5.809275e+003
1.254064e+003, 5.811877e+003
1.254546e+003, 5.812706e+003
1.255028e+003, 5.811382e+003
1.255510e+003, 5.810294e+003
1.255993e+003, 5.815729e+003
1.256475e+003, 5.823763e+003
1.256957e+003, 5.827832e+003
1.257439e+003, 5.827646e+003
1.257921e+003, 5.822475e+003
1.258403e+003, 5.813942e+003
1.258885e+003, 5.810249e+003
1.259367e+003, 5.815934e+003
1.259850e+003, 5.822875e+003
1.260332e+003, 5.828737e+003
1.260814e+003, 5.833091e+003
1.261296e+003, 5.832546e+003
1.261778e+003, 5.833679e+003
1.262260e+003, 5.842709e+003
1.262742e+003, 5.856088e+003
1.263224e+003, 5.870526e+003
1.263707e+003, 5.884651e+003
1.264189e+003, 5.885747e+003
1.264671e+003, 5.867817e+003
1.265153e+003, 5.857260e+003
1.265635e+003, 5.855336e+003
1.266117e+003, 5.855849e+003
1.266599e+003, 5.857409e+003
1.267081e+003, 5.861618e+003
1.267563e+003, 5.869510e+003
1.268046e+003, 5.879440e+003
1.268528e+003, 5.890914e+003
1.269010e+003, 5.900354e+003
1.269492e+003, 5.895447e+003
1.269974e+003, 5.883743e+003
1.270456e+003, 5.887136e+003
1.270938e+003, 5.899966e+003
1.271420e+003, 5.903267e+003
1.271902e+003, 5.896335e+003
1.272385e+003, 5.890428e+003
1.272867e+003, 5.889861e+003
1.273349e+003, 5.893811e+003
1.273831e+003, 5.907624e+003
1.274313e+003, 5.917716e+003
1.274795e+003, 5.911865e+003
1.275277e+003, 5.906293e+003
1.275759e+003, 5.915748e+003
1.276242e+003, 5.928307e+003
1.276724e+003, 5.929073e+003
1.277206e+003, 5.921187e+003
1.277688e+003, 5.916471e+003
1.278170e+003, 5.915054e+003
1.278652e+003, 5.915815e+003
1.279134e+003, 5.918833e+003
1.279616e+003, 5.924466e+003
1.280099e+003, 5.933764e+003
1.280581e+003, 5.939705e+003
1.281063e+003, 5.939394e+003
1.281545e+003, 5.937862e+003
1.282027e+003, 5.939097e+003
1.282509e+003, 5.941396e+003
1.282991e+003, 5.941338e+003
1.283473e+003, 5.940352e+003
1.283955e+003, 5.942763e+003
##END=



