##NAMES=Variscite
##RRUFFID=R050467
##IDEAL CHEMISTRY=AlPO_4_&#183;2H_2_O
##LOCALITY=Garland County, Arkansas, USA
##OWNER=RRUFF
##SOURCE=University of Arizona Mineral Museum
##DESCRIPTION=Green crust of flattened crystals
##STATUS=The identification of this mineral is confirmed by single-crystal X-ray diffraction and chemical analysis.
##URL=rruff.info/R050467
##MEASURED CHEMISTRY=Al_1.00_(P_0.98_V_0.02_)_Σ=1_O_4_·2H_2_O
91.00781, 8.841146
91.48993, 8.725368
91.97205, 8.679346
92.45416, 8.720382
92.93628, 8.829924
93.41840, 8.968657
93.90051, 9.129900
94.38263, 9.317408
94.86475, 9.488467
95.34686, 9.644736
95.82898, 9.945328
96.31110, 10.50351
96.79321, 11.31518
97.27533, 12.34497
97.75745, 13.60502
98.23956, 15.06166
98.72168, 16.47401
99.20380, 17.75192
99.68591, 19.22198
100.1680, 21.21043
100.6501, 23.70498
101.1323, 26.70253
101.6144, 30.26102
102.0965, 34.41929
102.5786, 38.68152
103.0607, 43.17537
103.5428, 47.69359
104.0250, 51.95573
104.5071, 55.71846
104.9892, 59.57313
105.4713, 63.74441
105.9534, 68.48064
106.4355, 72.96487
106.9177, 77.09874
107.3998, 80.97513
107.8819, 85.03617
108.3640, 89.39642
108.8461, 93.80228
109.3282, 98.19702
109.8104, 102.4853
110.2925, 106.7718
110.7746, 110.8298
111.2567, 114.7285
111.7388, 119.1951
112.2209, 124.9267
112.7031, 130.8642
113.1852, 136.3411
113.6673, 139.9227
114.1494, 144.2245
114.6315, 150.1077
115.1136, 157.6848
115.5958, 165.6500
116.0779, 172.6225
116.5600, 180.0622
117.0421, 189.5633
117.5242, 203.0262
118.0063, 217.7934
118.4885, 232.5867
118.9706, 247.1850
119.4527, 262.3706
119.9348, 281.1284
120.4169, 300.6588
120.8990, 316.0938
121.3812, 326.1822
121.8633, 330.3190
122.3454, 326.9638
122.8275, 314.2786
123.3096, 298.2760
123.7917, 282.0752
124.2739, 266.2885
124.7560, 253.1619
125.2381, 244.7673
125.7202, 239.8718
126.2023, 236.5479
126.6844, 234.4782
127.1666, 233.5942
127.6487, 234.0562
128.1308, 235.8269
128.6129, 238.1813
129.0950, 240.5892
129.5771, 243.1158
130.0593, 246.0225
130.5414, 249.4474
131.0235, 253.2504
131.5056, 256.6991
131.9877, 258.7722
132.4698, 259.9500
132.9520, 262.2128
133.4341, 265.5053
133.9162, 268.8960
134.3983, 272.0305
134.8804, 274.9571
135.3625, 278.0863
135.8447, 281.4186
136.3268, 284.9830
136.8089, 289.0370
137.2910, 293.7311
137.7731, 298.1402
138.2552, 301.5594
138.7374, 303.6566
139.2195, 307.5175
139.7016, 313.7111
140.1837, 321.1305
140.6658, 327.6312
141.1479, 333.5865
141.6301, 337.9662
142.1122, 340.3851
142.5943, 340.8422
143.0764, 339.2949
143.5585, 335.1550
144.0406, 329.1035
144.5228, 323.2715
145.0049, 317.4824
145.4870, 312.1735
145.9691, 307.6903
146.4512, 304.4626
146.9333, 301.2630
147.4155, 298.0037
147.8976, 294.6734
148.3797, 291.4276
148.8618, 288.0273
149.3439, 284.8456
149.8260, 282.1185
150.3082, 279.5172
150.7903, 277.6940
151.2724, 276.7463
151.7545, 276.6855
152.2366, 277.0444
152.7188, 277.8524
153.2009, 279.0322
153.6830, 280.5142
154.1651, 282.5469
154.6472, 284.6235
155.1293, 286.4975
155.6115, 288.1012
156.0936, 290.0784
156.5757, 292.6440
157.0578, 295.6040
157.5399, 298.7145
158.0220, 301.6328
158.5042, 304.9622
158.9863, 309.1762
159.4684, 314.6262
159.9505, 319.4574
160.4326, 322.5049
160.9147, 324.6631
161.3969, 327.2574
161.8790, 330.9669
162.3611, 335.0741
162.8432, 339.2143
163.3253, 343.2589
163.8074, 347.4455
164.2896, 351.6906
164.7717, 356.1391
165.2538, 361.0852
165.7359, 367.1593
166.2180, 373.4830
166.7001, 379.4290
167.1823, 384.7812
167.6644, 389.8109
168.1465, 394.4159
168.6286, 398.7664
169.1107, 403.3470
169.5928, 408.3239
170.0750, 413.6931
170.5571, 419.5810
171.0392, 426.1001
171.5213, 432.8798
172.0034, 439.0054
172.4855, 444.8859
172.9677, 452.1313
173.4498, 463.1039
173.9319, 475.8256
174.4140, 487.5872
174.8961, 498.1001
175.3782, 506.9085
175.8604, 514.0582
176.3425, 519.5066
176.8246, 522.6398
177.3067, 523.8903
177.7888, 522.5180
178.2709, 516.9709
178.7531, 506.0537
179.2352, 491.2598
179.7173, 473.4870
180.1994, 452.7923
180.6815, 432.4355
181.1636, 415.2128
181.6458, 400.6512
182.1279, 387.9929
182.6100, 377.4339
183.0921, 368.3194
183.5742, 358.7992
184.0563, 348.9793
184.5385, 339.8496
185.0206, 332.8635
185.5027, 327.6564
185.9848, 322.8290
186.4669, 317.6888
186.9490, 312.5605
187.4312, 308.3260
187.9133, 305.1203
188.3954, 302.3831
188.8775, 299.2976
189.3596, 295.9894
189.8417, 293.5829
190.3239, 292.8817
190.8060, 293.5456
191.2881, 293.9017
191.7702, 293.9055
192.2523, 293.7755
192.7344, 293.7275
193.2166, 293.7650
193.6987, 293.9651
194.1808, 294.3235
194.6629, 294.8530
195.1450, 295.7741
195.6271, 297.1845
196.1093, 298.7384
196.5914, 299.8610
197.0735, 300.5088
197.5556, 301.2505
198.0377, 302.5730
198.5198, 304.4956
199.0020, 305.4049
199.4841, 305.0584
199.9662, 304.1203
200.4483, 303.5826
200.9304, 303.4568
201.4125, 303.6437
201.8947, 304.0017
202.3768, 304.4852
202.8589, 305.7176
203.3410, 307.7601
203.8231, 310.4858
204.3052, 313.6500
204.7874, 317.2836
205.2695, 321.2883
205.7516, 325.6388
206.2337, 330.3466
206.7158, 335.3210
207.1979, 340.5474
207.6801, 346.0783
208.1622, 352.0488
208.6443, 358.6913
209.1264, 365.1646
209.6085, 370.9214
210.0906, 375.6661
210.5728, 381.0954
211.0549, 387.2916
211.5370, 394.1110
212.0191, 401.0970
212.5012, 408.3340
212.9833, 415.6741
213.4655, 423.0195
213.9476, 430.4788
214.4297, 437.6647
214.9118, 444.4159
215.3939, 450.9620
215.8760, 458.0220
216.3581, 465.4734
216.8403, 473.5692
217.3224, 482.2451
217.8045, 491.3454
218.2866, 501.7416
218.7687, 513.6677
219.2508, 526.7776
219.7330, 539.6556
220.2151, 551.5408
220.6972, 564.5109
221.1793, 579.4462
221.6614, 596.9128
222.1435, 615.2885
222.6257, 635.5325
223.1078, 656.3985
223.5899, 675.2000
224.0720, 692.5524
224.5541, 706.9115
225.0362, 718.3210
225.5184, 728.2206
226.0005, 731.3701
226.4826, 727.1446
226.9647, 716.3535
227.4468, 700.5289
227.9289, 677.9451
228.4111, 653.1732
228.8932, 627.9305
229.3753, 601.3752
229.8574, 576.3835
230.3395, 552.5963
230.8216, 530.7031
231.3038, 512.3408
231.7859, 498.4256
232.2680, 486.8886
232.7501, 476.8565
233.2322, 468.2982
233.7143, 461.4655
234.1965, 457.2661
234.6786, 454.5586
235.1607, 450.1036
235.6428, 443.3444
236.1249, 435.6320
236.6070, 427.4482
237.0892, 418.4437
237.5713, 409.7359
238.0534, 401.4498
238.5355, 393.4243
239.0176, 385.1772
239.4997, 375.9718
239.9819, 367.4417
240.4640, 360.4230
240.9461, 355.4432
241.4282, 350.6167
241.9103, 345.8631
242.3924, 341.2920
242.8746, 337.1173
243.3567, 333.1372
243.8388, 329.8696
244.3209, 327.6693
244.8030, 327.1673
245.2851, 326.0562
245.7673, 323.8468
246.2494, 321.2325
246.7315, 319.7645
247.2136, 319.9750
247.6957, 320.4897
248.1778, 320.7900
248.6600, 320.7608
249.1421, 320.8649
249.6242, 321.1326
250.1063, 321.5163
250.5884, 321.9381
251.0705, 322.4444
251.5527, 322.9038
252.0348, 323.2282
252.5169, 323.3295
252.9990, 323.6153
253.4811, 324.0901
253.9632, 324.7462
254.4454, 325.6029
254.9275, 326.8266
255.4096, 327.9350
255.8917, 328.6986
256.3738, 328.9667
256.8560, 329.6135
257.3381, 330.9018
257.8202, 332.3536
258.3023, 333.1976
258.7844, 333.1095
259.2665, 333.1185
259.7487, 333.6890
260.2308, 335.0083
260.7129, 335.4906
261.1950, 334.8075
261.6771, 333.6471
262.1592, 332.9897
262.6414, 333.1076
263.1235, 333.0323
263.6056, 332.3251
264.0877, 330.8884
264.5698, 330.3063
265.0519, 330.9254
265.5341, 331.9244
266.0162, 332.3282
266.4983, 331.9615
266.9804, 331.5124
267.4625, 331.0326
267.9446, 330.5337
268.4268, 330.5426
268.9089, 331.0451
269.3910, 332.0764
269.8731, 333.9037
270.3552, 336.8255
270.8373, 339.2586
271.3195, 340.7181
271.8016, 341.3129
272.2837, 342.2422
272.7658, 343.5091
273.2479, 345.1317
273.7300, 347.2860
274.2122, 350.0842
274.6943, 352.6863
275.1764, 354.9599
275.6585, 356.8960
276.1406, 358.3224
276.6227, 359.0995
277.1049, 359.8401
277.5870, 361.1708
278.0691, 363.1761
278.5512, 364.8399
279.0333, 366.0513
279.5154, 366.7875
279.9976, 366.7265
280.4797, 365.6781
280.9618, 364.8093
281.4439, 364.8673
281.9260, 365.8568
282.4081, 367.5790
282.8903, 370.2032
283.3724, 373.3279
283.8545, 376.0667
284.3366, 378.4128
284.8187, 380.4460
285.3008, 382.2501
285.7830, 383.8190
286.2651, 384.8870
286.7472, 385.4282
287.2293, 385.4860
287.7114, 385.0927
288.1935, 384.2483
288.6757, 383.0770
289.1578, 381.4711
289.6399, 379.5329
290.1220, 377.9258
290.6041, 376.7416
291.0862, 375.6718
291.5684, 374.1070
292.0505, 372.1229
292.5326, 370.4996
293.0147, 369.5773
293.4968, 369.2997
293.9789, 369.6748
294.4611, 370.8069
294.9432, 371.9471
295.4253, 371.9110
295.9074, 371.0140
296.3895, 370.6100
296.8716, 371.9162
297.3538, 373.9540
297.8359, 374.7490
298.3180, 374.2884
298.8001, 373.0811
299.2822, 371.8836
299.7643, 370.3322
300.2465, 367.4346
300.7286, 361.7314
301.2107, 355.2516
301.6928, 350.6503
302.1749, 347.9049
302.6570, 346.0481
303.1392, 344.5392
303.6213, 343.3923
304.1034, 342.6603
304.5855, 342.3303
305.0676, 342.4414
305.5497, 342.8410
306.0319, 343.6189
306.5140, 345.2662
306.9961, 348.8246
307.4782, 353.1444
307.9603, 356.8204
308.4424, 359.1395
308.9246, 361.4182
309.4067, 364.9935
309.8888, 369.3950
310.3709, 373.3566
310.8530, 375.2969
311.3351, 376.9495
311.8173, 379.8546
312.2994, 384.5385
312.7815, 389.7141
313.2636, 394.9768
313.7457, 400.1307
314.2278, 404.8591
314.7100, 408.3047
315.1921, 411.7610
315.6742, 415.9877
316.1563, 421.0851
316.6384, 426.7394
317.1205, 432.7164
317.6027, 439.1188
318.0848, 446.0486
318.5669, 453.1629
319.0490, 461.1429
319.5311, 470.6198
320.0132, 481.6734
320.4954, 492.5246
320.9775, 502.0800
321.4596, 511.4225
321.9417, 521.3282
322.4238, 533.5999
322.9059, 544.7462
323.3881, 554.4176
323.8702, 562.4435
324.3523, 568.1052
324.8344, 572.7602
325.3165, 574.0557
325.7986, 570.6672
326.2808, 560.6357
326.7629, 548.1219
327.2450, 531.9641
327.7271, 513.1504
328.2092, 495.5116
328.6913, 478.4415
329.1735, 463.1386
329.6556, 449.7879
330.1377, 438.2640
330.6198, 428.9557
331.1019, 422.4028
331.5840, 417.9194
332.0662, 414.0839
332.5483, 410.5933
333.0304, 408.1705
333.5125, 407.2069
333.9946, 407.9093
334.4767, 408.8818
334.9589, 410.1243
335.4410, 411.6186
335.9231, 413.3428
336.4052, 415.2707
336.8873, 417.4577
337.3694, 419.8723
337.8516, 422.5150
338.3336, 425.6609
338.8158, 429.4748
339.2979, 433.4758
339.7800, 437.1515
340.2621, 440.3345
340.7442, 444.3349
341.2263, 449.7224
341.7085, 455.8612
342.1906, 459.9492
342.6727, 461.6674
343.1548, 463.5594
343.6369, 467.3796
344.1190, 473.0225
344.6012, 479.5782
345.0833, 487.2043
345.5654, 495.1168
346.0475, 501.9155
346.5296, 507.6154
347.0117, 512.9605
347.4939, 517.9074
347.9760, 522.7115
348.4581, 528.3447
348.9402, 534.8943
349.4223, 541.9597
349.9044, 550.0410
350.3866, 558.5753
350.8687, 565.7366
351.3508, 570.4647
351.8329, 573.5798
352.3150, 576.5696
352.7971, 579.4109
353.2793, 581.0450
353.7614, 580.8646
354.2435, 578.9207
354.7256, 575.2702
355.2077, 569.6763
355.6898, 562.7314
356.1720, 554.2732
356.6541, 544.6086
357.1362, 535.1422
357.6183, 526.4361
358.1004, 518.3163
358.5826, 510.6073
359.0647, 503.2173
359.5468, 496.3864
360.0289, 490.2217
360.5110, 484.7072
360.9931, 479.7926
361.4753, 475.5531
361.9574, 471.8946
362.4395, 468.9216
362.9216, 466.7466
363.4037, 464.5742
363.8858, 462.6187
364.3680, 460.3776
364.8501, 457.3094
365.3322, 451.6337
365.8143, 446.8777
366.2964, 444.4264
366.7785, 444.2208
367.2607, 443.2836
367.7428, 440.7125
368.2249, 437.7403
368.7070, 435.0921
369.1891, 432.6678
369.6712, 430.7370
370.1534, 429.2318
370.6355, 428.2065
371.1176, 427.8771
371.5997, 428.6291
372.0818, 429.5612
372.5639, 430.2725
373.0461, 430.5591
373.5282, 431.3706
374.0103, 433.1497
374.4924, 435.0440
374.9745, 435.5697
375.4566, 434.2137
375.9388, 433.1068
376.4209, 432.8633
376.9030, 433.4543
377.3851, 434.3651
377.8672, 435.6420
378.3493, 437.1551
378.8315, 438.8957
379.3136, 440.8958
379.7957, 442.5994
380.2778, 443.9079
380.7599, 444.8878
381.2420, 445.6656
381.7242, 446.2282
382.2063, 446.7492
382.6884, 447.4099
383.1705, 448.1182
383.6526, 448.4012
384.1347, 448.0692
384.6169, 447.8493
385.0990, 449.2671
385.5811, 451.7038
386.0632, 453.0974
386.5453, 451.5965
387.0274, 448.9034
387.5096, 447.3309
387.9917, 446.9101
388.4738, 446.6603
388.9559, 445.9095
389.4380, 444.8719
389.9201, 443.8280
390.4023, 443.0035
390.8844, 442.0645
391.3665, 440.5819
391.8486, 438.7331
392.3307, 437.2148
392.8128, 436.4606
393.2950, 436.0804
393.7771, 435.7726
394.2592, 435.3846
394.7413, 435.3309
395.2234, 435.9845
395.7055, 437.0021
396.1877, 437.8561
396.6698, 438.0987
397.1519, 438.4731
397.6340, 439.2672
398.1161, 440.5451
398.5982, 441.7635
399.0804, 442.2738
399.5625, 443.0988
400.0446, 445.0239
400.5267, 449.2026
401.0088, 452.8149
401.4909, 455.3052
401.9731, 457.0254
402.4552, 459.2971
402.9373, 462.1055
403.4194, 465.4985
403.9015, 469.6416
404.3836, 474.8184
404.8658, 479.5201
405.3479, 483.3896
405.8300, 487.1923
406.3121, 492.3336
406.7942, 499.0345
407.2763, 505.4489
407.7585, 510.7766
408.2406, 515.3134
408.7227, 520.7155
409.2048, 527.0422
409.6869, 533.4797
410.1690, 539.3944
410.6512, 544.7708
411.1333, 549.6423
411.6154, 553.6948
412.0975, 557.8522
412.5796, 564.0623
413.0617, 571.9103
413.5439, 579.4188
414.0260, 585.6642
414.5081, 590.8995
414.9902, 595.0166
415.4723, 597.9066
415.9544, 601.1533
416.4366, 606.3841
416.9187, 612.7037
417.4008, 618.7439
417.8829, 623.7935
418.3650, 628.6355
418.8471, 633.8633
419.3293, 639.3504
419.8114, 644.6428
420.2935, 649.1905
420.7756, 653.6761
421.2577, 658.3604
421.7398, 663.0127
422.2220, 668.5538
422.7041, 675.9304
423.1862, 684.2560
423.6683, 691.9543
424.1504, 697.8848
424.6325, 704.2477
425.1147, 711.7777
425.5968, 720.7795
426.0789, 729.0396
426.5610, 735.9118
427.0431, 742.6345
427.5252, 750.1077
428.0074, 758.4161
428.4895, 767.3139
428.9716, 776.8994
429.4537, 786.8842
429.9358, 796.2690
430.4179, 804.9807
430.9001, 813.2403
431.3822, 821.1424
431.8643, 828.6917
432.3464, 835.6428
432.8285, 842.1263
433.3106, 847.5941
433.7928, 851.5056
434.2749, 853.8463
434.7570, 854.4722
435.2391, 853.2885
435.7212, 850.4117
436.2033, 846.2183
436.6855, 840.6877
437.1676, 833.1855
437.6497, 823.0710
438.1318, 810.7695
438.6139, 796.8600
439.0960, 781.3795
439.5782, 764.5134
440.0603, 745.6989
440.5424, 725.5808
441.0245, 705.6766
441.5066, 685.7007
441.9887, 666.6600
442.4709, 649.3879
442.9530, 633.8497
443.4351, 618.6609
443.9172, 603.2748
444.3993, 588.1450
444.8814, 573.7880
445.3636, 559.5915
445.8457, 546.9229
446.3278, 536.3945
446.8099, 527.5848
447.2920, 519.1734
447.7741, 511.5158
448.2563, 503.7350
448.7384, 495.3352
449.2205, 485.8767
449.7026, 478.7789
450.1847, 475.0968
450.6668, 472.5537
451.1490, 468.9005
451.6311, 463.5446
452.1132, 459.4272
452.5953, 457.1987
453.0774, 456.2808
453.5595, 455.0617
454.0417, 453.5120
454.5238, 451.8694
455.0059, 449.9498
455.4880, 447.9500
455.9701, 446.9368
456.4522, 447.0222
456.9344, 447.5826
457.4165, 447.9789
457.8986, 448.3131
458.3807, 448.8695
458.8628, 449.8304
459.3449, 450.9556
459.8271, 451.9851
460.3092, 452.9473
460.7913, 453.9800
461.2734, 455.2454
461.7555, 456.5649
462.2376, 457.8710
462.7198, 459.2051
463.2019, 460.2191
463.6840, 460.4653
464.1661, 460.3795
464.6482, 460.4886
465.1303, 460.6259
465.6125, 461.2783
466.0946, 462.8530
466.5767, 465.2346
467.0588, 467.2526
467.5409, 468.7256
468.0230, 469.9071
468.5052, 470.8609
468.9873, 471.4066
469.4694, 472.1320
469.9515, 472.7890
470.4336, 473.8392
470.9157, 476.2071
471.3979, 480.4293
471.8800, 484.1039
472.3621, 486.5792
472.8442, 488.0255
473.3263, 489.2162
473.8084, 490.1067
474.2906, 491.0799
474.7727, 492.4131
475.2548, 494.0630
475.7369, 495.9321
476.2190, 498.0997
476.7011, 500.1265
477.1833, 501.7684
477.6654, 502.8933
478.1475, 503.1324
478.6296, 501.7368
479.1117, 499.7985
479.5938, 498.4395
480.0760, 497.5717
480.5581, 496.6451
481.0402, 495.7573
481.5223, 494.4252
482.0044, 492.2924
482.4865, 489.3781
482.9687, 485.5044
483.4508, 480.3208
483.9329, 474.1976
484.4150, 467.7426
484.8971, 460.1106
485.3792, 453.0992
485.8614, 447.2876
486.3435, 442.5782
486.8256, 437.7401
487.3077, 432.7281
487.7898, 427.7068
488.2719, 422.7534
488.7541, 418.0244
489.2362, 413.1143
489.7183, 407.8455
490.2004, 402.6205
490.6825, 397.9181
491.1646, 393.7265
491.6468, 390.0003
492.1289, 386.5987
492.6110, 383.6927
493.0931, 381.8893
493.5752, 381.1662
494.0573, 380.3653
494.5395, 378.3324
495.0216, 375.6675
495.5037, 373.5907
495.9858, 372.3308
496.4679, 371.3852
496.9500, 370.5051
497.4322, 369.6170
497.9143, 368.6141
498.3964, 367.0891
498.8785, 365.7669
499.3606, 365.0752
499.8427, 364.9516
500.3249, 365.1363
500.8070, 365.9355
501.2891, 366.7074
501.7712, 366.9784
502.2533, 366.2547
502.7354, 366.3134
503.2176, 367.9443
503.6997, 370.0769
504.1818, 371.6707
504.6639, 372.7121
505.1460, 373.1764
505.6281, 372.7768
506.1103, 371.8282
506.5924, 371.5716
507.0745, 372.0714
507.5566, 373.0185
508.0387, 374.4228
508.5208, 376.2486
509.0030, 377.7361
509.4851, 378.8309
509.9672, 379.8940
510.4493, 381.4646
510.9314, 383.3537
511.4135, 384.8461
511.8957, 385.5159
512.3778, 386.1349
512.8599, 387.7623
513.3420, 390.1110
513.8242, 392.3224
514.3063, 393.5326
514.7884, 394.7704
515.2705, 397.0084
515.7526, 400.3080
516.2347, 403.4113
516.7169, 405.7269
517.1990, 407.6943
517.6811, 409.6312
518.1632, 411.2541
518.6453, 413.2933
519.1274, 416.1108
519.6096, 419.3415
520.0917, 422.2695
520.5738, 424.6080
521.0559, 427.0802
521.5380, 429.8102
522.0201, 432.8061
522.5023, 436.2758
522.9844, 440.3631
523.4665, 444.5701
523.9486, 448.6870
524.4307, 452.7125
524.9128, 456.0568
525.3950, 458.5020
525.8771, 460.7597
526.3592, 463.8204
526.8413, 467.4803
527.3234, 471.1472
527.8055, 474.8111
528.2877, 478.1122
528.7698, 480.3177
529.2519, 481.6844
529.7340, 483.3989
530.2161, 486.6700
530.6982, 490.1715
531.1804, 493.1076
531.6625, 495.3815
532.1446, 496.7608
532.6267, 496.1564
533.1088, 495.1106
533.5909, 495.0539
534.0731, 497.6069
534.5552, 499.3810
535.0373, 499.8082
535.5194, 499.3574
536.0015, 499.1888
536.4836, 499.2922
536.9658, 499.7012
537.4479, 500.4624
537.9300, 501.5563
538.4121, 502.7550
538.8942, 504.0575
539.3763, 505.4161
539.8585, 506.6811
540.3406, 507.9215
540.8227, 509.6627
541.3048, 512.1174
541.7869, 514.5986
542.2690, 516.2257
542.7512, 517.2129
543.2333, 518.0927
543.7154, 518.6976
544.1975, 519.6110
544.6796, 521.4225
545.1617, 524.0095
545.6439, 526.7598
546.1260, 529.8080
546.6081, 532.6244
547.0902, 534.6693
547.5723, 535.4766
548.0544, 537.1777
548.5366, 540.8268
549.0187, 545.0926
549.5008, 548.7839
549.9829, 551.3465
550.4650, 554.3825
550.9471, 558.2783
551.4293, 562.5844
551.9114, 566.2972
552.3935, 569.3170
552.8756, 572.2340
553.3577, 575.2360
553.8398, 578.3201
554.3220, 581.5339
554.8041, 584.8990
555.2862, 588.1432
555.7683, 590.7866
556.2504, 593.2298
556.7325, 596.7404
557.2147, 601.8215
557.6968, 606.0812
558.1789, 606.8632
558.6610, 605.6863
559.1431, 604.7881
559.6252, 605.3582
560.1074, 605.9557
560.5895, 606.1861
561.0716, 606.0166
561.5537, 605.3530
562.0358, 604.1279
562.5179, 602.4332
563.0001, 600.3464
563.4822, 597.9042
563.9643, 594.8522
564.4464, 591.0423
564.9285, 586.8297
565.4106, 582.4541
565.8928, 577.9338
566.3749, 572.9308
566.8570, 567.1935
567.3391, 561.3495
567.8212, 556.8345
568.3033, 553.3129
568.7855, 548.5204
569.2676, 540.8904
569.7497, 532.3237
570.2318, 525.5623
570.7139, 520.3795
571.1960, 515.2200
571.6782, 509.1906
572.1603, 502.8705
572.6424, 496.8126
573.1245, 491.0239
573.6066, 485.2817
574.0887, 479.0570
574.5709, 473.0513
575.0530, 467.7628
575.5351, 463.9370
576.0172, 459.7528
576.4993, 454.7305
576.9814, 449.5235
577.4636, 445.4052
577.9457, 442.9663
578.4278, 440.0219
578.9099, 435.9100
579.3920, 431.0173
579.8741, 426.6629
580.3563, 422.8619
580.8384, 419.6778
581.3205, 417.6217
581.8026, 416.1680
582.2847, 413.7210
582.7668, 410.2037
583.2490, 406.7399
583.7311, 404.1373
584.2132, 402.2090
584.6953, 400.7516
585.1774, 399.9048
585.6595, 399.1131
586.1416, 398.3951
586.6237, 397.4786
587.1058, 395.9409
587.5880, 392.5264
588.0701, 389.7539
588.5522, 388.4780
589.0343, 388.3890
589.5164, 388.1457
589.9985, 387.8280
590.4807, 387.2015
590.9628, 385.9851
591.4449, 384.1521
591.9270, 383.1123
592.4091, 382.9976
592.8912, 383.0954
593.3734, 382.5760
593.8555, 381.6566
594.3376, 381.5226
594.8197, 382.5056
595.3018, 383.5877
595.7839, 383.5606
596.2661, 382.8369
596.7482, 382.2082
597.2303, 382.1086
597.7124, 382.0678
598.1945, 381.7215
598.6766, 381.2093
599.1588, 380.9331
599.6409, 381.1867
600.1230, 381.5415
600.6051, 381.8143
601.0872, 381.9840
601.5693, 382.3574
602.0515, 383.1391
602.5336, 383.8336
603.0157, 383.9885
603.4978, 383.3964
603.9799, 383.6414
604.4620, 384.9596
604.9442, 386.5598
605.4263, 387.5541
605.9084, 387.9706
606.3905, 387.7949
606.8726, 386.7040
607.3547, 385.6642
607.8369, 386.3208
608.3190, 388.0067
608.8011, 389.0382
609.2832, 387.8246
609.7653, 386.3605
610.2474, 385.9821
610.7296, 386.5643
611.2117, 386.9330
611.6938, 386.7408
612.1759, 386.2729
612.6580, 385.6024
613.1401, 384.6381
613.6223, 383.9085
614.1044, 383.6675
614.5865, 383.3328
615.0686, 382.3467
615.5507, 380.6420
616.0328, 378.9180
616.5150, 377.2095
616.9971, 375.6243
617.4792, 374.5070
617.9613, 373.7212
618.4434, 372.5961
618.9255, 370.7765
619.4077, 368.6889
619.8898, 366.8115
620.3719, 365.0663
620.8540, 363.1694
621.3361, 360.4297
621.8182, 357.9965
622.3004, 356.8072
622.7825, 356.8771
623.2646, 356.4428
623.7467, 354.6429
624.2288, 352.6907
624.7109, 351.2510
625.1931, 350.6192
625.6752, 349.3481
626.1573, 347.0449
626.6394, 344.7273
627.1215, 343.6522
627.6036, 343.8407
628.0858, 343.5975
628.5679, 342.6039
629.0500, 341.2333
629.5321, 339.8947
630.0142, 338.6309
630.4963, 337.6299
630.9785, 337.1382
631.4606, 336.7606
631.9427, 336.1364
632.4248, 335.3424
632.9069, 334.6148
633.3890, 334.1346
633.8712, 333.6822
634.3533, 333.0907
634.8354, 332.3300
635.3175, 331.8687
635.7996, 331.9343
636.2817, 332.0482
636.7639, 331.9051
637.2460, 331.3931
637.7281, 331.2500
638.2102, 331.6098
638.6923, 331.9370
639.1744, 331.4430
639.6566, 330.3064
640.1387, 329.6738
640.6208, 329.9233
641.1029, 330.2492
641.5850, 329.4919
642.0671, 328.1495
642.5493, 327.2023
643.0314, 327.6869
643.5135, 328.0749
643.9956, 327.1744
644.4777, 325.4995
644.9598, 324.6392
645.4420, 326.1998
645.9241, 327.3304
646.4062, 326.9967
646.8883, 325.2840
647.3704, 323.9734
647.8525, 323.0471
648.3347, 322.5861
648.8168, 322.7827
649.2989, 323.6139
649.7810, 324.3883
650.2631, 325.1210
650.7452, 325.6090
651.2274, 325.5292
651.7095, 325.0710
652.1916, 324.5889
652.6737, 324.1253
653.1558, 323.7546
653.6379, 323.4597
654.1201, 323.3092
654.6022, 323.3911
655.0843, 323.9990
655.5664, 324.5295
656.0485, 324.8259
656.5306, 324.9478
657.0128, 325.0549
657.4949, 325.2207
657.9770, 325.2158
658.4591, 324.8894
658.9412, 324.3629
659.4233, 324.1925
659.9055, 324.4020
660.3876, 324.7217
660.8697, 325.2339
661.3518, 325.7097
661.8339, 325.3473
662.3160, 324.2110
662.7982, 323.3028
663.2803, 323.5692
663.7624, 324.2743
664.2445, 324.7358
664.7266, 324.8515
665.2087, 324.8267
665.6909, 324.4860
666.1730, 324.1779
666.6551, 324.2185
667.1372, 325.0144
667.6193, 325.4256
668.1014, 325.2535
668.5836, 324.8880
669.0657, 324.8939
669.5478, 325.3068
670.0299, 325.6644
670.5120, 325.8773
670.9941, 325.9826
671.4763, 326.1115
671.9584, 326.2075
672.4405, 326.0538
672.9226, 325.1418
673.4047, 324.2784
673.8868, 324.2635
674.3690, 324.9161
674.8511, 325.5876
675.3332, 326.2423
675.8153, 326.6652
676.2974, 326.6312
676.7795, 326.1138
677.2617, 325.9753
677.7438, 326.4484
678.2259, 326.9392
678.7080, 327.0663
679.1901, 326.7861
679.6722, 326.9281
680.1544, 327.5342
680.6365, 328.3186
681.1186, 329.1387
681.6007, 329.9252
682.0828, 330.5535
682.5649, 331.0183
683.0471, 331.2060
683.5292, 330.7462
684.0113, 330.0565
684.4934, 329.6535
684.9755, 329.8594
685.4576, 330.0651
685.9398, 330.0814
686.4219, 330.0177
686.9040, 330.0567
687.3861, 330.2410
687.8682, 330.4682
688.3503, 330.8070
688.8325, 331.1226
689.3146, 330.9058
689.7967, 330.1485
690.2788, 329.7152
690.7609, 330.1720
691.2430, 331.0157
691.7252, 331.2710
692.2073, 331.0671
692.6894, 330.9756
693.1715, 331.5792
693.6536, 332.2088
694.1357, 332.3092
694.6179, 331.8768
695.1000, 331.5510
695.5821, 331.5648
696.0642, 331.6436
696.5463, 331.6138
697.0284, 331.4101
697.5106, 331.5887
697.9927, 332.3145
698.4748, 333.0453
698.9569, 333.3164
699.4390, 333.1781
699.9211, 332.9572
700.4033, 332.6661
700.8854, 332.4268
701.3675, 332.3316
701.8496, 332.3826
702.3317, 332.6050
702.8138, 333.0662
703.2960, 333.5308
703.7781, 333.8944
704.2602, 334.1854
704.7423, 334.4384
705.2244, 334.8746
705.7065, 334.9214
706.1887, 334.0663
706.6708, 333.0615
707.1529, 333.5542
707.6350, 335.9063
708.1171, 337.5117
708.5992, 337.5208
709.0814, 336.6030
709.5635, 335.9169
710.0456, 335.4909
710.5277, 335.4673
711.0098, 336.3067
711.4919, 337.2710
711.9741, 337.7153
712.4562, 337.7255
712.9383, 337.6695
713.4204, 337.5882
713.9025, 337.5594
714.3846, 337.6737
714.8668, 337.9195
715.3489, 337.9829
715.8310, 337.7310
716.3131, 337.5648
716.7952, 337.7302
717.2773, 338.1977
717.7595, 338.6189
718.2416, 338.9973
718.7237, 339.2189
719.2058, 339.1646
719.6879, 338.9034
720.1700, 338.3922
720.6522, 337.5898
721.1343, 337.1958
721.6164, 338.0855
722.0985, 339.2545
722.5806, 339.8749
723.0627, 339.5246
723.5449, 339.3052
724.0270, 339.4086
724.5091, 339.5318
724.9912, 339.2577
725.4733, 338.3919
725.9554, 338.3839
726.4376, 339.5344
726.9197, 341.0274
727.4018, 341.7222
727.8839, 341.8281
728.3660, 342.0350
728.8481, 342.6303
729.3303, 343.1187
729.8124, 342.9809
730.2945, 342.4820
730.7766, 342.0275
731.2587, 341.6869
731.7408, 341.4543
732.2230, 341.2980
732.7051, 341.2554
733.1872, 341.4548
733.6693, 342.0345
734.1514, 342.4274
734.6335, 342.4134
735.1157, 342.2130
735.5978, 342.5150
736.0799, 343.2413
736.5620, 343.7088
737.0441, 343.2650
737.5262, 342.6738
738.0084, 342.9046
738.4905, 343.7531
738.9726, 344.5219
739.4547, 344.9338
739.9368, 345.1758
740.4189, 345.3323
740.9011, 345.3918
741.3832, 345.2119
741.8653, 344.4683
742.3474, 344.0812
742.8295, 344.6540
743.3116, 345.9855
743.7938, 346.3443
744.2759, 345.7039
744.7580, 344.8922
745.2401, 344.2411
745.7222, 343.8981
746.2043, 344.3791
746.6865, 345.6406
747.1686, 346.4683
747.6507, 345.7725
748.1328, 344.7513
748.6149, 344.1830
749.0970, 344.2466
749.5792, 344.3809
750.0613, 344.5172
750.5434, 344.7848
751.0255, 345.2924
751.5076, 346.0536
751.9897, 346.9668
752.4719, 348.1257
752.9540, 348.9032
753.4361, 348.3644
753.9182, 347.1089
754.4003, 346.2589
754.8824, 345.9536
755.3646, 346.2049
755.8467, 347.6323
756.3288, 349.2872
756.8109, 350.2173
757.2930, 349.8636
757.7751, 349.6532
758.2573, 349.7063
758.7394, 349.9028
759.2215, 350.1484
759.7036, 350.4567
760.1857, 350.7701
760.6678, 351.1146
761.1500, 351.3438
761.6321, 350.8641
762.1142, 350.1400
762.5963, 350.5707
763.0784, 353.0844
763.5605, 355.1075
764.0427, 354.1249
764.5248, 351.8540
765.0069, 350.4478
765.4890, 350.9180
765.9711, 351.6115
766.4532, 352.5272
766.9354, 353.5160
767.4175, 354.4328
767.8996, 355.3332
768.3817, 355.8091
768.8638, 355.7387
769.3459, 355.3593
769.8281, 354.8477
770.3102, 354.3251
770.7923, 354.1373
771.2744, 354.3770
771.7565, 355.0325
772.2386, 356.5952
772.7208, 358.4670
773.2029, 359.6073
773.6850, 358.9829
774.1671, 358.5860
774.6492, 358.6779
775.1313, 359.1580
775.6135, 359.9326
776.0956, 361.0745
776.5777, 361.8967
777.0598, 362.1392
777.5419, 362.0775
778.0240, 362.0810
778.5062, 362.1887
778.9883, 362.5287
779.4704, 363.5025
779.9525, 364.3730
780.4346, 364.4146
780.9167, 364.0116
781.3989, 364.1185
781.8810, 365.6956
782.3631, 366.8554
782.8452, 367.1862
783.3273, 366.9018
783.8094, 366.5467
784.2916, 366.0995
784.7737, 365.8011
785.2558, 365.6811
785.7379, 365.8182
786.2200, 366.6504
786.7021, 367.9247
787.1843, 368.7427
787.6664, 367.8756
788.1485, 367.2294
788.6306, 368.2437
789.1127, 370.4319
789.5948, 371.8765
790.0770, 372.1454
790.5591, 371.9939
791.0412, 371.3243
791.5233, 370.4414
792.0054, 370.5981
792.4875, 371.8114
792.9697, 373.0259
793.4518, 373.8611
793.9339, 374.3377
794.4160, 374.3036
794.8981, 373.8955
795.3802, 373.5714
795.8624, 373.3558
796.3445, 373.4657
796.8266, 374.3155
797.3087, 375.6711
797.7908, 376.3429
798.2729, 375.8601
798.7551, 375.5888
799.2372, 376.0973
799.7193, 377.0464
800.2014, 377.0101
800.6835, 376.0740
801.1656, 375.3931
801.6478, 375.9070
802.1299, 376.7212
802.6120, 376.7587
803.0941, 376.2025
803.5762, 375.6367
804.0583, 374.8619
804.5405, 374.5650
805.0226, 375.4060
805.5047, 376.9961
805.9868, 377.8182
806.4689, 377.6567
806.9510, 377.3288
807.4332, 376.9919
807.9153, 376.7608
808.3974, 377.2594
808.8795, 378.3036
809.3616, 378.8383
809.8438, 377.9062
810.3259, 376.5835
810.8080, 375.7226
811.2901, 375.2021
811.7722, 374.5693
812.2543, 373.4654
812.7365, 372.5223
813.2186, 371.8939
813.7007, 371.5353
814.1828, 371.2984
814.6649, 371.1763
815.1470, 371.2137
815.6292, 371.5316
816.1113, 371.8968
816.5934, 371.8379
817.0755, 371.4405
817.5576, 371.0011
818.0397, 370.6768
818.5219, 370.3347
819.0040, 369.7750
819.4861, 369.1327
819.9682, 368.8996
820.4503, 369.6022
820.9324, 369.8012
821.4146, 369.0213
821.8967, 367.6945
822.3788, 366.9580
822.8609, 366.7834
823.3430, 366.6372
823.8251, 366.3932
824.3073, 365.9853
824.7894, 365.1730
825.2715, 364.1497
825.7536, 363.2988
826.2357, 362.5853
826.7178, 362.2753
827.2000, 362.8703
827.6821, 363.8139
828.1642, 364.0360
828.6463, 363.3391
829.1284, 362.6078
829.6105, 361.9777
830.0927, 361.4674
830.5748, 361.2057
831.0569, 361.0995
831.5390, 360.7879
832.0211, 359.9082
832.5032, 359.1828
832.9854, 359.4939
833.4675, 360.1860
833.9496, 360.2574
834.4317, 358.5232
834.9138, 357.5432
835.3959, 357.7662
835.8781, 358.5431
836.3602, 358.9777
836.8423, 359.0622
837.3244, 358.8170
837.8065, 358.1889
838.2886, 357.4184
838.7708, 356.5941
839.2529, 355.8675
839.7350, 355.4806
840.2171, 355.5199
840.6992, 355.8599
841.1813, 356.8982
841.6635, 357.9588
842.1456, 358.3614
842.6277, 358.0133
843.1098, 357.1665
843.5919, 355.6525
844.0740, 354.1328
844.5562, 353.4201
845.0383, 353.3564
845.5204, 353.5756
846.0025, 354.0745
846.4846, 354.4734
846.9667, 354.3696
847.4489, 354.1142
847.9310, 354.0905
848.4131, 354.6098
848.8952, 354.6050
849.3773, 353.7984
849.8594, 352.8282
850.3416, 352.0630
850.8237, 351.5087
851.3058, 351.5803
851.7879, 352.3296
852.2700, 353.1488
852.7521, 353.7703
853.2343, 354.0522
853.7164, 353.5370
854.1985, 352.1451
854.6806, 351.4184
855.1627, 352.6364
855.6448, 353.9482
856.1270, 354.4148
856.6091, 354.0211
857.0912, 353.5179
857.5733, 352.8339
858.0554, 352.4460
858.5375, 353.1884
859.0197, 354.2780
859.5018, 353.6834
859.9839, 351.6625
860.4660, 349.8506
860.9481, 349.0424
861.4302, 348.7863
861.9124, 348.9432
862.3945, 349.4888
862.8766, 350.1856
863.3587, 351.2285
863.8408, 351.9372
864.3229, 351.9871
864.8051, 351.5972
865.2872, 351.4364
865.7693, 351.4508
866.2514, 351.3239
866.7335, 350.8299
867.2156, 350.2061
867.6978, 349.5022
868.1799, 348.8223
868.6620, 348.3963
869.1441, 348.0532
869.6262, 348.3568
870.1083, 349.7948
870.5905, 351.6090
871.0726, 352.1397
871.5547, 351.4313
872.0368, 350.9140
872.5189, 351.0271
873.0010, 351.2198
873.4832, 350.6930
873.9653, 349.8546
874.4474, 349.3806
874.9295, 349.6242
875.4116, 349.9506
875.8937, 350.3141
876.3759, 350.6246
876.8580, 350.7808
877.3401, 350.7589
877.8222, 350.7114
878.3043, 350.6599
878.7864, 350.5197
879.2686, 349.9839
879.7507, 349.3599
880.2328, 349.3052
880.7149, 349.9750
881.1970, 350.5857
881.6791, 350.8067
882.1613, 350.7904
882.6434, 350.6305
883.1255, 350.3329
883.6076, 349.8943
884.0897, 349.2033
884.5718, 348.7453
885.0540, 349.0672
885.5361, 349.8633
886.0182, 350.0617
886.5003, 349.7323
886.9824, 349.4860
887.4645, 349.6552
887.9467, 350.0501
888.4288, 350.6929
888.9109, 351.5158
889.3930, 351.9986
889.8751, 351.9488
890.3572, 351.9471
890.8394, 352.2607
891.3215, 352.6785
891.8036, 352.4987
892.2857, 351.8309
892.7678, 351.2557
893.2499, 351.0965
893.7321, 351.0558
894.2142, 350.8392
894.6963, 350.5994
895.1784, 350.6298
895.6605, 351.1547
896.1426, 351.7481
896.6248, 352.5065
897.1069, 353.1774
897.5890, 353.2506
898.0711, 352.8048
898.5532, 352.6150
899.0353, 352.8374
899.5175, 353.2421
899.9996, 353.7294
900.4817, 354.2185
900.9638, 354.5429
901.4459, 354.4438
901.9280, 354.9175
902.4102, 356.7055
902.8923, 358.3082
903.3744, 358.3618
903.8565, 356.8124
904.3386, 356.8793
904.8207, 358.6284
905.3029, 360.2580
905.7850, 360.1383
906.2671, 359.2712
906.7492, 358.4177
907.2313, 357.7108
907.7134, 357.8842
908.1956, 360.2107
908.6777, 362.2943
909.1598, 363.3442
909.6419, 363.5197
910.1240, 363.4372
910.6061, 363.0890
911.0883, 363.0663
911.5704, 363.8085
912.0525, 364.7891
912.5346, 365.2983
913.0167, 365.5305
913.4988, 365.9071
913.9810, 366.8072
914.4631, 367.5650
914.9452, 367.8673
915.4273, 368.0814
915.9094, 368.8114
916.3915, 370.1055
916.8737, 371.2237
917.3558, 372.0797
917.8379, 372.6541
918.3200, 372.5169
918.8021, 372.2458
919.2842, 372.8077
919.7664, 374.5874
920.2485, 376.2084
920.7306, 377.3076
921.2127, 378.0400
921.6948, 378.3065
922.1769, 378.0187
922.6591, 378.8057
923.1412, 380.7862
923.6233, 382.6654
924.1054, 383.3038
924.5875, 383.4391
925.0696, 384.1436
925.5518, 385.3505
926.0339, 386.5248
926.5160, 387.6786
926.9981, 388.4778
927.4802, 388.6097
927.9623, 388.3691
928.4445, 384.3011
928.9266, 387.9402
929.4087, 390.2024
929.8908, 391.1615
930.3729, 386.9151
930.8550, 389.3905
931.3372, 389.1723
931.8193, 388.8434
932.3014, 392.2650
932.7835, 388.7756
933.2656, 392.1378
933.7477, 392.7648
934.2299, 394.6438
934.7120, 393.8121
935.1941, 393.8177
935.6762, 396.5346
936.1583, 397.7502
936.6404, 396.6064
937.1226, 398.5650
937.6047, 394.9809
938.0868, 399.1859
938.5689, 399.8529
939.0510, 399.3939
939.5331, 399.0049
940.0153, 399.2657
940.4974, 400.0116
940.9795, 400.1658
941.4616, 399.7223
941.9437, 398.8181
942.4258, 397.1540
942.9080, 395.4876
943.3901, 395.0265
943.8722, 395.2564
944.3543, 395.0732
944.8364, 393.4329
945.3185, 392.3351
945.8007, 392.4140
946.2828, 392.8318
946.7649, 392.3349
947.2470, 390.9583
947.7291, 390.0037
948.2112, 389.6732
948.6934, 389.5449
949.1755, 389.5152
949.6576, 389.2885
950.1397, 388.3348
950.6218, 386.3544
951.1039, 385.1815
951.5861, 385.7507
952.0682, 386.1100
952.5503, 385.1583
953.0324, 383.1346
953.5145, 381.5680
953.9966, 380.4664
954.4788, 379.8121
954.9609, 379.8885
955.4430, 380.1354
955.9251, 380.0946
956.4072, 379.8735
956.8893, 379.7679
957.3715, 379.8615
957.8536, 380.0043
958.3357, 380.1734
958.8178, 380.3859
959.2999, 380.7847
959.7820, 381.2729
960.2642, 381.4678
960.7463, 381.3340
961.2284, 380.6721
961.7105, 378.4304
962.1926, 376.1987
962.6747, 375.5612
963.1569, 377.0862
963.6390, 377.9273
964.1211, 377.8833
964.6032, 377.7198
965.0853, 377.9851
965.5674, 378.4722
966.0496, 378.5024
966.5317, 378.1699
967.0138, 377.9155
967.4959, 377.7888
967.9780, 378.0006
968.4601, 379.0329
968.9423, 380.4117
969.4244, 380.9768
969.9065, 380.4919
970.3886, 380.1870
970.8707, 380.2253
971.3528, 380.6423
971.8350, 382.0912
972.3171, 383.7721
972.7992, 383.9693
973.2813, 381.8912
973.7634, 380.5633
974.2455, 381.6507
974.7277, 383.3877
975.2098, 384.8161
975.6919, 385.9359
976.1740, 386.4054
976.6561, 386.1703
977.1382, 386.4420
977.6204, 388.6164
978.1025, 391.2537
978.5846, 392.5061
979.0667, 392.7621
979.5488, 393.2305
980.0309, 394.2772
980.5131, 395.6139
980.9952, 397.5044
981.4773, 399.3289
981.9594, 399.7654
982.4415, 399.0245
982.9236, 398.9216
983.4058, 399.8179
983.8879, 401.1125
984.3700, 402.7998
984.8521, 404.3187
985.3342, 404.8737
985.8163, 403.9477
986.2985, 404.5652
986.7806, 407.4251
987.2627, 410.2875
987.7448, 411.9628
988.2269, 412.7970
988.7090, 413.6561
989.1912, 414.5900
989.6733, 415.7892
990.1554, 417.6718
990.6375, 419.5151
991.1196, 420.4897
991.6017, 421.3717
992.0839, 423.5700
992.5660, 427.4751
993.0481, 430.9415
993.5302, 433.6837
994.0123, 436.1591
994.4944, 438.9605
994.9766, 441.8091
995.4587, 444.0106
995.9408, 445.3734
996.4229, 447.5703
996.9050, 452.0697
997.3871, 456.5364
997.8693, 459.7324
998.3514, 462.0334
998.8335, 465.5787
999.3156, 470.3074
999.7977, 475.5405
1000.280, 481.5115
1000.762, 487.0477
1001.244, 490.2808
1001.726, 492.5408
1002.208, 496.1066
1002.690, 502.1379
1003.173, 508.2491
1003.655, 514.2545
1004.137, 520.5042
1004.619, 527.4547
1005.101, 534.9325
1005.583, 541.6991
1006.065, 547.8176
1006.547, 554.5188
1007.029, 562.3370
1007.512, 571.2326
1007.994, 581.4426
1008.476, 592.7950
1008.958, 604.3446
1009.440, 616.0281
1009.922, 628.2591
1010.404, 641.2254
1010.886, 654.5950
1011.369, 667.6716
1011.851, 681.0618
1012.333, 695.9067
1012.815, 713.2601
1013.297, 730.7145
1013.779, 747.2625
1014.261, 764.7047
1014.743, 784.2952
1015.225, 806.1322
1015.708, 828.8671
1016.190, 852.5077
1016.672, 877.1391
1017.154, 903.1835
1017.636, 929.5483
1018.118, 955.4264
1018.600, 980.8017
1019.082, 1006.396
1019.565, 1032.580
1020.047, 1057.683
1020.529, 1081.573
1021.011, 1104.029
1021.493, 1124.873
1021.975, 1144.381
1022.457, 1163.184
1022.939, 1181.411
1023.421, 1198.625
1023.904, 1214.854
1024.386, 1229.691
1024.868, 1243.081
1025.350, 1255.145
1025.832, 1267.485
1026.314, 1280.081
1026.796, 1290.397
1027.278, 1297.749
1027.760, 1301.702
1028.243, 1303.908
1028.725, 1301.916
1029.207, 1291.381
1029.689, 1268.020
1030.171, 1241.594
1030.653, 1212.421
1031.135, 1179.599
1031.617, 1141.054
1032.100, 1098.547
1032.582, 1054.041
1033.064, 1007.828
1033.546, 963.6030
1034.028, 922.3499
1034.510, 883.8856
1034.992, 848.5091
1035.474, 815.7086
1035.957, 786.2034
1036.439, 759.6914
1036.921, 735.4114
1037.403, 713.0051
1037.885, 692.6600
1038.367, 675.3505
1038.849, 659.9697
1039.331, 645.5150
1039.813, 631.2804
1040.296, 619.6432
1040.778, 611.4990
1041.260, 604.2223
1041.742, 596.4553
1042.224, 588.4840
1042.706, 581.4841
1043.188, 575.4241
1043.670, 569.8078
1044.152, 565.2606
1044.635, 560.1989
1045.117, 553.5673
1045.599, 546.3098
1046.081, 539.6671
1046.563, 533.6468
1047.045, 527.5458
1047.527, 521.2938
1048.009, 515.2037
1048.492, 510.1583
1048.974, 505.1004
1049.456, 498.6144
1049.938, 490.7755
1050.420, 483.7000
1050.902, 477.7419
1051.384, 471.9656
1051.866, 465.9297
1052.349, 460.2682
1052.831, 456.2827
1053.313, 453.6606
1053.795, 451.7901
1054.277, 450.9130
1054.759, 449.2122
1055.241, 444.5232
1055.723, 439.9098
1056.205, 437.5179
1056.688, 437.2745
1057.170, 436.3419
1057.652, 434.7137
1058.134, 432.8669
1058.616, 430.7256
1059.098, 428.8163
1059.580, 427.6448
1060.062, 427.0556
1060.544, 426.7607
1061.027, 426.5100
1061.509, 427.0073
1061.991, 428.3866
1062.473, 430.1945
1062.955, 432.3307
1063.437, 434.4567
1063.919, 435.6030
1064.401, 435.8511
1064.884, 436.4141
1065.366, 437.7231
1065.848, 439.5755
1066.330, 441.8555
1066.812, 444.5759
1067.294, 448.0287
1067.776, 452.0752
1068.258, 455.2738
1068.740, 457.0463
1069.223, 459.4423
1069.705, 464.8421
1070.187, 471.0564
1070.669, 476.1555
1071.151, 479.9922
1071.633, 484.4492
1072.115, 489.8319
1072.597, 494.4271
1073.079, 496.9091
1073.562, 498.9432
1074.044, 503.6317
1074.526, 509.6285
1075.008, 514.5083
1075.490, 516.7672
1075.972, 519.2023
1076.454, 522.1590
1076.936, 525.1741
1077.419, 528.6231
1077.901, 531.8986
1078.383, 532.0800
1078.865, 529.3395
1079.347, 525.1141
1079.829, 519.2535
1080.311, 513.1234
1080.793, 507.6484
1081.275, 502.1306
1081.758, 495.2414
1082.240, 486.8149
1082.722, 479.1457
1083.204, 472.5663
1083.686, 465.9471
1084.168, 457.6306
1084.650, 449.0974
1085.132, 441.7015
1085.615, 435.5502
1086.097, 429.6305
1086.579, 423.8903
1087.061, 418.4255
1087.543, 413.2936
1088.025, 408.5509
1088.507, 404.3843
1088.989, 400.7704
1089.471, 397.7730
1089.953, 395.6373
1090.436, 393.2269
1090.918, 389.9738
1091.400, 386.8036
1091.882, 384.0777
1092.364, 381.8085
1092.846, 380.1228
1093.328, 378.9818
1093.810, 378.1724
1094.293, 378.0785
1094.775, 377.6273
1095.257, 375.7937
1095.739, 373.6767
1096.221, 372.4936
1096.703, 372.3615
1097.185, 372.1702
1097.667, 371.9010
1098.150, 371.4749
1098.632, 370.7739
1099.114, 369.9464
1099.596, 369.0062
1100.078, 368.0384
1100.560, 367.2987
1101.042, 366.8487
1101.524, 366.4514
1102.006, 366.0507
1102.489, 365.7806
1102.971, 366.1343
1103.453, 366.5449
1103.935, 365.9874
1104.417, 364.4018
1104.899, 362.9869
1105.381, 361.8330
1105.863, 361.2506
1106.345, 361.5920
1106.828, 362.2332
1107.310, 361.4483
1107.792, 359.8392
1108.274, 359.4463
1108.756, 361.0619
1109.238, 362.3771
1109.720, 361.8513
1110.202, 361.1093
1110.685, 361.1163
1111.167, 361.7353
1111.649, 362.0297
1112.131, 361.9959
1112.613, 361.5315
1113.095, 360.1671
1113.577, 359.1107
1114.059, 359.6139
1114.542, 360.6978
1115.024, 361.0943
1115.506, 360.4533
1115.988, 361.0479
1116.470, 363.0573
1116.952, 364.4829
1117.434, 363.4159
1117.916, 361.5233
1118.398, 360.2352
1118.880, 359.6005
1119.363, 359.7783
1119.845, 361.3733
1120.327, 362.4924
1120.809, 363.0119
1121.291, 363.0313
1121.773, 362.2898
1122.255, 361.2803
1122.737, 361.0892
1123.220, 361.5862
1123.702, 361.5676
1124.184, 359.7418
1124.666, 358.6205
1125.148, 358.8282
1125.630, 359.6638
1126.112, 360.0819
1126.594, 360.1930
1127.077, 360.3245
1127.559, 360.5260
1128.041, 360.7222
1128.523, 361.0500
1129.005, 361.1514
1129.487, 360.7369
1129.969, 360.0653
1130.451, 359.9870
1130.933, 360.4300
1131.416, 360.9089
1131.898, 361.3794
1132.380, 361.5145
1132.862, 360.7477
1133.344, 359.8264
1133.826, 359.2637
1134.308, 359.0662
1134.790, 359.4945
1135.272, 360.5695
1135.755, 361.3664
1136.237, 361.3750
1136.719, 361.2168
1137.201, 361.4627
1137.683, 361.8958
1138.165, 362.2240
1138.647, 362.3698
1139.129, 362.8072
1139.612, 363.6540
1140.094, 364.0295
1140.576, 363.0431
1141.058, 361.5596
1141.540, 360.2235
1142.022, 359.3137
1142.504, 359.4730
1142.986, 361.8979
1143.469, 363.1796
1143.951, 362.9272
1144.433, 362.5091
1144.915, 363.3917
1145.397, 364.7855
1145.879, 365.2062
1146.361, 364.8067
1146.843, 364.3894
1147.325, 363.9640
1147.807, 363.9117
1148.290, 364.3125
1148.772, 365.0269
1149.254, 366.1613
1149.736, 367.4160
1150.218, 367.9913
1150.700, 367.8704
1151.182, 367.5818
1151.664, 366.9596
1152.147, 366.7139
1152.629, 367.0437
1153.111, 367.8175
1153.593, 369.2090
1154.075, 370.8623
1154.557, 371.1019
1155.039, 369.5856
1155.521, 368.3399
1156.004, 368.7152
1156.486, 369.4015
1156.968, 369.8573
1157.450, 370.0914
1157.932, 370.0033
1158.414, 369.6724
1158.896, 369.7687
1159.378, 370.6049
1159.860, 371.1559
1160.343, 370.4746
1160.825, 369.4940
1161.307, 368.9073
1161.789, 368.6440
1162.271, 368.0550
1162.753, 367.1541
1163.235, 366.2685
1163.717, 365.4872
1164.199, 364.8095
1164.682, 364.3902
1165.164, 363.9739
1165.646, 363.1656
1166.128, 361.8984
1166.610, 361.6406
1167.092, 362.4312
1167.574, 363.1316
1168.056, 363.0908
1168.539, 362.8545
1169.021, 363.1357
1169.503, 363.4300
1169.985, 362.8970
1170.467, 361.2063
1170.949, 360.1931
1171.431, 359.8987
1171.913, 360.0307
1172.396, 360.8680
1172.878, 361.6274
1173.360, 361.2005
1173.842, 360.1747
1174.324, 359.7319
1174.806, 360.3257
1175.288, 360.4877
1175.770, 360.1342
1176.252, 359.5946
1176.734, 358.7409
1177.217, 358.1257
1177.699, 358.8619
1178.181, 360.4023
1178.663, 361.0805
1179.145, 360.2596
1179.627, 359.5940
1180.109, 359.2033
1180.591, 358.9698
1181.074, 358.7414
1181.556, 358.6380
1182.038, 358.9898
1182.520, 359.6704
1183.002, 359.9983
1183.484, 359.6771
1183.966, 359.4539
1184.448, 359.4331
1184.931, 359.5083
1185.413, 359.6047
1185.895, 359.6928
1186.377, 359.7095
1186.859, 359.6588
1187.341, 359.6104
1187.823, 359.4843
1188.305, 359.5802
1188.787, 360.0775
1189.270, 360.4964
1189.752, 359.8647
1190.234, 358.8291
1190.716, 358.5615
1191.198, 359.1615
1191.680, 359.7614
1192.162, 360.2825
1192.644, 360.5990
1193.126, 360.6673
1193.609, 360.5543
1194.091, 360.2580
1194.573, 359.9035
1195.055, 359.6836
1195.537, 359.6239
1196.019, 359.8587
1196.501, 360.6627
1196.983, 361.2926
1197.466, 361.4502
1197.948, 361.4422
1198.430, 362.2573
1198.912, 363.2059
1199.394, 362.4950
1199.876, 359.4032
1200.358, 357.8664
1200.840, 359.4809
1201.323, 361.2731
1201.805, 362.3110
1202.287, 362.7040
1202.769, 362.4262
1203.251, 361.7251
1203.733, 361.0854
1204.215, 360.5663
1204.697, 360.3800
1205.179, 360.8047
1205.661, 361.0773
1206.144, 360.8011
1206.626, 360.2393
1207.108, 359.8742
1207.590, 359.7118
1208.072, 359.8277
1208.554, 360.4135
1209.036, 360.6320
1209.518, 360.0309
1210.001, 359.7184
1210.483, 360.4004
1210.965, 361.6004
1211.447, 362.2047
1211.929, 362.3993
1212.411, 362.5956
1212.893, 362.8329
1213.375, 363.3106
1213.858, 364.2658
1214.340, 364.9820
1214.822, 364.9958
1215.304, 364.5482
1215.786, 364.1449
1216.268, 363.7586
1216.750, 363.3319
1217.232, 362.8068
1217.714, 362.2823
1218.197, 361.5277
1218.679, 361.3004
1219.161, 362.4257
1219.643, 364.1583
1220.125, 365.1411
1220.607, 365.4324
1221.089, 365.1575
1221.571, 363.8201
1222.053, 362.9328
1222.536, 362.6908
1223.018, 362.5622
1223.500, 361.9283
1223.982, 361.3317
1224.464, 362.3433
1224.946, 364.1850
1225.428, 365.0797
1225.910, 363.5659
1226.393, 362.6832
1226.875, 362.6339
1227.357, 362.7397
1227.839, 362.5192
1228.321, 362.1280
1228.803, 361.6233
1229.285, 361.1797
1229.767, 361.2202
1230.250, 362.1922
1230.732, 363.0152
1231.214, 363.7430
1231.696, 364.0718
1232.178, 363.4562
1232.660, 362.5335
1233.142, 362.0482
1233.624, 361.9740
1234.106, 362.2970
1234.589, 363.3507
1235.071, 363.8662
1235.553, 363.7654
1236.035, 363.3983
1236.517, 362.7608
1236.999, 362.2271
1237.481, 362.4873
1237.963, 363.1360
1238.445, 363.1721
1238.928, 362.1921
1239.410, 361.8321
1239.892, 362.1870
1240.374, 362.7385
1240.856, 363.4044
1241.338, 363.7936
1241.820, 363.1657
1242.302, 362.1168
1242.785, 361.9575
1243.267, 362.9879
1243.749, 363.4984
1244.231, 363.4155
1244.713, 363.1090
1245.195, 362.7001
1245.677, 362.3222
1246.159, 361.9846
1246.641, 361.8037
1247.124, 362.0301
1247.606, 362.7305
1248.088, 362.9420
1248.570, 362.6287
1249.052, 362.3853
1249.534, 362.5645
1250.016, 362.9781
1250.498, 363.9004
1250.980, 364.7437
1251.463, 364.6482
1251.945, 363.6262
1252.427, 362.7517
1252.909, 362.0629
1253.391, 361.4539
1253.873, 360.4072
1254.355, 360.0154
1254.837, 361.6200
1255.320, 363.3764
1255.802, 362.7111
1256.284, 360.2007
1256.766, 359.7731
1257.248, 361.3033
1257.730, 362.6999
1258.212, 362.9516
1258.694, 362.7626
1259.177, 361.9532
1259.659, 361.3511
1260.141, 362.1483
1260.623, 363.8264
1261.105, 364.6497
1261.587, 364.6754
1262.069, 364.4958
1262.551, 364.3912
1263.033, 363.9559
1263.516, 362.9350
1263.998, 362.0285
1264.480, 362.2596
1264.962, 362.9471
1265.444, 362.3753
1265.926, 360.9496
1266.408, 360.2802
1266.890, 361.1591
1267.372, 362.2552
1267.855, 363.6475
1268.337, 364.7584
1268.819, 365.0656
1269.301, 364.8238
1269.783, 364.1158
1270.265, 363.1764
1270.747, 362.6149
1271.229, 362.5147
1271.712, 362.7343
1272.194, 363.3269
1272.676, 363.7786
1273.158, 363.5527
1273.640, 363.1281
1274.122, 362.6469
1274.604, 362.4128
1275.086, 363.1147
1275.568, 365.0595
1276.051, 365.7642
1276.533, 365.1570
1277.015, 364.3872
1277.497, 363.8455
1277.979, 363.7868
1278.461, 365.1995
1278.943, 366.6285
1279.425, 365.9941
1279.907, 363.3522
1280.390, 362.1689
1280.872, 362.3874
1281.354, 363.0547
1281.836, 364.3093
1282.318, 365.0493
1282.800, 364.5426
1283.282, 363.7422
1283.764, 363.3877
1284.247, 363.4263
1284.729, 363.7815
1285.211, 364.3294
1285.693, 364.6166
1286.175, 363.9252
1286.657, 363.8375
1287.139, 364.8253
1287.621, 365.7705
1288.104, 365.8141
1288.586, 365.2148
1289.068, 364.0742
1289.550, 362.8040
1290.032, 362.3761
1290.514, 363.9513
1290.996, 364.5208
1291.478, 363.8340
1291.960, 363.2071
1292.443, 363.7480
1292.925, 364.5178
1293.407, 364.0087
1293.889, 363.0707
1294.371, 363.3086
1294.853, 365.1564
1295.335, 365.9141
1295.817, 365.5674
1296.299, 364.7669
1296.782, 363.2806
1297.264, 362.3572
1297.746, 363.5663
1298.228, 365.3335
1298.710, 366.0678
1299.192, 365.8417
1299.674, 365.7539
1300.156, 365.7578
1300.639, 365.4481
1301.121, 364.3111
1301.603, 363.6665
1302.085, 364.7651
1302.567, 365.9917
1303.049, 366.6338
1303.531, 366.6232
##END=



