##NAMES=Veatchite
##RRUFFID=R060348
##IDEAL CHEMISTRY=Sr_2_[B_5_O_8_(OH)]_2_B(OH)_3_&#183;H_2_O
##LOCALITY=1360' level, 2S Drift, Billie mine, Death Valley, Inyo County, California, USA
##OWNER=RRUFF
##SOURCE=Michael Scott
##DESCRIPTION=Transparent white fibrous and platy mass
##STATUS=The identification of this mineral is confirmed by single-crystal X-ray diffraction and chemical analysis.
##URL=rruff.info/R060348
##MEASURED CHEMISTRY=(Sr_1.98_Ca_0.02_)_Σ=2_[B_5_O_8_(OH)]_2_B(OH)_3_·H_2_O; B and H not measured but assumed by stoichiometry
129.5436, 15.04685
130.0258, 16.76871
130.5079, 20.10294
130.9900, 21.65116
131.4721, 21.40172
131.9542, 21.10059
132.4363, 22.49738
132.9185, 25.33964
133.4006, 27.82935
133.8827, 29.15263
134.3648, 29.80148
134.8469, 32.03170
135.3290, 36.19607
135.8112, 40.40667
136.2933, 42.03635
136.7754, 40.89790
137.2575, 40.26249
137.7396, 41.32454
138.2217, 44.02222
138.7039, 46.81438
139.1860, 49.69597
139.6681, 52.68821
140.1502, 55.64248
140.6323, 58.17668
141.1144, 61.85604
141.5966, 67.87042
142.0787, 77.16528
142.5608, 84.39133
143.0429, 89.24525
143.5250, 92.20423
144.0071, 94.09689
144.4893, 94.27770
144.9714, 94.41360
145.4535, 95.16531
145.9356, 96.37676
146.4177, 98.61659
146.8998, 102.5914
147.3820, 107.6941
147.8641, 111.5086
148.3462, 112.8487
148.8283, 113.9691
149.3104, 116.0756
149.7925, 119.5276
150.2747, 123.5066
150.7568, 128.4024
151.2389, 134.0729
151.7210, 138.7224
152.2031, 140.5090
152.6852, 142.3441
153.1674, 146.0609
153.6495, 154.5827
154.1316, 161.9820
154.6137, 166.9897
155.0958, 169.5448
155.5779, 172.3922
156.0601, 176.4540
156.5422, 180.6797
157.0243, 184.1218
157.5064, 186.1338
157.9885, 187.7942
158.4706, 189.7988
158.9528, 192.3944
159.4349, 193.3349
159.9170, 189.6985
160.3991, 184.7942
160.8812, 182.4472
161.3633, 186.6485
161.8455, 191.3239
162.3276, 193.3393
162.8097, 191.6382
163.2918, 190.9863
163.7739, 194.4677
164.2560, 199.8432
164.7382, 202.6812
165.2203, 200.7459
165.7024, 198.7889
166.1845, 199.9254
166.6666, 205.5373
167.1487, 210.8625
167.6309, 212.6699
168.1130, 212.3329
168.5951, 212.7129
169.0772, 216.6746
169.5593, 221.1259
170.0414, 223.1008
170.5236, 221.1096
171.0057, 218.9426
171.4878, 219.9259
171.9699, 223.1145
172.4520, 225.6246
172.9341, 225.0419
173.4163, 223.1986
173.8984, 222.3444
174.3805, 223.4443
174.8626, 224.8446
175.3447, 224.5648
175.8268, 223.0059
176.3090, 222.0473
176.7911, 223.4139
177.2732, 226.1288
177.7553, 228.6775
178.2374, 230.8706
178.7195, 232.5276
179.2017, 233.0598
179.6838, 232.5947
180.1659, 232.3033
180.6480, 233.1419
181.1301, 234.8308
181.6122, 236.7952
182.0944, 239.1766
182.5765, 241.5172
183.0586, 243.0459
183.5407, 243.7470
184.0228, 244.0528
184.5049, 244.0533
184.9871, 243.8940
185.4692, 244.1147
185.9513, 245.0314
186.4334, 246.3783
186.9155, 247.7631
187.3976, 249.2246
187.8798, 250.2196
188.3619, 250.0497
188.8440, 248.8389
189.3261, 247.3588
189.8082, 245.6596
190.2903, 243.8866
190.7725, 242.5774
191.2546, 241.7516
191.7367, 241.1926
192.2188, 240.5564
192.7009, 239.8582
193.1830, 239.5585
193.6652, 240.3211
194.1473, 241.8035
194.6294, 241.4321
195.1115, 238.7898
195.5936, 235.6904
196.0757, 234.7013
196.5579, 235.8871
197.0400, 237.1768
197.5221, 237.5591
198.0042, 237.1358
198.4863, 237.9030
198.9684, 240.4022
199.4506, 242.8861
199.9327, 242.3340
200.4148, 238.4267
200.8969, 234.4706
201.3790, 231.5236
201.8611, 229.5931
202.3433, 229.0661
202.8254, 230.3632
203.3075, 232.3844
203.7896, 233.3027
204.2717, 233.0263
204.7538, 232.1574
205.2360, 230.5836
205.7181, 228.0969
206.2002, 226.9578
206.6823, 227.6075
207.1644, 229.0675
207.6465, 229.4758
208.1287, 228.5891
208.6108, 227.5112
209.0929, 226.5155
209.5750, 225.4240
210.0571, 225.5716
210.5392, 227.5232
211.0214, 230.2112
211.5035, 231.2360
211.9856, 230.0192
212.4677, 228.7385
212.9498, 228.5862
213.4319, 230.0861
213.9140, 230.4436
214.3962, 229.2895
214.8783, 227.1975
215.3604, 225.3172
215.8425, 223.2752
216.3246, 222.2256
216.8067, 223.0791
217.2889, 226.7913
217.7710, 228.9767
218.2531, 229.0382
218.7352, 227.8044
219.2173, 227.3717
219.6994, 228.3070
220.1816, 228.9501
220.6637, 228.3052
221.1458, 225.4461
221.6279, 224.0679
222.1100, 224.8102
222.5921, 226.8251
223.0743, 227.8909
223.5564, 227.6324
224.0385, 227.0845
224.5206, 226.5491
225.0027, 225.5306
225.4848, 225.9889
225.9670, 228.8603
226.4491, 232.9245
226.9312, 234.8643
227.4133, 233.5809
227.8954, 231.9297
228.3775, 231.2991
228.8597, 232.2599
229.3418, 232.7828
229.8239, 232.6824
230.3060, 232.1660
230.7881, 231.8081
231.2702, 231.6270
231.7524, 231.5549
232.2345, 231.5012
232.7166, 231.1975
233.1987, 231.6178
233.6808, 233.3830
234.1629, 235.7099
234.6451, 236.3493
235.1272, 234.0904
235.6093, 231.9515
236.0914, 231.2346
236.5735, 232.2522
237.0556, 234.1389
237.5378, 237.8061
238.0199, 242.0898
238.5020, 243.8791
238.9841, 241.9143
239.4662, 239.3598
239.9483, 237.3329
240.4305, 235.3015
240.9126, 235.2284
241.3947, 238.1982
241.8768, 242.7817
242.3589, 245.3940
242.8410, 245.1072
243.3232, 244.2664
243.8053, 243.8503
244.2874, 244.1646
244.7695, 244.1530
245.2516, 243.7704
245.7337, 243.0813
246.2159, 242.1296
246.6980, 240.4283
247.1801, 239.2379
247.6622, 239.2309
248.1443, 241.1811
248.6264, 242.1200
249.1086, 241.7650
249.5907, 240.5530
250.0728, 239.2689
250.5549, 237.5443
251.0370, 236.3716
251.5191, 236.3120
252.0013, 237.9230
252.4834, 238.6925
252.9655, 238.0835
253.4476, 236.9423
253.9297, 236.9561
254.4118, 238.8247
254.8940, 240.5396
255.3761, 241.4718
255.8582, 241.6318
256.3403, 240.7429
256.8224, 237.8840
257.3046, 234.6814
257.7867, 234.2600
258.2688, 238.2786
258.7509, 241.5715
259.2330, 242.1794
259.7151, 239.5536
260.1973, 237.4595
260.6794, 235.7219
261.1615, 234.7303
261.6436, 235.4001
262.1257, 238.6649
262.6078, 241.3162
263.0900, 242.1786
263.5721, 241.0335
264.0542, 240.2559
264.5363, 239.7657
265.0184, 239.7214
265.5005, 240.3894
265.9827, 241.9339
266.4648, 243.6945
266.9469, 245.5337
267.4290, 247.4454
267.9111, 249.3037
268.3932, 251.1865
268.8754, 252.8686
269.3575, 253.8886
269.8396, 253.9023
270.3217, 254.5464
270.8038, 256.1772
271.2859, 258.7995
271.7681, 262.5302
272.2502, 267.9779
272.7323, 273.2775
273.2144, 275.9882
273.6965, 275.5109
274.1786, 275.8315
274.6608, 278.1022
275.1429, 281.9734
275.6250, 284.9024
276.1071, 286.6779
276.5892, 288.1148
277.0714, 289.6344
277.5535, 291.1364
278.0356, 293.7760
278.5177, 298.1400
278.9998, 303.7137
279.4819, 308.1458
279.9641, 311.1812
280.4462, 314.3322
280.9283, 318.8858
281.4104, 324.8387
281.8925, 331.1425
282.3746, 337.7090
282.8568, 344.4715
283.3389, 351.1439
283.8210, 357.6734
284.3031, 364.5163
284.7852, 371.5666
285.2673, 378.8522
285.7495, 388.5647
286.2316, 401.9294
286.7137, 416.4482
287.1958, 427.5336
287.6779, 435.1824
288.1600, 439.2502
288.6422, 439.1711
289.1243, 435.1546
289.6064, 428.9049
290.0885, 420.3809
290.5706, 410.0224
291.0527, 398.2585
291.5349, 385.1347
292.0170, 371.1761
292.4991, 355.6564
292.9812, 339.3791
293.4633, 326.2069
293.9454, 316.6476
294.4276, 308.4962
294.9097, 298.2220
295.3918, 286.4772
295.8739, 276.9442
296.3560, 273.1405
296.8381, 272.6784
297.3203, 269.5468
297.8024, 263.3263
298.2845, 257.2938
298.7666, 255.6330
299.2487, 257.1609
299.7308, 258.1918
300.2130, 256.4283
300.6951, 253.5399
301.1772, 252.3846
301.6593, 252.9593
302.1414, 253.8879
302.6235, 254.2274
303.1057, 254.0437
303.5878, 253.4214
304.0699, 251.9117
304.5520, 250.3584
305.0341, 249.9234
305.5162, 250.4905
305.9984, 251.0607
306.4805, 250.8955
306.9626, 250.2903
307.4447, 249.5985
307.9268, 248.6065
308.4089, 247.9551
308.8911, 248.1016
309.3732, 249.0326
309.8553, 250.7021
310.3374, 254.4639
310.8195, 258.3184
311.3016, 260.0974
311.7838, 258.7986
312.2659, 256.5559
312.7480, 253.5487
313.2301, 250.5655
313.7122, 249.4791
314.1943, 253.7107
314.6765, 258.5216
315.1586, 260.1857
315.6407, 257.2755
316.1228, 254.4179
316.6049, 253.8119
317.0870, 254.7111
317.5692, 255.8853
318.0513, 258.2633
318.5334, 259.7018
319.0155, 258.2943
319.4976, 253.2447
319.9797, 250.0629
320.4619, 252.5874
320.9440, 257.2213
321.4261, 259.9082
321.9082, 258.0258
322.3903, 255.6775
322.8724, 254.1675
323.3546, 253.5661
323.8367, 252.5981
324.3188, 249.6802
324.8009, 247.0341
325.2830, 246.3818
325.7651, 250.5771
326.2473, 253.8287
326.7294, 254.8268
327.2115, 253.8834
327.6936, 253.5035
328.1757, 254.2403
328.6578, 255.2784
329.1400, 256.2306
329.6221, 257.4294
330.1042, 258.0493
330.5863, 257.2993
331.0684, 255.9414
331.5505, 256.2939
332.0327, 259.8117
332.5148, 263.3254
332.9969, 265.7140
333.4790, 266.9164
333.9611, 266.8633
334.4432, 264.3624
334.9254, 261.2893
335.4075, 261.1209
335.8896, 265.4073
336.3717, 269.4778
336.8538, 271.8586
337.3359, 272.4406
337.8180, 272.5219
338.3001, 271.5556
338.7823, 270.9252
339.2644, 272.7840
339.7465, 278.0740
340.2286, 281.6637
340.7107, 281.6660
341.1928, 278.7811
341.6750, 278.0636
342.1571, 279.8648
342.6392, 282.4517
343.1213, 284.8580
343.6034, 287.0804
344.0855, 287.6500
344.5677, 285.6337
345.0498, 282.5244
345.5319, 282.2337
346.0140, 284.8368
346.4961, 288.1019
346.9782, 291.3661
347.4604, 294.3155
347.9425, 294.8846
348.4246, 292.4342
348.9067, 288.9650
349.3888, 286.6882
349.8709, 285.6840
350.3531, 286.3953
350.8352, 290.6102
351.3173, 296.3383
351.7994, 299.6540
352.2815, 300.3047
352.7636, 299.8150
353.2458, 298.7347
353.7279, 297.6099
354.2100, 297.6505
354.6921, 300.4706
355.1742, 303.8765
355.6563, 305.4762
356.1385, 305.3839
356.6206, 304.9311
357.1027, 305.4766
357.5848, 306.0054
358.0669, 305.1500
358.5490, 301.3802
359.0312, 297.8940
359.5133, 297.6837
359.9954, 299.5962
360.4775, 300.0541
360.9596, 294.9061
361.4417, 289.3079
361.9239, 287.1152
362.4060, 290.1479
362.8881, 292.9834
363.3702, 293.7537
363.8523, 293.0216
364.3344, 291.6499
364.8166, 289.5367
365.2987, 287.1162
365.7808, 284.3824
366.2629, 281.2101
366.7450, 278.6670
367.2271, 277.8428
367.7093, 277.2730
368.1914, 275.6711
368.6735, 270.9721
369.1556, 267.3934
369.6377, 265.9691
370.1198, 266.4301
370.6020, 266.6683
371.0841, 267.0312
371.5662, 266.8462
372.0483, 265.6328
372.5304, 262.2242
373.0125, 259.9971
373.4947, 259.4408
373.9768, 259.9699
374.4589, 260.1863
374.9410, 259.8362
375.4231, 259.7085
375.9052, 260.3261
376.3874, 261.9179
376.8695, 262.2830
377.3516, 260.9640
377.8337, 259.1954
378.3158, 258.6595
378.7979, 259.5621
379.2801, 260.0679
379.7622, 259.2789
380.2443, 257.7420
380.7264, 258.2820
381.2085, 261.1686
381.6906, 264.2085
382.1728, 265.5406
382.6549, 265.3631
383.1370, 264.7728
383.6191, 263.7857
384.1012, 262.7644
384.5833, 262.2910
385.0655, 262.3353
385.5476, 262.6421
386.0297, 262.8794
386.5118, 263.3206
386.9939, 264.9048
387.4760, 267.9438
387.9582, 270.4014
388.4403, 269.6924
388.9224, 267.0072
389.4045, 264.8367
389.8866, 264.3016
390.3687, 264.6359
390.8509, 265.5887
391.3330, 267.0600
391.8151, 268.1049
392.2972, 267.2801
392.7793, 266.1523
393.2614, 266.3824
393.7436, 270.0060
394.2257, 272.7452
394.7078, 271.9149
395.1899, 268.7259
395.6720, 266.3546
396.1541, 265.7267
396.6363, 266.2118
397.1184, 267.8466
397.6005, 271.3116
398.0826, 273.7796
398.5647, 273.9351
399.0468, 273.1757
399.5290, 273.1953
400.0111, 274.6627
400.4932, 276.3270
400.9753, 278.0280
401.4574, 279.7723
401.9395, 281.5680
402.4217, 283.9383
402.9038, 285.8242
403.3859, 286.4349
403.8680, 285.2299
404.3501, 283.9110
404.8322, 282.1627
405.3144, 280.5764
405.7965, 281.1184
406.2786, 284.5044
406.7607, 287.6470
407.2428, 289.1425
407.7249, 288.9520
408.2071, 288.3109
408.6892, 287.1373
409.1713, 285.7449
409.6534, 284.5500
410.1355, 283.5412
410.6176, 282.3470
411.0998, 280.6398
411.5819, 278.8081
412.0640, 278.0268
412.5461, 278.2581
413.0282, 278.3565
413.5103, 277.6743
413.9925, 276.2076
414.4746, 273.7081
414.9567, 269.8021
415.4388, 265.8339
415.9209, 262.8749
416.4030, 260.9025
416.8852, 259.7805
417.3673, 259.9768
417.8494, 260.6651
418.3315, 261.2939
418.8136, 261.8274
419.2957, 262.0750
419.7779, 261.7386
420.2600, 261.1397
420.7421, 260.6046
421.2242, 259.6388
421.7063, 259.3644
422.1884, 260.6969
422.6706, 263.1468
423.1527, 264.9106
423.6348, 265.4283
424.1169, 265.2726
424.5990, 264.6236
425.0811, 263.2152
425.5633, 261.9683
426.0454, 261.0646
426.5275, 260.2811
427.0096, 259.2380
427.4917, 257.0209
427.9738, 255.9911
428.4560, 257.0409
428.9381, 260.0545
429.4202, 262.2368
429.9023, 263.5749
430.3844, 264.0669
430.8665, 263.3972
431.3487, 261.2692
431.8308, 259.7510
432.3129, 258.9869
432.7950, 258.9528
433.2771, 259.8430
433.7592, 261.6836
434.2414, 263.5466
434.7235, 265.4969
435.2056, 267.1813
435.6877, 266.6107
436.1698, 263.6059
436.6519, 260.5935
437.1341, 260.0352
437.6162, 261.3976
438.0983, 263.4237
438.5804, 266.3325
439.0625, 268.9596
439.5446, 269.4814
440.0268, 268.4304
440.5089, 267.7462
440.9910, 269.5624
441.4731, 271.6620
441.9552, 271.6466
442.4373, 268.7538
442.9195, 266.5396
443.4016, 266.9066
443.8837, 268.9420
444.3658, 271.5358
444.8479, 275.9865
445.3300, 279.3115
445.8122, 279.7235
446.2943, 277.6445
446.7764, 276.9339
447.2585, 279.1856
447.7406, 282.1435
448.2227, 284.7270
448.7049, 286.7314
449.1870, 288.6806
449.6691, 290.6312
450.1512, 292.4897
450.6333, 294.0677
451.1154, 295.3333
451.5976, 296.3820
452.0797, 297.0308
452.5618, 297.3586
453.0439, 298.5827
453.5260, 300.8028
454.0081, 303.5238
454.4903, 306.4642
454.9724, 309.5963
455.4545, 312.5393
455.9366, 314.9310
456.4187, 317.7191
456.9008, 322.9928
457.3830, 330.4938
457.8651, 337.6005
458.3472, 343.1166
458.8293, 347.5054
459.3114, 351.4243
459.7935, 354.8625
460.2757, 358.6340
460.7578, 364.0965
461.2399, 370.0429
461.7220, 375.0884
462.2041, 380.2147
462.6862, 382.1418
463.1684, 376.9738
463.6505, 366.9286
464.1326, 357.2501
464.6147, 349.7112
465.0968, 343.2845
465.5789, 337.7532
466.0611, 333.1435
466.5432, 328.8304
467.0253, 324.3250
467.5074, 320.2979
467.9895, 317.3293
468.4716, 315.7295
468.9538, 314.7767
469.4359, 314.3815
469.9180, 314.6012
470.4001, 315.7872
470.8822, 318.5877
471.3643, 321.1800
471.8465, 322.4937
472.3286, 322.2514
472.8107, 323.8168
473.2928, 327.4500
473.7749, 332.1918
474.2570, 337.4596
474.7392, 343.2443
475.2213, 347.5115
475.7034, 349.1171
476.1855, 349.8125
476.6676, 354.2177
477.1497, 361.8482
477.6319, 367.9477
478.1140, 369.1859
478.5961, 367.2496
479.0782, 365.1558
479.5603, 363.2025
480.0424, 359.6192
480.5246, 351.4019
481.0067, 341.0560
481.4888, 332.0903
481.9709, 325.4968
482.4530, 320.6093
482.9352, 317.2863
483.4173, 315.4281
483.8994, 314.7217
484.3815, 317.6447
484.8636, 319.5776
485.3457, 317.5565
485.8279, 309.6983
486.3100, 304.3090
486.7921, 303.1764
487.2742, 304.2329
487.7563, 305.8443
488.2384, 308.9071
488.7206, 310.9031
489.2027, 310.9272
489.6848, 309.7845
490.1669, 310.4370
490.6490, 313.2585
491.1311, 316.7357
491.6133, 320.3657
492.0954, 324.1552
492.5775, 327.1870
493.0596, 329.2950
493.5417, 331.2932
494.0238, 334.2282
494.5060, 337.8881
494.9881, 341.1988
495.4702, 343.7115
495.9523, 345.9934
496.4344, 349.7042
496.9165, 354.1127
497.3987, 356.4663
497.8808, 353.8877
498.3629, 349.3437
498.8450, 346.1764
499.3271, 344.7350
499.8092, 341.4932
500.2914, 332.3010
500.7735, 321.4932
501.2556, 312.9394
501.7377, 308.7992
502.2198, 305.6918
502.7019, 303.2230
503.1841, 301.2604
503.6662, 299.4235
504.1483, 297.8438
504.6304, 296.1707
505.1125, 294.1340
505.5946, 291.6306
506.0768, 290.0749
506.5589, 289.6849
507.0410, 289.9478
507.5231, 290.6242
508.0052, 291.8410
508.4873, 292.7404
508.9695, 293.4002
509.4516, 293.4137
509.9337, 291.4168
510.4158, 287.5451
510.8979, 284.3940
511.3800, 283.5536
511.8622, 284.0428
512.3443, 283.2547
512.8264, 281.3010
513.3085, 280.1782
513.7906, 282.9929
514.2728, 286.9503
514.7549, 288.0373
515.2370, 284.6065
515.7191, 280.9713
516.2012, 280.0742
516.6833, 280.6765
517.1655, 280.8552
517.6476, 279.1903
518.1297, 277.8015
518.6118, 278.0780
519.0939, 279.7607
519.5760, 279.7825
520.0582, 275.2639
520.5403, 271.1806
521.0224, 269.8838
521.5045, 272.6820
521.9866, 274.3632
522.4688, 274.4753
522.9509, 273.9641
523.4330, 274.0952
523.9151, 275.0722
524.3972, 275.5255
524.8793, 275.0268
525.3615, 273.9329
525.8436, 273.1402
526.3257, 272.6427
526.8078, 272.2243
527.2899, 271.2609
527.7720, 270.3637
528.2542, 271.4929
528.7363, 274.8038
529.2184, 277.6700
529.7005, 276.8764
530.1826, 274.5695
530.6647, 273.7793
531.1469, 276.2880
531.6290, 278.9141
532.1111, 279.9732
532.5932, 279.8677
533.0753, 279.4193
533.5574, 278.4361
534.0396, 277.5618
534.5217, 276.9060
535.0038, 276.4704
535.4859, 276.6176
535.9680, 277.8093
536.4501, 279.1247
536.9323, 280.1274
537.4144, 281.0335
537.8965, 280.8850
538.3786, 279.1930
538.8607, 277.0834
539.3428, 276.4126
539.8250, 277.2866
540.3071, 278.1227
540.7892, 278.5330
541.2713, 278.5672
541.7534, 278.0385
542.2355, 277.0338
542.7177, 276.4621
543.1998, 277.1562
543.6819, 278.5584
544.1640, 279.9865
544.6461, 281.4156
545.1282, 282.3573
545.6104, 281.9748
546.0925, 281.1011
546.5746, 280.6319
547.0567, 280.4448
547.5388, 281.2008
548.0209, 284.3293
548.5031, 288.4962
548.9852, 290.8367
549.4673, 288.4614
549.9494, 286.8271
550.4315, 287.7744
550.9136, 291.2868
551.3958, 293.2197
551.8779, 293.1235
552.3600, 292.2053
552.8421, 290.7971
553.3242, 288.6743
553.8063, 288.4325
554.2885, 290.5370
554.7706, 293.5423
555.2527, 295.5533
555.7348, 296.7156
556.2169, 297.9105
556.6990, 299.2751
557.1812, 300.9425
557.6633, 303.9102
558.1454, 307.5763
558.6275, 309.6794
559.1096, 306.9380
559.5917, 303.4500
560.0739, 302.9810
560.5560, 305.8309
561.0381, 308.2905
561.5202, 308.3239
562.0023, 307.6871
562.4844, 307.6780
562.9666, 308.9780
563.4487, 310.1552
563.9308, 310.6987
564.4129, 311.2487
564.8950, 313.0122
565.3771, 317.0622
565.8593, 319.8596
566.3414, 320.5292
566.8235, 319.3438
567.3056, 317.3368
567.7877, 314.4228
568.2698, 311.3649
568.7520, 308.4266
569.2341, 305.6932
569.7162, 303.6463
570.1983, 302.3831
570.6804, 300.7740
571.1625, 296.6313
571.6447, 291.7504
572.1268, 289.4406
572.6089, 291.9706
573.0910, 293.9600
573.5731, 290.2155
574.0552, 283.8454
574.5374, 280.2023
575.0195, 284.7801
575.5016, 288.6036
575.9837, 287.6693
576.4658, 282.4584
576.9479, 279.8343
577.4301, 281.7677
577.9122, 284.1701
578.3943, 285.2992
578.8764, 284.8864
579.3585, 284.6299
579.8406, 284.5102
580.3228, 284.5876
580.8049, 285.0048
581.2870, 285.7363
581.7691, 286.5028
582.2512, 287.4229
582.7333, 287.9370
583.2155, 286.6152
583.6975, 284.0879
584.1796, 282.2834
584.6617, 282.3415
585.1439, 283.3561
585.6260, 284.7873
586.1081, 286.5477
586.5902, 288.2205
587.0723, 289.9376
587.5544, 291.2480
588.0366, 291.7904
588.5187, 291.3013
589.0008, 291.0227
589.4829, 290.6635
589.9650, 290.8763
590.4471, 292.2461
590.9293, 295.3555
591.4114, 298.2778
591.8935, 300.8023
592.3756, 303.2117
592.8577, 306.2213
593.3398, 309.8760
593.8220, 312.9818
594.3041, 315.1919
594.7862, 316.5717
595.2683, 316.5028
595.7504, 315.3076
596.2325, 315.3530
596.7147, 319.0747
597.1968, 324.3350
597.6789, 328.8299
598.1610, 332.3852
598.6431, 335.6539
599.1252, 338.9323
599.6074, 342.0793
600.0895, 344.8859
600.5716, 346.3119
601.0537, 349.1750
601.5358, 354.6019
602.0179, 361.4032
602.5001, 368.2031
602.9822, 375.4819
603.4643, 381.7653
603.9464, 387.1872
604.4285, 391.3202
604.9106, 392.2651
605.3928, 389.6381
605.8749, 387.2280
606.3570, 388.3324
606.8391, 390.9810
607.3212, 387.9640
607.8033, 379.4908
608.2855, 370.0788
608.7676, 363.3445
609.2497, 357.7330
609.7318, 351.1168
610.2139, 342.7383
610.6960, 335.2310
611.1782, 330.5225
611.6603, 327.2270
612.1424, 323.8192
612.6245, 319.4252
613.1066, 315.6072
613.5887, 312.2100
614.0709, 309.5688
614.5530, 308.5514
615.0351, 310.2032
615.5172, 311.2294
615.9993, 310.3979
616.4814, 308.2255
616.9636, 307.7654
617.4457, 309.1796
617.9278, 310.4885
618.4099, 310.0701
618.8920, 308.6161
619.3741, 308.2002
619.8563, 308.9094
620.3384, 309.4961
620.8205, 308.6712
621.3026, 307.2481
621.7847, 306.1647
622.2668, 305.5584
622.7490, 305.4318
623.2311, 306.2112
623.7132, 307.3120
624.1953, 307.9874
624.6774, 306.8685
625.1595, 306.8966
625.6417, 309.1058
626.1238, 312.5805
626.6059, 314.6595
627.0880, 315.0025
627.5701, 315.0152
628.0522, 315.1198
628.5344, 315.3045
629.0165, 315.1884
629.4986, 314.7433
629.9807, 315.2531
630.4628, 319.1518
630.9449, 324.2043
631.4271, 326.0009
631.9092, 324.1300
632.3913, 321.2535
632.8734, 318.7625
633.3555, 316.5183
633.8376, 314.3754
634.3198, 312.5008
634.8019, 310.3708
635.2840, 307.4525
635.7661, 304.3439
636.2482, 301.8038
636.7303, 299.6581
637.2125, 298.4231
637.6946, 298.4507
638.1767, 299.3200
638.6588, 299.9176
639.1409, 300.2545
639.6230, 300.2874
640.1052, 299.8969
640.5873, 299.2334
641.0694, 298.6662
641.5515, 298.2070
642.0336, 297.9990
642.5157, 298.2598
642.9979, 298.7662
643.4800, 299.2907
643.9621, 299.8220
644.4442, 300.3214
644.9263, 301.2162
645.4084, 301.8084
645.8906, 301.4006
646.3727, 298.5753
646.8548, 297.2032
647.3369, 298.3032
647.8190, 300.3343
648.3011, 301.3565
648.7833, 300.8670
649.2654, 301.2565
649.7475, 303.5092
650.2296, 306.0558
650.7117, 304.9252
651.1938, 300.4674
651.6760, 297.0174
652.1581, 296.7067
652.6402, 298.1221
653.1223, 299.5031
653.6044, 300.8065
654.0865, 301.9268
654.5687, 302.7239
655.0508, 303.3662
655.5329, 304.0446
656.0150, 304.7796
656.4971, 305.1434
656.9792, 304.2780
657.4614, 303.6505
657.9435, 304.1956
658.4256, 306.5101
658.9077, 307.7971
659.3898, 307.6192
659.8719, 307.1769
660.3541, 307.8941
660.8362, 309.7167
661.3183, 311.0139
661.8004, 311.4829
662.2825, 311.5103
662.7646, 311.7062
663.2468, 311.8558
663.7289, 311.3619
664.2110, 309.1912
664.6931, 307.3508
665.1752, 307.5087
665.6573, 309.0733
666.1395, 310.6377
666.6216, 312.2427
667.1037, 313.3172
667.5858, 313.2749
668.0679, 312.3592
668.5500, 312.3698
669.0322, 314.0854
669.5143, 315.1878
669.9964, 314.5680
670.4785, 312.3107
670.9606, 309.3075
671.4427, 305.3571
671.9249, 302.5647
672.4070, 303.7398
672.8891, 307.0587
673.3712, 308.3314
673.8533, 306.9730
674.3354, 305.6006
674.8176, 306.3902
675.2997, 308.0220
675.7818, 309.0781
676.2639, 308.8823
676.7460, 308.8094
677.2281, 309.5526
677.7103, 310.4111
678.1924, 310.4530
678.6745, 309.0436
679.1566, 308.2262
679.6387, 308.3559
680.1208, 309.1357
680.6030, 310.2209
681.0851, 311.5880
681.5672, 312.1323
682.0493, 310.9489
682.5314, 309.1771
683.0135, 309.1597
683.4957, 310.4150
683.9778, 311.0536
684.4599, 308.3930
684.9420, 306.0991
685.4241, 307.6378
685.9063, 312.6972
686.3884, 315.9256
686.8705, 314.6411
687.3526, 312.3406
687.8347, 310.4382
688.3168, 308.9391
688.7990, 307.8883
689.2811, 307.2818
689.7632, 307.1039
690.2453, 307.2928
690.7274, 307.8680
691.2095, 309.4685
691.6917, 312.3581
692.1738, 314.5833
692.6559, 312.6815
693.1380, 309.0136
693.6201, 307.9303
694.1022, 311.4278
694.5844, 314.7836
695.0665, 315.0465
695.5486, 313.6424
696.0307, 312.3952
696.5128, 311.2277
696.9949, 310.8866
697.4771, 311.9745
697.9592, 313.6777
698.4413, 314.2213
698.9234, 313.2169
699.4055, 312.6725
699.8876, 313.3448
700.3698, 314.6014
700.8519, 314.3696
701.3340, 312.9727
701.8161, 312.5782
702.2982, 315.6693
702.7803, 319.4422
703.2625, 320.4543
703.7446, 319.2245
704.2267, 318.4449
704.7088, 319.7605
705.1909, 321.4404
705.6730, 322.6411
706.1552, 323.2808
706.6373, 323.8934
707.1194, 324.8235
707.6015, 325.2285
708.0836, 324.1519
708.5657, 321.4151
709.0479, 321.2492
709.5300, 324.0387
710.0121, 326.9856
710.4942, 326.9099
710.9763, 325.1341
711.4584, 325.2113
711.9406, 327.9099
712.4227, 329.8728
712.9048, 326.9716
713.3869, 322.8753
713.8690, 321.5996
714.3511, 326.1028
714.8333, 329.7439
715.3154, 330.8034
715.7975, 330.6558
716.2796, 330.7241
716.7617, 331.2397
717.2438, 331.2209
717.7260, 330.2914
718.2081, 329.2036
718.6902, 329.8575
719.1723, 331.9064
719.6544, 332.4429
720.1365, 329.8695
720.6187, 326.4687
721.1008, 324.5648
721.5829, 323.9315
722.0650, 323.9947
722.5471, 325.6576
723.0292, 326.8075
723.5114, 326.0395
723.9935, 323.8537
724.4756, 322.5016
724.9577, 322.5404
725.4398, 322.6949
725.9219, 322.7162
726.4041, 322.5594
726.8862, 321.6994
727.3683, 320.0195
727.8504, 318.9164
728.3325, 319.4313
728.8146, 320.9861
729.2968, 322.5035
729.7789, 323.9669
730.2610, 325.2951
730.7431, 326.8492
731.2252, 327.9423
731.7073, 328.0551
732.1895, 327.1127
732.6716, 325.5484
733.1537, 321.4475
733.6358, 318.5806
734.1179, 319.3000
734.6000, 324.5521
735.0822, 327.9676
735.5643, 329.4880
736.0464, 329.4522
736.5285, 326.8742
737.0106, 322.8399
737.4927, 322.0303
737.9749, 325.2012
738.4570, 328.6870
738.9391, 329.1142
739.4212, 328.1352
739.9033, 327.5789
740.3854, 327.9087
740.8676, 328.5131
741.3497, 328.8729
741.8318, 329.6537
742.3139, 331.6248
742.7960, 335.5186
743.2781, 338.6902
743.7603, 340.8464
744.2424, 342.4335
744.7245, 344.0602
745.2066, 345.6864
745.6887, 347.0079
746.1708, 347.7018
746.6530, 348.7087
747.1351, 351.4225
747.6172, 355.1514
748.0993, 358.6719
748.5814, 361.3358
749.0635, 363.9470
749.5457, 366.8112
750.0278, 369.8533
750.5099, 372.7543
750.9920, 374.9798
751.4741, 378.2703
751.9562, 383.4211
752.4384, 389.4466
752.9205, 393.5654
753.4026, 395.8465
753.8847, 397.8773
754.3668, 399.9192
754.8489, 402.4119
755.3311, 406.2642
755.8132, 411.1473
756.2953, 415.9757
756.7774, 420.7056
757.2595, 424.8623
757.7416, 427.4713
758.2238, 429.0327
758.7059, 432.7515
759.1880, 440.9061
759.6701, 447.6094
760.1522, 450.4485
760.6343, 450.4399
761.1165, 453.5422
761.5986, 459.8884
762.0807, 466.2929
762.5628, 471.5988
763.0449, 475.5669
763.5270, 477.8376
764.0092, 478.4071
764.4913, 477.2757
764.9734, 473.6092
765.4555, 468.9245
765.9376, 463.8063
766.4197, 458.2551
766.9019, 453.5695
767.3840, 450.9851
767.8661, 447.5716
768.3482, 441.7536
768.8303, 433.6163
769.3124, 426.8354
769.7946, 421.6400
770.2767, 415.6985
770.7588, 405.8732
771.2409, 394.7487
771.7230, 387.4296
772.2051, 383.9468
772.6873, 380.6125
773.1694, 374.9897
773.6515, 368.9655
774.1336, 363.4649
774.6157, 358.4396
775.0978, 355.2031
775.5800, 354.8739
776.0621, 354.8085
776.5442, 353.3441
777.0263, 350.3837
777.5084, 348.0149
777.9905, 346.2517
778.4727, 344.8156
778.9548, 343.4221
779.4369, 342.2099
779.9190, 341.4649
780.4011, 341.2347
780.8832, 341.1992
781.3654, 341.1660
781.8475, 341.2740
782.3296, 341.8691
782.8117, 343.6595
783.2938, 343.4757
783.7759, 339.9498
784.2581, 336.3619
784.7402, 335.3282
785.2223, 336.8492
785.7044, 339.0155
786.1865, 341.9161
786.6686, 343.8184
787.1508, 341.4671
787.6329, 337.6184
788.1150, 337.0608
788.5971, 341.0938
789.0792, 344.4099
789.5613, 344.3735
790.0435, 342.6346
790.5256, 340.2261
791.0077, 336.2999
791.4898, 334.4668
791.9719, 335.5099
792.4540, 337.3615
792.9362, 338.0649
793.4183, 337.7459
793.9004, 337.8857
794.3825, 338.6678
794.8646, 339.3307
795.3467, 338.8459
795.8289, 337.9314
796.3110, 337.6457
796.7931, 338.3494
797.2752, 338.8968
797.7573, 338.8392
798.2394, 338.4817
798.7216, 338.0238
799.2037, 337.1709
799.6858, 337.0479
800.1679, 337.7866
800.6500, 338.9529
801.1321, 340.3106
801.6143, 341.7695
802.0964, 342.8065
802.5785, 343.3007
803.0606, 343.9124
803.5427, 345.7950
804.0248, 347.8009
804.5070, 348.4283
804.9891, 346.6037
805.4712, 345.8774
805.9533, 348.1919
806.4354, 351.0047
806.9175, 352.3928
807.3997, 351.8682
807.8818, 352.0451
808.3639, 353.0315
808.8460, 354.5450
809.3281, 356.6989
809.8102, 359.1128
810.2924, 360.6485
810.7745, 361.0602
811.2566, 361.5089
811.7387, 362.7670
812.2208, 364.4529
812.7029, 366.3089
813.1851, 368.5483
813.6672, 370.1879
814.1493, 370.7498
814.6314, 371.2369
815.1135, 372.5279
815.5956, 374.6773
816.0778, 376.4219
816.5599, 377.6660
817.0420, 378.9256
817.5241, 380.9177
818.0062, 383.1610
818.4883, 385.1528
818.9705, 386.9156
819.4526, 387.5502
819.9347, 385.8756
820.4168, 383.4692
820.8989, 381.4167
821.3810, 379.8082
821.8632, 378.4641
822.3453, 377.5235
822.8274, 376.5333
823.3095, 375.1738
823.7916, 373.4589
824.2737, 371.5737
824.7559, 369.5210
825.2380, 367.2035
825.7201, 362.9855
826.2022, 359.4517
826.6843, 360.1080
827.1664, 365.9652
827.6486, 369.8751
828.1307, 368.4835
828.6128, 366.3493
829.0949, 365.6819
829.5770, 366.6224
830.0591, 366.9538
830.5413, 366.6476
831.0234, 365.8781
831.5055, 363.9990
831.9876, 362.0011
832.4697, 362.4293
832.9518, 365.1617
833.4340, 367.2197
833.9161, 366.1373
834.3982, 364.4025
834.8803, 363.5687
835.3624, 363.8189
835.8445, 363.8296
836.3267, 363.5065
836.8088, 363.0996
837.2909, 362.3869
837.7730, 361.6555
838.2551, 363.1203
838.7372, 366.6320
839.2194, 369.7564
839.7015, 370.7633
840.1836, 370.7543
840.6657, 370.3784
841.1478, 369.8241
841.6299, 369.9672
842.1121, 371.0348
842.5942, 372.9721
843.0763, 376.0195
843.5584, 379.9266
844.0405, 383.2737
844.5226, 385.9932
845.0048, 388.5809
845.4869, 391.1882
845.9690, 393.8513
846.4511, 396.5162
846.9332, 399.2545
847.4153, 402.2797
847.8975, 406.0580
848.3796, 409.7732
848.8617, 413.3890
849.3438, 416.6374
849.8259, 418.5963
850.3080, 418.4391
850.7902, 418.8889
851.2723, 420.6736
851.7544, 423.2492
852.2365, 425.8690
852.7186, 428.3464
853.2007, 429.5345
853.6829, 428.8158
854.1650, 426.9791
854.6471, 424.4985
855.1292, 421.4222
855.6113, 417.8162
856.0934, 413.6514
856.5756, 408.9961
857.0577, 403.3759
857.5398, 397.6873
858.0219, 393.3164
858.5040, 390.3543
858.9861, 386.5107
859.4683, 381.1304
859.9504, 375.6643
860.4325, 371.9523
860.9146, 369.4259
861.3967, 367.2810
861.8788, 365.5036
862.3610, 363.5790
862.8431, 360.4822
863.3252, 357.7278
863.8073, 356.8585
864.2894, 358.8406
864.7715, 359.6805
865.2537, 359.1756
865.7358, 358.0131
866.2179, 356.3539
866.7000, 354.6270
867.1821, 354.2475
867.6642, 355.4117
868.1464, 356.4710
868.6285, 356.3401
869.1106, 355.6798
869.5927, 354.7177
870.0748, 353.1855
870.5569, 353.2516
871.0391, 355.6754
871.5212, 358.2854
872.0033, 359.7773
872.4854, 360.2950
872.9675, 361.0333
873.4496, 361.9516
873.9318, 362.3417
874.4139, 360.7154
874.8960, 359.1090
875.3781, 359.9326
875.8602, 362.8239
876.3423, 364.4391
876.8245, 362.2790
877.3066, 360.7522
877.7887, 361.1783
878.2708, 363.1193
878.7529, 365.0011
879.2350, 366.8243
879.7172, 367.9081
880.1993, 367.1171
880.6814, 366.3803
881.1635, 368.5423
881.6456, 372.7301
882.1277, 376.9039
882.6099, 379.8281
883.0920, 383.2306
883.5741, 388.6417
884.0562, 394.3179
884.5383, 397.1130
885.0204, 396.3291
885.5026, 397.1757
885.9847, 400.7569
886.4668, 405.7280
886.9489, 410.7812
887.4310, 415.7645
887.9131, 420.0748
888.3953, 422.9096
888.8774, 426.9140
889.3595, 434.3793
889.8416, 442.8678
890.3237, 449.9806
890.8058, 454.7930
891.2880, 460.6544
891.7701, 467.6613
892.2522, 475.2982
892.7343, 483.4523
893.2164, 491.8784
893.6985, 499.9309
894.1807, 507.4956
894.6628, 514.9394
895.1449, 523.3251
895.6270, 530.8690
896.1091, 536.7522
896.5912, 540.8326
897.0734, 542.2455
897.5555, 541.2291
898.0376, 536.8761
898.5197, 528.2455
899.0018, 516.1001
899.4839, 502.6339
899.9661, 488.1170
900.4482, 474.1694
900.9303, 460.9479
901.4124, 449.1528
901.8945, 439.9741
902.3766, 432.6147
902.8588, 423.9345
903.3409, 411.7004
903.8230, 402.1040
904.3051, 396.7513
904.7872, 393.9213
905.2693, 390.1204
905.7515, 385.5957
906.2336, 381.6871
906.7157, 378.6299
907.1978, 376.6400
907.6799, 376.6776
908.1620, 377.5413
908.6442, 377.8095
909.1263, 377.4076
909.6084, 375.7675
910.0905, 371.9137
910.5726, 368.2224
911.0547, 367.1051
911.5369, 368.3316
912.0190, 369.1793
912.5011, 369.4958
912.9832, 369.2617
913.4653, 368.1801
913.9474, 366.7328
914.4296, 365.1815
914.9117, 363.5331
915.3938, 362.5757
915.8759, 362.6856
916.3580, 363.1262
916.8401, 363.7843
917.3223, 364.5277
917.8044, 364.3567
918.2865, 363.3437
918.7686, 362.7072
919.2507, 363.0428
919.7328, 364.1005
920.2150, 366.2489
920.6971, 368.9044
921.1792, 370.6690
921.6613, 369.7635
922.1434, 369.7983
922.6255, 371.2918
923.1077, 373.9557
923.5898, 377.8898
924.0719, 382.9247
924.5540, 386.6045
925.0361, 388.4500
925.5182, 388.7826
926.0004, 386.5241
926.4825, 383.6404
926.9646, 382.5247
927.4467, 384.0453
927.9288, 386.2920
928.4109, 389.9169
928.8931, 393.0585
929.3752, 394.0904
929.8573, 393.0657
930.3394, 393.0655
930.8215, 394.0917
931.3036, 395.2916
931.7858, 396.3941
932.2679, 397.1188
932.7500, 396.9779
933.2321, 396.1016
933.7142, 395.4957
934.1964, 395.7733
934.6785, 395.8432
935.1606, 395.4508
935.6427, 394.6600
936.1248, 393.5033
936.6069, 392.0167
937.0891, 390.8844
937.5712, 390.4515
938.0533, 390.1756
938.5354, 389.2602
939.0175, 388.2382
939.4996, 387.9131
939.9818, 389.5078
940.4639, 390.2188
940.9460, 389.6131
941.4281, 388.5577
941.9102, 387.9382
942.3923, 387.6963
942.8745, 387.2484
943.3566, 386.5425
943.8387, 385.8665
944.3208, 385.6855
944.8029, 385.4787
945.2850, 384.8339
945.7672, 383.7071
946.2493, 382.0959
946.7314, 379.2646
947.2135, 377.3584
947.6956, 377.5088
948.1777, 379.0725
948.6599, 380.0074
949.1420, 380.2869
949.6241, 379.6746
950.1062, 377.1421
950.5883, 374.7763
951.0704, 374.4491
951.5526, 375.2022
952.0347, 375.1540
952.5168, 373.2453
952.9989, 372.4352
953.4810, 373.2065
953.9631, 374.6041
954.4453, 375.7276
954.9274, 376.4877
955.4095, 376.1610
955.8916, 374.5208
956.3737, 373.7900
956.8558, 377.1112
957.3380, 380.6119
957.8201, 380.9434
958.3022, 377.7064
958.7843, 375.9224
959.2664, 375.7747
959.7485, 376.5460
960.2307, 378.2933
960.7128, 380.4385
961.1949, 381.4414
961.6770, 381.6025
962.1591, 381.9621
962.6412, 383.7777
963.1234, 385.0359
963.6055, 384.2285
964.0876, 382.6195
964.5697, 382.5464
965.0518, 384.6254
965.5339, 385.1848
966.0161, 383.4816
966.4982, 381.2828
966.9803, 380.5972
967.4624, 380.8914
967.9445, 381.2875
968.4266, 381.6224
968.9088, 382.2918
969.3909, 384.1877
969.8730, 385.7093
970.3551, 385.8381
970.8372, 384.6790
971.3193, 384.2950
971.8015, 384.7027
972.2836, 385.3525
972.7657, 386.0359
973.2478, 386.7101
973.7299, 387.8056
974.2120, 388.8377
974.6942, 388.6262
975.1763, 384.9300
975.6584, 382.5954
976.1405, 382.7802
976.6226, 383.9663
977.1047, 383.7977
977.5869, 382.4536
978.0690, 382.0500
978.5511, 382.9858
979.0332, 383.9272
979.5153, 383.5986
979.9974, 382.8645
980.4796, 382.5349
980.9617, 382.7683
981.4438, 382.8899
981.9259, 382.9100
982.4080, 382.7539
982.8901, 382.3825
983.3723, 381.8122
983.8544, 381.0157
984.3365, 380.0451
984.8186, 379.1190
985.3007, 377.9393
985.7828, 377.2729
986.2650, 377.9876
986.7471, 379.2613
987.2292, 379.6275
987.7113, 378.6583
988.1934, 378.4791
988.6755, 379.5233
989.1577, 380.3703
989.6398, 378.8545
990.1219, 376.2915
990.6040, 374.9620
991.0861, 375.1374
991.5682, 375.6249
992.0504, 376.3203
992.5325, 376.8451
993.0146, 377.0421
993.4967, 376.9426
993.9788, 376.8311
994.4609, 376.7116
994.9431, 375.8623
995.4252, 373.3910
995.9073, 370.9731
996.3894, 371.0009
996.8715, 372.1582
997.3536, 372.2767
997.8358, 369.4916
998.3179, 367.5990
998.8000, 366.8722
999.2821, 366.7599
999.7642, 367.0492
1000.246, 367.5400
1000.728, 366.9157
1001.211, 365.1534
1001.693, 363.6127
1002.175, 363.6445
1002.657, 363.7654
1003.139, 362.5923
1003.621, 360.4453
1004.103, 359.8753
1004.585, 361.2458
1005.068, 362.9588
1005.550, 364.9280
1006.032, 366.3496
1006.514, 365.3292
1006.996, 362.9402
1007.478, 361.3444
1007.960, 361.4056
1008.442, 361.6576
1008.924, 361.2743
1009.407, 361.2684
1009.889, 362.5850
1010.371, 365.2991
1010.853, 366.8737
1011.335, 367.3161
1011.817, 367.3312
1012.299, 367.1406
1012.781, 366.9643
1013.263, 367.2690
1013.746, 367.7875
1014.228, 367.5149
1014.710, 365.3322
1015.192, 364.2619
1015.674, 365.0909
1016.156, 366.6402
1016.638, 367.2587
1017.120, 367.1138
1017.603, 366.6789
1018.085, 366.0116
1018.567, 365.2180
1019.049, 363.7910
1019.531, 362.7611
1020.013, 363.2165
1020.495, 365.0451
1020.977, 365.1048
1021.459, 363.1895
1021.942, 361.2750
1022.424, 360.0315
1022.906, 359.5876
1023.388, 360.5744
1023.870, 362.3950
1024.352, 363.8784
1024.834, 364.4402
1025.316, 364.9878
1025.799, 365.7787
1026.281, 366.3719
1026.763, 366.1065
1027.245, 365.1687
1027.727, 364.7179
1028.209, 364.8151
1028.691, 365.2677
1029.173, 366.7194
1029.656, 367.7802
1030.138, 366.7213
1030.620, 364.2371
1031.102, 364.2238
1031.584, 367.4828
1032.066, 370.0584
1032.548, 371.0918
1033.030, 370.7490
1033.512, 368.0302
1033.995, 364.5009
1034.477, 363.0867
1034.959, 365.0114
1035.441, 366.8795
1035.923, 368.9095
1036.405, 369.4230
1036.887, 366.5043
1037.369, 360.8994
1037.851, 359.7070
1038.334, 362.5320
1038.816, 365.4427
1039.298, 366.1535
1039.780, 366.2944
1040.262, 366.9775
1040.744, 367.8692
1041.226, 368.2978
1041.708, 368.1642
1042.191, 367.8004
1042.673, 367.1803
1043.155, 366.5133
1043.637, 366.1120
1044.119, 365.7606
1044.601, 364.6471
1045.083, 362.8145
1045.565, 362.3788
1046.047, 365.9547
1046.530, 368.7782
1047.012, 368.9882
1047.494, 367.6490
1047.976, 368.0673
1048.458, 369.9160
1048.940, 370.2807
1049.422, 367.7884
1049.904, 365.5053
1050.386, 366.1310
1050.869, 367.8808
1051.351, 368.8612
1051.833, 368.7095
1052.315, 369.3795
1052.797, 370.9630
1053.279, 372.9886
1053.761, 376.2447
1054.243, 379.0885
1054.726, 377.5537
1055.208, 373.2972
1055.690, 370.7079
1056.172, 372.7341
1056.654, 374.6937
1057.136, 375.9936
1057.618, 376.8851
1058.100, 377.8759
1058.583, 378.7986
1059.065, 378.1838
1059.547, 375.9624
1060.029, 374.0011
1060.511, 373.0770
1060.993, 373.3428
1061.475, 375.9167
1061.957, 379.9073
1062.439, 381.4238
1062.922, 380.0056
1063.404, 379.0599
1063.886, 379.5876
1064.368, 380.4533
1064.850, 380.5692
1065.332, 380.0002
1065.814, 378.6250
1066.296, 376.0833
1066.778, 374.3981
1067.261, 374.2144
1067.743, 373.9808
1068.225, 372.5896
1068.707, 370.6958
1069.189, 370.5992
1069.671, 371.9734
1070.153, 373.7031
1070.635, 376.1743
1071.118, 377.7016
1071.600, 376.9423
1072.082, 375.2862
1072.564, 373.9781
1073.046, 373.0184
1073.528, 372.4974
1074.010, 372.4193
1074.492, 372.8205
1074.974, 374.3102
1075.457, 375.8008
1075.939, 376.2820
1076.421, 375.8983
1076.903, 375.3686
1077.385, 374.5811
1077.867, 374.1104
1078.349, 374.0613
1078.831, 374.3374
1079.313, 374.8481
1079.796, 375.5807
1080.278, 376.8622
1080.760, 378.8281
1081.242, 379.4971
1081.724, 376.3156
1082.206, 373.9883
1082.688, 374.6722
1083.170, 377.1409
1083.652, 377.0311
1084.135, 374.9537
1084.617, 374.1498
1085.099, 376.1725
1085.581, 378.3909
1086.063, 379.4774
1086.545, 379.7860
1087.027, 379.5647
1087.509, 378.7284
1087.992, 378.6671
1088.474, 379.4646
1088.956, 379.8155
1089.438, 378.2631
1089.920, 376.4384
1090.402, 375.6031
1090.884, 375.8549
1091.366, 377.5656
1091.849, 382.5508
1092.331, 385.2822
1092.813, 385.1100
1093.295, 383.6617
1093.777, 382.1364
1094.259, 380.6629
1094.741, 379.4001
1095.223, 378.3898
1095.705, 377.8326
1096.188, 378.0327
1096.670, 378.4653
1097.152, 379.0126
1097.634, 379.6963
1098.116, 380.6299
1098.598, 381.7712
1099.080, 382.9862
1099.562, 384.3304
1100.044, 384.9776
1100.527, 383.7415
1101.009, 382.2030
1101.491, 381.5981
1101.973, 381.6811
1102.455, 380.3677
1102.937, 377.5331
1103.419, 376.9369
1103.901, 380.6725
1104.384, 385.0052
1104.866, 386.1228
1105.348, 385.5270
1105.830, 384.9307
1106.312, 384.5858
1106.794, 384.0197
1107.276, 383.0031
1107.758, 382.5638
1108.240, 383.3074
1108.723, 384.9755
1109.205, 388.1428
1109.687, 391.7811
1110.169, 393.5572
1110.651, 390.1852
1111.133, 388.8445
1111.615, 391.0621
1112.097, 393.7160
1112.579, 393.8582
1113.062, 392.0726
1113.544, 389.9216
1114.026, 387.6787
1114.508, 386.7769
1114.990, 389.6269
1115.472, 391.9257
1115.954, 391.5820
1116.436, 390.2014
1116.919, 390.2282
1117.401, 391.5628
1117.883, 392.7122
1118.365, 393.5157
1118.847, 393.8935
1119.329, 392.9710
1119.811, 392.3321
1120.293, 393.4369
1120.776, 395.8231
1121.258, 397.6698
1121.740, 398.9872
1122.222, 399.6464
1122.704, 399.6169
1123.186, 398.9193
1123.668, 396.3462
1124.150, 393.8795
1124.632, 394.3729
1125.115, 398.7003
1125.597, 399.8107
1126.079, 396.5723
1126.561, 393.6590
1127.043, 392.9311
1127.525, 393.4580
1128.007, 393.8548
1128.489, 394.3417
1128.971, 395.4740
1129.454, 398.1380
1129.936, 399.1636
1130.418, 397.7120
1130.900, 395.7456
1131.382, 393.8320
1131.864, 392.5414
1132.346, 394.6044
1132.828, 398.7994
1133.311, 401.2493
1133.793, 398.4013
1134.275, 396.3673
1134.757, 396.8871
1135.239, 398.2260
1135.721, 399.3623
1136.203, 400.1307
1136.685, 398.2815
1137.167, 394.2389
1137.650, 392.0032
1138.132, 395.7672
1138.614, 399.7458
1139.096, 401.0231
1139.578, 401.0832
1140.060, 401.9637
1140.542, 403.6884
1141.024, 404.9230
1141.506, 405.5633
1141.989, 405.6659
1142.471, 405.3968
1142.953, 404.4987
1143.435, 402.2797
1143.917, 399.2915
1144.399, 397.0490
1144.881, 395.4276
1145.363, 396.0937
1145.846, 399.7072
1146.328, 403.2357
1146.810, 403.3036
1147.292, 401.9820
1147.774, 401.5086
1148.256, 401.9374
1148.738, 400.1392
1149.220, 394.8087
1149.703, 392.5993
1150.185, 396.1387
1150.667, 401.2105
1151.149, 402.3458
1151.631, 401.5040
1152.113, 401.5214
1152.595, 403.0900
1153.077, 403.3485
1153.559, 401.6603
1154.042, 399.8571
1154.524, 398.3760
1155.006, 397.6255
1155.488, 399.4488
1155.970, 402.2914
1156.452, 402.8433
1156.934, 399.2082
1157.416, 396.6308
1157.898, 395.7919
1158.381, 395.9265
1158.863, 397.0396
1159.345, 398.5724
1159.827, 398.7238
1160.309, 397.9418
1160.791, 397.4404
1161.273, 397.7627
1161.755, 398.2544
1162.238, 398.9440
1162.720, 399.5565
1163.202, 399.8255
1163.684, 399.8398
1164.166, 400.1141
1164.648, 400.5771
1165.130, 400.9003
1165.612, 401.7123
1166.094, 401.2667
1166.577, 397.7526
1167.059, 393.9704
1167.541, 392.7869
1168.023, 393.9376
1168.505, 395.4170
1168.987, 397.0987
1169.469, 398.5316
1169.951, 399.2752
1170.433, 399.9035
1170.916, 400.6259
1171.398, 401.4227
1171.880, 402.5746
1172.362, 404.0106
1172.844, 403.7235
1173.326, 401.6125
1173.808, 399.4843
1174.290, 397.8493
1174.773, 397.3564
1175.255, 399.2313
1175.737, 402.2339
1176.219, 404.3465
1176.701, 405.5914
1177.183, 404.6028
1177.665, 401.0212
1178.147, 398.4686
1178.630, 401.0892
1179.112, 404.5674
1179.594, 406.3599
1180.076, 406.4233
1180.558, 404.3168
1181.040, 399.8251
1181.522, 397.2223
1182.004, 397.4938
1182.486, 398.5135
1182.969, 398.5686
1183.451, 398.4145
1183.933, 398.5707
1184.415, 399.0771
1184.897, 400.2609
1185.379, 402.2865
1185.861, 403.0218
1186.343, 401.6231
1186.825, 400.0292
1187.308, 400.7129
1187.790, 401.7152
1188.272, 400.5128
1188.754, 397.1688
1189.236, 396.6931
1189.718, 399.4023
1190.200, 402.2451
1190.682, 404.4987
1191.165, 405.8155
1191.647, 405.2060
1192.129, 403.8569
1192.611, 402.9475
1193.093, 402.6021
1193.575, 402.8697
1194.057, 403.8710
1194.539, 404.5104
1195.021, 404.0846
1195.504, 403.6746
1195.986, 404.6797
1196.468, 406.3347
1196.950, 407.8481
1197.432, 409.3126
1197.914, 409.0537
1198.396, 406.7395
1198.878, 404.9628
1199.360, 405.3193
1199.843, 406.2733
1200.325, 405.7394
1200.807, 406.6887
1201.289, 405.1571
1201.771, 407.5576
1202.253, 408.7061
1202.735, 408.4889
1203.217, 407.7776
1203.700, 406.8475
1204.182, 405.9467
1204.664, 405.2961
1205.146, 404.8900
1205.628, 404.6663
1206.110, 404.3817
1206.592, 405.2598
1207.074, 407.5364
1207.557, 409.4771
1208.039, 409.7153
1208.521, 409.2834
1209.003, 409.1877
1209.485, 409.2879
1209.967, 409.3047
1210.449, 408.9948
1210.931, 409.2710
1211.413, 410.2149
1211.896, 411.2536
1212.378, 411.9612
1212.860, 412.5960
1213.342, 413.4366
1213.824, 414.4053
1214.306, 415.4545
1214.788, 417.1558
1215.270, 416.5580
1215.752, 413.2268
1216.235, 410.6769
1216.717, 412.5169
1217.199, 415.5237
1217.681, 416.9653
1218.163, 416.9706
1218.645, 415.6898
1219.127, 412.4547
1219.609, 411.2582
1220.092, 412.4739
1220.574, 413.6500
1221.056, 411.8144
1221.538, 409.9797
1222.020, 411.5198
1222.502, 415.1013
1222.984, 417.5906
1223.466, 418.8801
1223.948, 418.6292
1224.431, 416.6361
1224.913, 415.4882
1225.395, 418.4785
1225.877, 422.0509
1226.359, 423.3110
1226.841, 422.8365
1227.323, 422.1412
1227.805, 420.9336
1228.287, 422.0744
1228.770, 425.8843
1229.252, 429.6096
1229.734, 431.1302
1230.216, 431.6260
1230.698, 431.1297
1231.180, 430.4985
1231.662, 431.8076
1232.144, 435.3008
1232.627, 437.0670
1233.109, 436.7349
1233.591, 436.5596
1234.073, 439.3756
1234.555, 441.7727
1235.037, 440.4833
1235.519, 442.1731
1236.001, 437.8063
1236.484, 440.9994
1236.966, 441.1061
1237.448, 437.5927
1237.930, 433.5218
1238.412, 430.1386
1238.894, 427.6723
1239.376, 426.7486
1239.858, 426.5871
1240.340, 425.7892
1240.823, 426.1147
1241.305, 424.8514
1241.787, 426.9258
1242.269, 428.7345
1242.751, 429.2564
1243.233, 428.8735
1243.715, 427.2648
1244.197, 425.3444
1244.679, 424.5479
1245.162, 424.7036
1245.644, 425.1362
1246.126, 425.7389
1246.608, 425.8469
1247.090, 424.2417
1247.572, 423.2449
1248.054, 423.7846
1248.536, 424.9398
1249.019, 424.9405
1249.501, 424.4182
1249.983, 426.0807
1250.465, 429.8473
1250.947, 432.0892
1251.429, 429.8967
1251.911, 427.7452
1252.393, 426.4109
1252.875, 425.7836
1253.358, 426.1590
1253.840, 426.9758
1254.322, 426.9601
1254.804, 426.0681
1255.286, 424.9115
1255.768, 423.3806
1256.250, 421.9727
1256.732, 420.5151
1257.214, 419.8904
1257.697, 421.9321
1258.179, 425.1288
1258.661, 427.3146
1259.143, 428.3531
1259.625, 428.2392
1260.107, 426.4040
1260.589, 425.0989
1261.071, 424.5895
1261.554, 424.8980
1262.036, 426.9140
1262.518, 429.1245
1263.000, 429.6214
1263.482, 428.6396
1263.964, 427.7457
1264.446, 426.7196
1264.928, 427.4890
1265.411, 430.5817
1265.893, 433.1203
1266.375, 432.3216
1266.857, 430.0312
1267.339, 426.8266
1267.821, 423.5874
1268.303, 422.7476
1268.785, 424.5175
1269.267, 425.8315
1269.750, 426.3514
1270.232, 426.7601
1270.714, 427.5642
1271.196, 428.4412
1271.678, 429.3883
1272.160, 430.1580
1272.642, 430.1656
1273.124, 429.4888
1273.606, 429.2675
1274.089, 429.5747
1274.571, 429.9626
1275.053, 430.5700
1275.535, 430.6526
1276.017, 429.5103
1276.499, 428.2243
1276.981, 428.5705
1277.463, 429.9959
1277.946, 430.0334
1278.428, 428.8133
1278.910, 428.4144
1279.392, 431.2461
1279.874, 432.7418
1280.356, 431.6903
1280.838, 429.9472
1281.320, 429.2161
1281.802, 429.4219
1282.285, 431.0660
1282.767, 433.6283
1283.249, 434.7868
1283.731, 432.5902
1284.213, 431.6679
1284.695, 432.5253
1285.177, 434.1194
1285.659, 436.3907
1286.141, 438.1783
1286.624, 437.3695
1287.106, 434.8813
1287.588, 433.3810
1288.070, 433.2150
1288.552, 433.4470
1289.034, 434.0703
1289.516, 434.6636
1289.998, 435.1565
1290.481, 435.2361
1290.963, 433.6147
1291.445, 431.9483
1291.927, 433.3535
1292.409, 438.1505
1292.891, 439.7276
1293.373, 438.1669
1293.855, 436.9887
1294.338, 439.2140
1294.820, 441.2285
1295.302, 441.3589
1295.784, 440.4307
1296.266, 438.3532
1296.748, 435.6231
1297.230, 436.3348
1297.712, 439.7346
1298.194, 442.3614
1298.677, 441.7077
1299.159, 441.3295
1299.641, 442.1758
1300.123, 442.6137
1300.605, 440.5557
1301.087, 437.6128
1301.569, 438.1409
1302.051, 440.7440
1302.533, 442.2784
1303.016, 441.7041
##END=



