##NAMES=Veenite
##RRUFFID=R130407
##IDEAL CHEMISTRY=Pb^2+^_2_Sb^3+^_2_S^2-^_5_
##LOCALITY=Madoc, Ontario, Canada
##OWNER=RRUFF
##SOURCE=Rock Currier
##DESCRIPTION=Steel gray metallic massive with red internal reflections, associated with boulangerite, reddish-brown sphalerite, and calcite
##STATUS=The identification of this mineral is confirmed by single-crystal X-ray diffraction and chemical analysis.
##URL=rruff.info/R130407
##MEASURED CHEMISTRY=(Pb_1.94_Ag_0.01_)_Σ1.95_(Sb_1.13_As_0.87_)_Σ2.00_S_5.00
8.975323e+001, 0.000000e+000
9.023535e+001, 3.104482e+002
9.071747e+001, 3.072371e+002
9.119958e+001, 3.049058e+002
9.168170e+001, 3.098120e+002
9.216382e+001, 3.138180e+002
9.264594e+001, 3.155063e+002
9.312805e+001, 3.157203e+002
9.361017e+001, 3.154048e+002
9.409229e+001, 3.142309e+002
9.457440e+001, 3.118592e+002
9.505651e+001, 3.091636e+002
9.553863e+001, 3.061429e+002
9.602074e+001, 3.031594e+002
9.650286e+001, 3.006280e+002
9.698498e+001, 2.985378e+002
9.746709e+001, 2.961031e+002
9.794921e+001, 2.932445e+002
9.843133e+001, 2.892970e+002
9.891344e+001, 2.858560e+002
9.939556e+001, 2.833445e+002
9.987768e+001, 2.815573e+002
1.003598e+002, 2.800698e+002
1.008419e+002, 2.786421e+002
1.013240e+002, 2.773159e+002
1.018061e+002, 2.761787e+002
1.022883e+002, 2.752350e+002
1.027704e+002, 2.744242e+002
1.032525e+002, 2.737242e+002
1.037346e+002, 2.731373e+002
1.042167e+002, 2.725539e+002
1.046988e+002, 2.717430e+002
1.051810e+002, 2.708231e+002
1.056631e+002, 2.700031e+002
1.061452e+002, 2.694264e+002
1.066273e+002, 2.690180e+002
1.071094e+002, 2.684694e+002
1.075915e+002, 2.676159e+002
1.080737e+002, 2.667984e+002
1.085558e+002, 2.660428e+002
1.090379e+002, 2.654082e+002
1.095200e+002, 2.650353e+002
1.100021e+002, 2.651570e+002
1.104842e+002, 2.659489e+002
1.109664e+002, 2.662982e+002
1.114485e+002, 2.657678e+002
1.119306e+002, 2.651908e+002
1.124127e+002, 2.649726e+002
1.128948e+002, 2.651584e+002
1.133769e+002, 2.655163e+002
1.138591e+002, 2.657157e+002
1.143412e+002, 2.656536e+002
1.148233e+002, 2.655938e+002
1.153054e+002, 2.655731e+002
1.157875e+002, 2.655351e+002
1.162696e+002, 2.654313e+002
1.167517e+002, 2.652442e+002
1.172339e+002, 2.649707e+002
1.177160e+002, 2.645685e+002
1.181981e+002, 2.639120e+002
1.186802e+002, 2.633888e+002
1.191623e+002, 2.631053e+002
1.196444e+002, 2.630363e+002
1.201266e+002, 2.631454e+002
1.206087e+002, 2.635092e+002
1.210908e+002, 2.639688e+002
1.215729e+002, 2.642330e+002
1.220550e+002, 2.643005e+002
1.225371e+002, 2.641744e+002
1.230193e+002, 2.637636e+002
1.235014e+002, 2.630235e+002
1.239835e+002, 2.623680e+002
1.244656e+002, 2.621099e+002
1.249477e+002, 2.620036e+002
1.254298e+002, 2.618355e+002
1.259120e+002, 2.615178e+002
1.263941e+002, 2.611218e+002
1.268762e+002, 2.608047e+002
1.273583e+002, 2.605738e+002
1.278404e+002, 2.604280e+002
1.283225e+002, 2.606055e+002
1.288047e+002, 2.608107e+002
1.292868e+002, 2.606074e+002
1.297689e+002, 2.596498e+002
1.302510e+002, 2.580120e+002
1.307331e+002, 2.567773e+002
1.312152e+002, 2.561293e+002
1.316974e+002, 2.557327e+002
1.321795e+002, 2.557659e+002
1.326616e+002, 2.560286e+002
1.331437e+002, 2.560872e+002
1.336258e+002, 2.555130e+002
1.341079e+002, 2.541355e+002
1.345901e+002, 2.532652e+002
1.350722e+002, 2.530401e+002
1.355543e+002, 2.530943e+002
1.360364e+002, 2.533091e+002
1.365185e+002, 2.536389e+002
1.370006e+002, 2.539935e+002
1.374828e+002, 2.542939e+002
1.379649e+002, 2.545547e+002
1.384470e+002, 2.546086e+002
1.389291e+002, 2.542249e+002
1.394112e+002, 2.537163e+002
1.398933e+002, 2.535611e+002
1.403755e+002, 2.539620e+002
1.408576e+002, 2.543340e+002
1.413397e+002, 2.537114e+002
1.418218e+002, 2.521879e+002
1.423039e+002, 2.508537e+002
1.427860e+002, 2.502036e+002
1.432681e+002, 2.501126e+002
1.437503e+002, 2.501346e+002
1.442324e+002, 2.502124e+002
1.447145e+002, 2.503450e+002
1.451966e+002, 2.505142e+002
1.456787e+002, 2.507194e+002
1.461608e+002, 2.509744e+002
1.466430e+002, 2.513749e+002
1.471251e+002, 2.519610e+002
1.476072e+002, 2.522953e+002
1.480893e+002, 2.519838e+002
1.485714e+002, 2.515832e+002
1.490535e+002, 2.513396e+002
1.495357e+002, 2.513166e+002
1.500178e+002, 2.515051e+002
1.504999e+002, 2.519686e+002
1.509820e+002, 2.530144e+002
1.514641e+002, 2.536489e+002
1.519462e+002, 2.536430e+002
1.524284e+002, 2.533603e+002
1.529105e+002, 2.530086e+002
1.533926e+002, 2.526797e+002
1.538747e+002, 2.524359e+002
1.543568e+002, 2.524398e+002
1.548389e+002, 2.529629e+002
1.553211e+002, 2.534333e+002
1.558032e+002, 2.539640e+002
1.562853e+002, 2.543884e+002
1.567674e+002, 2.544036e+002
1.572495e+002, 2.538263e+002
1.577316e+002, 2.528893e+002
1.582138e+002, 2.526181e+002
1.586959e+002, 2.538177e+002
1.591780e+002, 2.546832e+002
1.596601e+002, 2.544556e+002
1.601422e+002, 2.535386e+002
1.606243e+002, 2.528900e+002
1.611065e+002, 2.531079e+002
1.615886e+002, 2.540028e+002
1.620707e+002, 2.546186e+002
1.625528e+002, 2.548835e+002
1.630349e+002, 2.549718e+002
1.635170e+002, 2.548729e+002
1.639991e+002, 2.546135e+002
1.644813e+002, 2.544668e+002
1.649634e+002, 2.546616e+002
1.654455e+002, 2.550839e+002
1.659276e+002, 2.554559e+002
1.664097e+002, 2.557874e+002
1.668918e+002, 2.560285e+002
1.673740e+002, 2.561258e+002
1.678561e+002, 2.560778e+002
1.683382e+002, 2.558905e+002
1.688203e+002, 2.552314e+002
1.693024e+002, 2.545072e+002
1.697845e+002, 2.543003e+002
1.702667e+002, 2.550715e+002
1.707488e+002, 2.563523e+002
1.712309e+002, 2.570495e+002
1.717130e+002, 2.569425e+002
1.721951e+002, 2.566097e+002
1.726772e+002, 2.559852e+002
1.731594e+002, 2.553708e+002
1.736415e+002, 2.552656e+002
1.741236e+002, 2.561276e+002
1.746057e+002, 2.577205e+002
1.750878e+002, 2.585624e+002
1.755699e+002, 2.578696e+002
1.760521e+002, 2.572536e+002
1.765342e+002, 2.571353e+002
1.770163e+002, 2.574013e+002
1.774984e+002, 2.578097e+002
1.779805e+002, 2.581916e+002
1.784626e+002, 2.585470e+002
1.789448e+002, 2.589789e+002
1.794269e+002, 2.596930e+002
1.799090e+002, 2.602830e+002
1.803911e+002, 2.605380e+002
1.808732e+002, 2.605467e+002
1.813553e+002, 2.605267e+002
1.818375e+002, 2.606435e+002
1.823196e+002, 2.608869e+002
1.828017e+002, 2.614135e+002
1.832838e+002, 2.622817e+002
1.837659e+002, 2.633020e+002
1.842480e+002, 2.645036e+002
1.847301e+002, 2.658183e+002
1.852123e+002, 2.670201e+002
1.856944e+002, 2.678878e+002
1.861765e+002, 2.683664e+002
1.866586e+002, 2.687879e+002
1.871407e+002, 2.690457e+002
1.876228e+002, 2.693192e+002
1.881050e+002, 2.697361e+002
1.885871e+002, 2.703086e+002
1.890692e+002, 2.709880e+002
1.895513e+002, 2.717809e+002
1.900334e+002, 2.726771e+002
1.905155e+002, 2.734550e+002
1.909977e+002, 2.739731e+002
1.914798e+002, 2.744127e+002
1.919619e+002, 2.749961e+002
1.924440e+002, 2.757689e+002
1.929261e+002, 2.765858e+002
1.934082e+002, 2.772777e+002
1.938904e+002, 2.778917e+002
1.943725e+002, 2.785814e+002
1.948546e+002, 2.794776e+002
1.953367e+002, 2.804706e+002
1.958188e+002, 2.813268e+002
1.963009e+002, 2.819706e+002
1.967831e+002, 2.826037e+002
1.972652e+002, 2.833865e+002
1.977473e+002, 2.842805e+002
1.982294e+002, 2.851792e+002
1.987115e+002, 2.861178e+002
1.991936e+002, 2.870438e+002
1.996758e+002, 2.876613e+002
2.001579e+002, 2.876180e+002
2.006400e+002, 2.877651e+002
2.011221e+002, 2.887205e+002
2.016042e+002, 2.902173e+002
2.020863e+002, 2.915829e+002
2.025685e+002, 2.922892e+002
2.030506e+002, 2.923796e+002
2.035327e+002, 2.925807e+002
2.040148e+002, 2.930255e+002
2.044969e+002, 2.934456e+002
2.049790e+002, 2.937476e+002
2.054612e+002, 2.939413e+002
2.059433e+002, 2.940655e+002
2.064254e+002, 2.941282e+002
2.069075e+002, 2.941216e+002
2.073896e+002, 2.941983e+002
2.078717e+002, 2.946567e+002
2.083539e+002, 2.949248e+002
2.088360e+002, 2.947041e+002
2.093181e+002, 2.941084e+002
2.098002e+002, 2.934940e+002
2.102823e+002, 2.932424e+002
2.107644e+002, 2.934745e+002
2.112466e+002, 2.929903e+002
2.117287e+002, 2.910080e+002
2.122108e+002, 2.891128e+002
2.126929e+002, 2.880015e+002
2.131750e+002, 2.875790e+002
2.136571e+002, 2.873107e+002
2.141393e+002, 2.867102e+002
2.146214e+002, 2.857140e+002
2.151035e+002, 2.848168e+002
2.155856e+002, 2.841204e+002
2.160677e+002, 2.834093e+002
2.165498e+002, 2.826067e+002
2.170320e+002, 2.816975e+002
2.175141e+002, 2.806480e+002
2.179962e+002, 2.793938e+002
2.184783e+002, 2.778908e+002
2.189604e+002, 2.766671e+002
2.194425e+002, 2.759303e+002
2.199247e+002, 2.752614e+002
2.204068e+002, 2.744381e+002
2.208889e+002, 2.734413e+002
2.213710e+002, 2.723194e+002
2.218531e+002, 2.710738e+002
2.223352e+002, 2.696995e+002
2.228174e+002, 2.684850e+002
2.232995e+002, 2.676092e+002
2.237816e+002, 2.667584e+002
2.242637e+002, 2.656449e+002
2.247458e+002, 2.642661e+002
2.252279e+002, 2.629363e+002
2.257100e+002, 2.619790e+002
2.261922e+002, 2.613317e+002
2.266743e+002, 2.604417e+002
2.271564e+002, 2.589946e+002
2.276385e+002, 2.574685e+002
2.281206e+002, 2.563941e+002
2.286027e+002, 2.558120e+002
2.290849e+002, 2.552009e+002
2.295670e+002, 2.540255e+002
2.300491e+002, 2.525374e+002
2.305312e+002, 2.514349e+002
2.310133e+002, 2.511654e+002
2.314954e+002, 2.511522e+002
2.319776e+002, 2.507715e+002
2.324597e+002, 2.499998e+002
2.329418e+002, 2.490214e+002
2.334239e+002, 2.476292e+002
2.339060e+002, 2.461582e+002
2.343881e+002, 2.451835e+002
2.348703e+002, 2.451248e+002
2.353524e+002, 2.453915e+002
2.358345e+002, 2.451192e+002
2.363166e+002, 2.441644e+002
2.367987e+002, 2.432566e+002
2.372808e+002, 2.429944e+002
2.377630e+002, 2.429175e+002
2.382451e+002, 2.424565e+002
2.387272e+002, 2.412795e+002
2.392093e+002, 2.398717e+002
2.396914e+002, 2.390716e+002
2.401735e+002, 2.390735e+002
2.406557e+002, 2.390546e+002
2.411378e+002, 2.388050e+002
2.416199e+002, 2.383377e+002
2.421020e+002, 2.376052e+002
2.425841e+002, 2.365612e+002
2.430662e+002, 2.353482e+002
2.435484e+002, 2.341318e+002
2.440305e+002, 2.327724e+002
2.445126e+002, 2.318218e+002
2.449947e+002, 2.317613e+002
2.454768e+002, 2.319710e+002
2.459589e+002, 2.319222e+002
2.464410e+002, 2.314290e+002
2.469232e+002, 2.307117e+002
2.474053e+002, 2.301278e+002
2.478874e+002, 2.297039e+002
2.483695e+002, 2.293640e+002
2.488516e+002, 2.292519e+002
2.493337e+002, 2.291169e+002
2.498159e+002, 2.287170e+002
2.502980e+002, 2.279854e+002
2.507801e+002, 2.271238e+002
2.512622e+002, 2.264716e+002
2.517443e+002, 2.261362e+002
2.522264e+002, 2.257805e+002
2.527086e+002, 2.253515e+002
2.531907e+002, 2.249079e+002
2.536728e+002, 2.244596e+002
2.541549e+002, 2.240212e+002
2.546370e+002, 2.236436e+002
2.551191e+002, 2.234191e+002
2.556013e+002, 2.234463e+002
2.560834e+002, 2.234213e+002
2.565655e+002, 2.235173e+002
2.570476e+002, 2.234501e+002
2.575297e+002, 2.229612e+002
2.580118e+002, 2.220409e+002
2.584940e+002, 2.209379e+002
2.589761e+002, 2.199659e+002
2.594582e+002, 2.191067e+002
2.599403e+002, 2.184538e+002
2.604224e+002, 2.181136e+002
2.609045e+002, 2.178456e+002
2.613867e+002, 2.175389e+002
2.618688e+002, 2.171616e+002
2.623509e+002, 2.167219e+002
2.628330e+002, 2.162406e+002
2.633151e+002, 2.157686e+002
2.637972e+002, 2.150362e+002
2.642794e+002, 2.138836e+002
2.647615e+002, 2.126626e+002
2.652436e+002, 2.115657e+002
2.657257e+002, 2.106005e+002
2.662078e+002, 2.096518e+002
2.666899e+002, 2.085849e+002
2.671721e+002, 2.073435e+002
2.676542e+002, 2.063970e+002
2.681363e+002, 2.061268e+002
2.686184e+002, 2.057462e+002
2.691005e+002, 2.047780e+002
2.695826e+002, 2.033163e+002
2.700648e+002, 2.018036e+002
2.705469e+002, 2.006063e+002
2.710290e+002, 1.997472e+002
2.715111e+002, 1.987473e+002
2.719932e+002, 1.975669e+002
2.724753e+002, 1.963208e+002
2.729575e+002, 1.950108e+002
2.734396e+002, 1.936709e+002
2.739217e+002, 1.923728e+002
2.744038e+002, 1.911562e+002
2.748859e+002, 1.900233e+002
2.753680e+002, 1.890399e+002
2.758501e+002, 1.883787e+002
2.763322e+002, 1.876421e+002
2.768144e+002, 1.867254e+002
2.772965e+002, 1.856289e+002
2.777786e+002, 1.843328e+002
2.782607e+002, 1.827875e+002
2.787428e+002, 1.810903e+002
2.792249e+002, 1.796621e+002
2.797071e+002, 1.786138e+002
2.801892e+002, 1.776355e+002
2.806713e+002, 1.766431e+002
2.811534e+002, 1.756700e+002
2.816355e+002, 1.748189e+002
2.821176e+002, 1.741648e+002
2.825998e+002, 1.735618e+002
2.830819e+002, 1.726100e+002
2.835640e+002, 1.710622e+002
2.840461e+002, 1.696822e+002
2.845282e+002, 1.686004e+002
2.850103e+002, 1.677855e+002
2.854925e+002, 1.672387e+002
2.859746e+002, 1.669794e+002
2.864567e+002, 1.668690e+002
2.869388e+002, 1.666529e+002
2.874209e+002, 1.662434e+002
2.879030e+002, 1.660300e+002
2.883852e+002, 1.662732e+002
2.888673e+002, 1.666660e+002
2.893494e+002, 1.668145e+002
2.898315e+002, 1.666239e+002
2.903136e+002, 1.663028e+002
2.907957e+002, 1.660558e+002
2.912779e+002, 1.658705e+002
2.917600e+002, 1.659019e+002
2.922421e+002, 1.662683e+002
2.927242e+002, 1.668007e+002
2.932063e+002, 1.674098e+002
2.936884e+002, 1.680792e+002
2.941706e+002, 1.686296e+002
2.946527e+002, 1.688366e+002
2.951348e+002, 1.686961e+002
2.956169e+002, 1.687318e+002
2.960990e+002, 1.690848e+002
2.965811e+002, 1.695313e+002
2.970633e+002, 1.699252e+002
2.975454e+002, 1.702553e+002
2.980275e+002, 1.705297e+002
2.985096e+002, 1.707270e+002
2.989917e+002, 1.708703e+002
2.994738e+002, 1.710979e+002
2.999560e+002, 1.714819e+002
3.004381e+002, 1.718807e+002
3.009202e+002, 1.722475e+002
3.014023e+002, 1.725709e+002
3.018844e+002, 1.727963e+002
3.023665e+002, 1.728587e+002
3.028487e+002, 1.728294e+002
3.033308e+002, 1.729295e+002
3.038129e+002, 1.732384e+002
3.042950e+002, 1.735332e+002
3.047771e+002, 1.737244e+002
3.052592e+002, 1.738263e+002
3.057414e+002, 1.739051e+002
3.062235e+002, 1.740276e+002
3.067056e+002, 1.740580e+002
3.071877e+002, 1.736519e+002
3.076698e+002, 1.726909e+002
3.081519e+002, 1.718628e+002
3.086341e+002, 1.713708e+002
3.091162e+002, 1.711593e+002
3.095983e+002, 1.712922e+002
3.100804e+002, 1.718902e+002
3.105625e+002, 1.723769e+002
3.110446e+002, 1.717685e+002
3.115268e+002, 1.700284e+002
3.120089e+002, 1.686186e+002
3.124910e+002, 1.681530e+002
3.129731e+002, 1.680144e+002
3.134552e+002, 1.674451e+002
3.139373e+002, 1.663289e+002
3.144195e+002, 1.650477e+002
3.149016e+002, 1.639342e+002
3.153837e+002, 1.629727e+002
3.158658e+002, 1.619440e+002
3.163479e+002, 1.605759e+002
3.168300e+002, 1.593144e+002
3.173121e+002, 1.586886e+002
3.177943e+002, 1.586541e+002
3.182764e+002, 1.585105e+002
3.187585e+002, 1.577687e+002
3.192406e+002, 1.565215e+002
3.197227e+002, 1.553521e+002
3.202048e+002, 1.541747e+002
3.206870e+002, 1.531501e+002
3.211691e+002, 1.524678e+002
3.216512e+002, 1.520398e+002
3.221333e+002, 1.515524e+002
3.226154e+002, 1.508807e+002
3.230975e+002, 1.500388e+002
3.235797e+002, 1.490639e+002
3.240618e+002, 1.478761e+002
3.245439e+002, 1.467460e+002
3.250260e+002, 1.458430e+002
3.255081e+002, 1.450509e+002
3.259902e+002, 1.441220e+002
3.264724e+002, 1.429589e+002
3.269545e+002, 1.417085e+002
3.274366e+002, 1.406429e+002
3.279187e+002, 1.398344e+002
3.284008e+002, 1.387900e+002
3.288829e+002, 1.373174e+002
3.293651e+002, 1.356111e+002
3.298472e+002, 1.338558e+002
3.303293e+002, 1.320829e+002
3.308114e+002, 1.303389e+002
3.312935e+002, 1.286728e+002
3.317756e+002, 1.270941e+002
3.322578e+002, 1.254760e+002
3.327399e+002, 1.236751e+002
3.332220e+002, 1.219498e+002
3.337041e+002, 1.205717e+002
3.341862e+002, 1.195056e+002
3.346683e+002, 1.183774e+002
3.351505e+002, 1.169172e+002
3.356326e+002, 1.151703e+002
3.361147e+002, 1.135531e+002
3.365968e+002, 1.120747e+002
3.370789e+002, 1.106805e+002
3.375610e+002, 1.094165e+002
3.380432e+002, 1.082176e+002
3.385253e+002, 1.069225e+002
3.390074e+002, 1.054363e+002
3.394895e+002, 1.038607e+002
3.399716e+002, 1.024889e+002
3.404537e+002, 1.014057e+002
3.409359e+002, 1.003397e+002
3.414180e+002, 9.920207e+001
3.419001e+002, 9.806604e+001
3.423822e+002, 9.705029e+001
3.428643e+002, 9.619263e+001
3.433464e+002, 9.539576e+001
3.438286e+002, 9.451553e+001
3.443107e+002, 9.347543e+001
3.447928e+002, 9.259911e+001
3.452749e+002, 9.208521e+001
3.457570e+002, 9.160592e+001
3.462391e+002, 9.092730e+001
3.467213e+002, 9.003013e+001
3.472034e+002, 8.896342e+001
3.476855e+002, 8.772462e+001
3.481676e+002, 8.628899e+001
3.486497e+002, 8.529155e+001
3.491318e+002, 8.515859e+001
3.496140e+002, 8.495850e+001
3.500961e+002, 8.416782e+001
3.505782e+002, 8.299689e+001
3.510603e+002, 8.197580e+001
3.515424e+002, 8.142925e+001
3.520245e+002, 8.124453e+001
3.525067e+002, 8.093477e+001
3.529888e+002, 8.036918e+001
3.534709e+002, 7.984217e+001
3.539530e+002, 7.929850e+001
3.544351e+002, 7.884734e+001
3.549172e+002, 7.871077e+001
3.553994e+002, 7.895087e+001
3.558815e+002, 7.925512e+001
3.563636e+002, 7.907030e+001
3.568457e+002, 7.801012e+001
3.573278e+002, 7.723294e+001
3.578099e+002, 7.689558e+001
3.582920e+002, 7.669349e+001
3.587741e+002, 7.646152e+001
3.592563e+002, 7.616233e+001
3.597384e+002, 7.579768e+001
3.602205e+002, 7.533666e+001
3.607026e+002, 7.473978e+001
3.611847e+002, 7.444239e+001
3.616668e+002, 7.489757e+001
3.621490e+002, 7.516441e+001
3.626311e+002, 7.485051e+001
3.631132e+002, 7.412038e+001
3.635953e+002, 7.329323e+001
3.640774e+002, 7.254607e+001
3.645595e+002, 7.189676e+001
3.650417e+002, 7.142828e+001
3.655238e+002, 7.128332e+001
3.660059e+002, 7.113651e+001
3.664880e+002, 7.106567e+001
3.669701e+002, 7.091845e+001
3.674522e+002, 7.047427e+001
3.679344e+002, 6.968626e+001
3.684165e+002, 6.881086e+001
3.688986e+002, 6.827538e+001
3.693807e+002, 6.825446e+001
3.698628e+002, 6.810229e+001
3.703449e+002, 6.778638e+001
3.708271e+002, 6.735413e+001
3.713092e+002, 6.672057e+001
3.717913e+002, 6.595814e+001
3.722734e+002, 6.529163e+001
3.727555e+002, 6.495216e+001
3.732376e+002, 6.492888e+001
3.737198e+002, 6.484939e+001
3.742019e+002, 6.478233e+001
3.746840e+002, 6.455630e+001
3.751661e+002, 6.403068e+001
3.756482e+002, 6.334007e+001
3.761303e+002, 6.267981e+001
3.766125e+002, 6.213002e+001
3.770946e+002, 6.168867e+001
3.775767e+002, 6.136163e+001
3.780588e+002, 6.117853e+001
3.785409e+002, 6.102709e+001
3.790230e+002, 6.087737e+001
3.795052e+002, 6.074537e+001
3.799873e+002, 6.065987e+001
3.804694e+002, 6.062528e+001
3.809515e+002, 6.058248e+001
3.814336e+002, 6.047300e+001
3.819157e+002, 6.029735e+001
3.823979e+002, 6.008572e+001
3.828800e+002, 5.977538e+001
3.833621e+002, 5.951258e+001
3.838442e+002, 5.946198e+001
3.843263e+002, 5.955371e+001
3.848084e+002, 5.953284e+001
3.852906e+002, 5.916517e+001
3.857727e+002, 5.860747e+001
3.862548e+002, 5.818950e+001
3.867369e+002, 5.790452e+001
3.872190e+002, 5.779161e+001
3.877011e+002, 5.804509e+001
3.881833e+002, 5.844240e+001
3.886654e+002, 5.867393e+001
3.891475e+002, 5.867662e+001
3.896296e+002, 5.851205e+001
3.901117e+002, 5.815469e+001
3.905938e+002, 5.763467e+001
3.910760e+002, 5.718609e+001
3.915581e+002, 5.684995e+001
3.920402e+002, 5.667085e+001
3.925223e+002, 5.676754e+001
3.930044e+002, 5.716851e+001
3.934865e+002, 5.744957e+001
3.939687e+002, 5.734108e+001
3.944508e+002, 5.704326e+001
3.949329e+002, 5.691454e+001
3.954150e+002, 5.702431e+001
3.958971e+002, 5.707730e+001
3.963792e+002, 5.670246e+001
3.968614e+002, 5.596963e+001
3.973435e+002, 5.565056e+001
3.978256e+002, 5.614660e+001
3.983077e+002, 5.673981e+001
3.987898e+002, 5.699031e+001
3.992719e+002, 5.694044e+001
3.997540e+002, 5.677285e+001
4.002361e+002, 5.655822e+001
4.007183e+002, 5.631728e+001
4.012004e+002, 5.611144e+001
4.016825e+002, 5.591835e+001
4.021646e+002, 5.578987e+001
4.026467e+002, 5.586879e+001
4.031288e+002, 5.595610e+001
4.036110e+002, 5.574417e+001
4.040931e+002, 5.518624e+001
4.045752e+002, 5.460842e+001
4.050573e+002, 5.440525e+001
4.055394e+002, 5.466984e+001
4.060215e+002, 5.487704e+001
4.065037e+002, 5.506584e+001
4.069858e+002, 5.516947e+001
4.074679e+002, 5.509232e+001
4.079500e+002, 5.490037e+001
4.084321e+002, 5.476171e+001
4.089142e+002, 5.478873e+001
4.093964e+002, 5.493069e+001
4.098785e+002, 5.495272e+001
4.103606e+002, 5.474363e+001
4.108427e+002, 5.455029e+001
4.113248e+002, 5.429595e+001
4.118069e+002, 5.411757e+001
4.122891e+002, 5.420978e+001
4.127712e+002, 5.459418e+001
4.132533e+002, 5.503590e+001
4.137354e+002, 5.520723e+001
4.142175e+002, 5.503050e+001
4.146996e+002, 5.489620e+001
4.151818e+002, 5.458644e+001
4.156639e+002, 5.452962e+001
4.161460e+002, 5.522957e+001
4.166281e+002, 5.633735e+001
4.171102e+002, 5.697477e+001
4.175923e+002, 5.641899e+001
4.180745e+002, 5.514004e+001
4.185566e+002, 5.489128e+001
4.190387e+002, 5.635891e+001
4.195208e+002, 5.732677e+001
4.200029e+002, 5.675741e+001
4.204850e+002, 5.560525e+001
4.209672e+002, 5.467683e+001
4.214493e+002, 5.416357e+001
4.219314e+002, 5.386945e+001
4.224135e+002, 5.360181e+001
4.228956e+002, 5.336682e+001
4.233777e+002, 5.330701e+001
4.238599e+002, 5.359405e+001
4.243420e+002, 5.385146e+001
4.248241e+002, 5.371839e+001
4.253062e+002, 5.330211e+001
4.257883e+002, 5.299199e+001
4.262704e+002, 5.303716e+001
4.267526e+002, 5.324294e+001
4.272347e+002, 5.332183e+001
4.277168e+002, 5.326707e+001
4.281989e+002, 5.318865e+001
4.286810e+002, 5.313859e+001
4.291631e+002, 5.310439e+001
4.296453e+002, 5.306030e+001
4.301274e+002, 5.301211e+001
4.306095e+002, 5.294033e+001
4.310916e+002, 5.278138e+001
4.315737e+002, 5.260003e+001
4.320558e+002, 5.254146e+001
4.325380e+002, 5.265057e+001
4.330201e+002, 5.282443e+001
4.335022e+002, 5.296217e+001
4.339843e+002, 5.306304e+001
4.344664e+002, 5.308712e+001
4.349485e+002, 5.295121e+001
4.354307e+002, 5.280704e+001
4.359128e+002, 5.278565e+001
4.363949e+002, 5.285089e+001
4.368770e+002, 5.286127e+001
4.373591e+002, 5.272884e+001
4.378412e+002, 5.249183e+001
4.383234e+002, 5.229778e+001
4.388055e+002, 5.211729e+001
4.392876e+002, 5.202045e+001
4.397697e+002, 5.206287e+001
4.402518e+002, 5.216313e+001
4.407339e+002, 5.227341e+001
4.412160e+002, 5.236987e+001
4.416982e+002, 5.240945e+001
4.421803e+002, 5.232842e+001
4.426624e+002, 5.210088e+001
4.431445e+002, 5.194236e+001
4.436266e+002, 5.190216e+001
4.441087e+002, 5.188184e+001
4.445909e+002, 5.182915e+001
4.450730e+002, 5.178127e+001
4.455551e+002, 5.182829e+001
4.460372e+002, 5.203166e+001
4.465193e+002, 5.227483e+001
4.470014e+002, 5.226727e+001
4.474836e+002, 5.189699e+001
4.479657e+002, 5.161034e+001
4.484478e+002, 5.156220e+001
4.489299e+002, 5.156939e+001
4.494120e+002, 5.149446e+001
4.498941e+002, 5.134320e+001
4.503763e+002, 5.125335e+001
4.508584e+002, 5.140837e+001
4.513405e+002, 5.172760e+001
4.518226e+002, 5.185254e+001
4.523047e+002, 5.173298e+001
4.527868e+002, 5.152703e+001
4.532690e+002, 5.125243e+001
4.537511e+002, 5.096749e+001
4.542332e+002, 5.075395e+001
4.547153e+002, 5.061505e+001
4.551974e+002, 5.057938e+001
4.556795e+002, 5.073954e+001
4.561617e+002, 5.104270e+001
4.566438e+002, 5.126208e+001
4.571259e+002, 5.133160e+001
4.576080e+002, 5.130021e+001
4.580901e+002, 5.121331e+001
4.585722e+002, 5.107430e+001
4.590544e+002, 5.090793e+001
4.595365e+002, 5.070315e+001
4.600186e+002, 5.048473e+001
4.605007e+002, 5.021909e+001
4.609828e+002, 4.993811e+001
4.614649e+002, 4.981124e+001
4.619471e+002, 4.997727e+001
4.624292e+002, 5.034143e+001
4.629113e+002, 5.050954e+001
4.633934e+002, 5.027723e+001
4.638755e+002, 5.013073e+001
4.643576e+002, 5.023632e+001
4.648398e+002, 5.039203e+001
4.653219e+002, 5.034585e+001
4.658040e+002, 5.007263e+001
4.662861e+002, 4.979634e+001
4.667682e+002, 4.977988e+001
4.672503e+002, 5.006317e+001
4.677325e+002, 5.021679e+001
4.682146e+002, 5.013003e+001
4.686967e+002, 5.002848e+001
4.691788e+002, 4.997303e+001
4.696609e+002, 4.993968e+001
4.701430e+002, 4.987886e+001
4.706252e+002, 4.976694e+001
4.711073e+002, 4.964755e+001
4.715894e+002, 4.963213e+001
4.720715e+002, 4.977962e+001
4.725536e+002, 4.976903e+001
4.730357e+002, 4.931361e+001
4.735179e+002, 4.889527e+001
4.740000e+002, 4.882866e+001
4.744821e+002, 4.906134e+001
4.749642e+002, 4.931670e+001
4.754463e+002, 4.943036e+001
4.759284e+002, 4.945668e+001
4.764106e+002, 4.953997e+001
4.768927e+002, 4.970406e+001
4.773748e+002, 4.976896e+001
4.778569e+002, 4.959701e+001
4.783390e+002, 4.929909e+001
4.788211e+002, 4.903426e+001
4.793033e+002, 4.878669e+001
4.797854e+002, 4.865355e+001
4.802675e+002, 4.877982e+001
4.807496e+002, 4.902955e+001
4.812317e+002, 4.912970e+001
4.817138e+002, 4.902637e+001
4.821959e+002, 4.892099e+001
4.826780e+002, 4.903333e+001
4.831602e+002, 4.935083e+001
4.836423e+002, 4.941790e+001
4.841244e+002, 4.905146e+001
4.846065e+002, 4.865069e+001
4.850886e+002, 4.829975e+001
4.855707e+002, 4.803999e+001
4.860529e+002, 4.796892e+001
4.865350e+002, 4.812006e+001
4.870171e+002, 4.835246e+001
4.874992e+002, 4.842307e+001
4.879813e+002, 4.822614e+001
4.884634e+002, 4.816069e+001
4.889456e+002, 4.835434e+001
4.894277e+002, 4.853511e+001
4.899098e+002, 4.859827e+001
4.903919e+002, 4.854030e+001
4.908740e+002, 4.835755e+001
4.913561e+002, 4.802261e+001
4.918383e+002, 4.763508e+001
4.923204e+002, 4.749723e+001
4.928025e+002, 4.772125e+001
4.932846e+002, 4.788558e+001
4.937667e+002, 4.780439e+001
4.942488e+002, 4.770475e+001
4.947310e+002, 4.780099e+001
4.952131e+002, 4.807227e+001
4.956952e+002, 4.823436e+001
4.961773e+002, 4.797797e+001
4.966594e+002, 4.747172e+001
4.971415e+002, 4.719476e+001
4.976237e+002, 4.719454e+001
4.981058e+002, 4.724448e+001
4.985879e+002, 4.724071e+001
4.990700e+002, 4.720063e+001
4.995521e+002, 4.716565e+001
5.000342e+002, 4.715631e+001
5.005164e+002, 4.710649e+001
5.009985e+002, 4.691226e+001
5.014806e+002, 4.667366e+001
5.019627e+002, 4.660885e+001
5.024448e+002, 4.676521e+001
5.029269e+002, 4.690966e+001
5.034091e+002, 4.678892e+001
5.038912e+002, 4.638964e+001
5.043733e+002, 4.621328e+001
5.048554e+002, 4.646021e+001
5.053375e+002, 4.667953e+001
5.058196e+002, 4.667335e+001
5.063018e+002, 4.654797e+001
5.067839e+002, 4.648086e+001
5.072660e+002, 4.653382e+001
5.077481e+002, 4.662189e+001
5.082302e+002, 4.661384e+001
5.087123e+002, 4.648758e+001
5.091945e+002, 4.634458e+001
5.096766e+002, 4.613718e+001
5.101587e+002, 4.596111e+001
5.106408e+002, 4.586298e+001
5.111229e+002, 4.582143e+001
5.116050e+002, 4.577724e+001
5.120872e+002, 4.568492e+001
5.125693e+002, 4.562959e+001
5.130514e+002, 4.582258e+001
5.135335e+002, 4.631618e+001
5.140156e+002, 4.666013e+001
5.144977e+002, 4.672164e+001
5.149799e+002, 4.662896e+001
5.154620e+002, 4.645123e+001
5.159441e+002, 4.620782e+001
5.164262e+002, 4.601245e+001
5.169083e+002, 4.596682e+001
5.173904e+002, 4.596315e+001
5.178726e+002, 4.583276e+001
5.183547e+002, 4.558673e+001
5.188368e+002, 4.540496e+001
5.193189e+002, 4.538518e+001
5.198010e+002, 4.546492e+001
5.202831e+002, 4.550581e+001
5.207653e+002, 4.549370e+001
5.212474e+002, 4.549314e+001
5.217295e+002, 4.553929e+001
5.222116e+002, 4.558416e+001
5.226937e+002, 4.559109e+001
5.231758e+002, 4.555565e+001
5.236580e+002, 4.547359e+001
5.241401e+002, 4.533062e+001
5.246222e+002, 4.515443e+001
5.251043e+002, 4.509460e+001
5.255864e+002, 4.534182e+001
5.260685e+002, 4.542904e+001
5.265507e+002, 4.513896e+001
5.270328e+002, 4.480449e+001
5.275149e+002, 4.475536e+001
5.279970e+002, 4.498767e+001
5.284791e+002, 4.519168e+001
5.289612e+002, 4.505591e+001
5.294434e+002, 4.464929e+001
5.299255e+002, 4.439083e+001
5.304076e+002, 4.431196e+001
5.308897e+002, 4.431150e+001
5.313718e+002, 4.445730e+001
5.318539e+002, 4.460677e+001
5.323361e+002, 4.458191e+001
5.328182e+002, 4.433142e+001
5.333003e+002, 4.408332e+001
5.337824e+002, 4.398057e+001
5.342645e+002, 4.398706e+001
5.347466e+002, 4.405051e+001
5.352288e+002, 4.417120e+001
5.357109e+002, 4.425610e+001
5.361930e+002, 4.422422e+001
5.366751e+002, 4.409357e+001
5.371572e+002, 4.398976e+001
5.376393e+002, 4.395914e+001
5.381215e+002, 4.389589e+001
5.386036e+002, 4.370621e+001
5.390857e+002, 4.349619e+001
5.395678e+002, 4.341308e+001
5.400499e+002, 4.347915e+001
5.405320e+002, 4.359336e+001
5.410142e+002, 4.365433e+001
5.414963e+002, 4.366111e+001
5.419784e+002, 4.364374e+001
5.424604e+002, 4.361607e+001
5.429426e+002, 4.354365e+001
5.434247e+002, 4.336497e+001
5.439068e+002, 4.316438e+001
5.443889e+002, 4.303598e+001
5.448710e+002, 4.300422e+001
5.453531e+002, 4.302686e+001
5.458353e+002, 4.309814e+001
5.463174e+002, 4.320592e+001
5.467995e+002, 4.318219e+001
5.472816e+002, 4.295099e+001
5.477637e+002, 4.273121e+001
5.482458e+002, 4.264185e+001
5.487280e+002, 4.265855e+001
5.492101e+002, 4.277652e+001
5.496922e+002, 4.306720e+001
5.501743e+002, 4.330410e+001
5.506564e+002, 4.332252e+001
5.511385e+002, 4.318967e+001
5.516207e+002, 4.303176e+001
5.521028e+002, 4.287423e+001
5.525849e+002, 4.272218e+001
5.530670e+002, 4.257241e+001
5.535491e+002, 4.242490e+001
5.540313e+002, 4.235230e+001
5.545134e+002, 4.239310e+001
5.549955e+002, 4.245084e+001
5.554776e+002, 4.251941e+001
5.559597e+002, 4.258144e+001
5.564418e+002, 4.263539e+001
5.569240e+002, 4.267274e+001
5.574061e+002, 4.263827e+001
5.578882e+002, 4.240316e+001
5.583703e+002, 4.194806e+001
5.588524e+002, 4.189412e+001
5.593345e+002, 4.270147e+001
5.598167e+002, 4.324323e+001
5.602988e+002, 4.293615e+001
5.607809e+002, 4.227827e+001
5.612630e+002, 4.188422e+001
5.617451e+002, 4.192446e+001
5.622272e+002, 4.205880e+001
5.627094e+002, 4.198069e+001
5.631915e+002, 4.175657e+001
5.636736e+002, 4.161436e+001
5.641557e+002, 4.158949e+001
5.646378e+002, 4.159735e+001
5.651199e+002, 4.158508e+001
5.656021e+002, 4.155620e+001
5.660842e+002, 4.152916e+001
5.665663e+002, 4.150698e+001
5.670484e+002, 4.148302e+001
5.675305e+002, 4.143668e+001
5.680126e+002, 4.139643e+001
5.684948e+002, 4.144044e+001
5.689769e+002, 4.156034e+001
5.694590e+002, 4.160135e+001
5.699411e+002, 4.139559e+001
5.704232e+002, 4.096290e+001
5.709053e+002, 4.069698e+001
5.713875e+002, 4.069604e+001
5.718696e+002, 4.073952e+001
5.723517e+002, 4.082990e+001
5.728338e+002, 4.092449e+001
5.733159e+002, 4.097682e+001
5.737980e+002, 4.098442e+001
5.742802e+002, 4.099337e+001
5.747623e+002, 4.108912e+001
5.752444e+002, 4.122542e+001
5.757265e+002, 4.117373e+001
5.762086e+002, 4.087902e+001
5.766907e+002, 4.063217e+001
5.771729e+002, 4.063419e+001
5.776550e+002, 4.072949e+001
5.781371e+002, 4.062913e+001
5.786192e+002, 4.025475e+001
5.791013e+002, 4.001936e+001
5.795834e+002, 4.022263e+001
5.800656e+002, 4.056116e+001
5.805477e+002, 4.067060e+001
5.810298e+002, 4.054850e+001
5.815119e+002, 4.041893e+001
5.819940e+002, 4.042964e+001
5.824761e+002, 4.052453e+001
5.829583e+002, 4.050813e+001
5.834404e+002, 4.021346e+001
5.839225e+002, 4.006321e+001
5.844046e+002, 4.018013e+001
5.848867e+002, 4.033664e+001
5.853688e+002, 4.039835e+001
5.858510e+002, 4.036306e+001
5.863331e+002, 4.028361e+001
5.868152e+002, 4.019164e+001
5.872973e+002, 4.007887e+001
5.877794e+002, 3.989494e+001
5.882615e+002, 3.961134e+001
5.887437e+002, 3.946413e+001
5.892258e+002, 3.962191e+001
5.897079e+002, 3.981109e+001
5.901900e+002, 3.974347e+001
5.906721e+002, 3.946177e+001
5.911542e+002, 3.924172e+001
5.916364e+002, 3.916753e+001
5.921185e+002, 3.918792e+001
5.926006e+002, 3.931310e+001
5.930827e+002, 3.950139e+001
5.935648e+002, 3.963645e+001
5.940469e+002, 3.967608e+001
5.945291e+002, 3.964885e+001
5.950112e+002, 3.959346e+001
5.954933e+002, 3.951282e+001
5.959754e+002, 3.938830e+001
5.964575e+002, 3.916320e+001
5.969396e+002, 3.896449e+001
5.974218e+002, 3.885831e+001
5.979039e+002, 3.879808e+001
5.983860e+002, 3.869291e+001
5.988681e+002, 3.851569e+001
5.993502e+002, 3.837227e+001
5.998323e+002, 3.844410e+001
6.003145e+002, 3.871859e+001
6.007966e+002, 3.881331e+001
6.012787e+002, 3.861224e+001
6.017608e+002, 3.844356e+001
6.022429e+002, 3.861184e+001
6.027250e+002, 3.889572e+001
6.032072e+002, 3.892474e+001
6.036893e+002, 3.856015e+001
6.041714e+002, 3.822454e+001
6.046535e+002, 3.816273e+001
6.051356e+002, 3.824602e+001
6.056177e+002, 3.831527e+001
6.060999e+002, 3.834230e+001
6.065820e+002, 3.830515e+001
6.070641e+002, 3.817723e+001
6.075462e+002, 3.798420e+001
6.080283e+002, 3.784032e+001
6.085104e+002, 3.776012e+001
6.089926e+002, 3.771423e+001
6.094747e+002, 3.772391e+001
6.099568e+002, 3.774837e+001
6.104389e+002, 3.772443e+001
6.109210e+002, 3.768373e+001
6.114031e+002, 3.776118e+001
6.118853e+002, 3.811482e+001
6.123674e+002, 3.851776e+001
6.128495e+002, 3.838532e+001
6.133316e+002, 3.764964e+001
6.138137e+002, 3.719435e+001
6.142958e+002, 3.735455e+001
6.147780e+002, 3.770515e+001
6.152601e+002, 3.783160e+001
6.157422e+002, 3.776908e+001
6.162243e+002, 3.770972e+001
6.167064e+002, 3.769413e+001
6.171885e+002, 3.769135e+001
6.176707e+002, 3.769789e+001
6.181528e+002, 3.769982e+001
6.186349e+002, 3.765639e+001
6.191170e+002, 3.755796e+001
6.195991e+002, 3.746526e+001
6.200812e+002, 3.745839e+001
6.205634e+002, 3.754693e+001
6.210455e+002, 3.757314e+001
6.215276e+002, 3.747705e+001
6.220097e+002, 3.738994e+001
6.224918e+002, 3.734544e+001
6.229739e+002, 3.731936e+001
6.234561e+002, 3.730013e+001
6.239382e+002, 3.728070e+001
6.244203e+002, 3.722548e+001
6.249023e+002, 3.706782e+001
6.253845e+002, 3.685789e+001
6.258666e+002, 3.674127e+001
6.263487e+002, 3.672768e+001
6.268308e+002, 3.671740e+001
6.273129e+002, 3.663686e+001
6.277950e+002, 3.655989e+001
6.282772e+002, 3.666656e+001
6.287593e+002, 3.701467e+001
6.292414e+002, 3.723803e+001
6.297235e+002, 3.726847e+001
6.302056e+002, 3.717162e+001
6.306877e+002, 3.690064e+001
6.311699e+002, 3.654702e+001
6.316520e+002, 3.629992e+001
6.321341e+002, 3.624707e+001
6.326162e+002, 3.631922e+001
6.330983e+002, 3.642176e+001
6.335804e+002, 3.657514e+001
6.340626e+002, 3.665037e+001
6.345447e+002, 3.656402e+001
6.350268e+002, 3.650665e+001
6.355089e+002, 3.663690e+001
6.359910e+002, 3.682161e+001
6.364731e+002, 3.682839e+001
6.369553e+002, 3.656030e+001
6.374374e+002, 3.630607e+001
6.379195e+002, 3.634979e+001
6.384016e+002, 3.652581e+001
6.388837e+002, 3.649287e+001
6.393658e+002, 3.621888e+001
6.398480e+002, 3.593062e+001
6.403301e+002, 3.577047e+001
6.408122e+002, 3.571012e+001
6.412943e+002, 3.565344e+001
6.417764e+002, 3.553156e+001
6.422585e+002, 3.552168e+001
6.427407e+002, 3.574163e+001
6.432228e+002, 3.596797e+001
6.437049e+002, 3.607740e+001
6.441870e+002, 3.607228e+001
6.446691e+002, 3.597686e+001
6.451512e+002, 3.578547e+001
6.456334e+002, 3.559903e+001
6.461155e+002, 3.562122e+001
6.465976e+002, 3.584980e+001
6.470797e+002, 3.598882e+001
6.475618e+002, 3.598388e+001
6.480439e+002, 3.590461e+001
6.485261e+002, 3.575404e+001
6.490082e+002, 3.556994e+001
6.494903e+002, 3.548147e+001
6.499724e+002, 3.559860e+001
6.504545e+002, 3.565719e+001
6.509366e+002, 3.549941e+001
6.514188e+002, 3.525688e+001
6.519009e+002, 3.506838e+001
6.523830e+002, 3.495893e+001
6.528651e+002, 3.491898e+001
6.533472e+002, 3.495123e+001
6.538293e+002, 3.502600e+001
6.543115e+002, 3.501397e+001
6.547936e+002, 3.482364e+001
6.552757e+002, 3.476872e+001
6.557578e+002, 3.510623e+001
6.562399e+002, 3.540517e+001
6.567220e+002, 3.539614e+001
6.572042e+002, 3.514635e+001
6.576863e+002, 3.488359e+001
6.581684e+002, 3.465452e+001
6.586505e+002, 3.450517e+001
6.591326e+002, 3.452305e+001
6.596147e+002, 3.465443e+001
6.600969e+002, 3.474641e+001
6.605790e+002, 3.476534e+001
6.610611e+002, 3.477305e+001
6.615432e+002, 3.482884e+001
6.620253e+002, 3.492464e+001
6.625074e+002, 3.497154e+001
6.629896e+002, 3.495220e+001
6.634717e+002, 3.490553e+001
6.639538e+002, 3.484987e+001
6.644359e+002, 3.475653e+001
6.649180e+002, 3.453349e+001
6.654001e+002, 3.423856e+001
6.658823e+002, 3.408760e+001
6.663644e+002, 3.426765e+001
6.668465e+002, 3.457530e+001
6.673286e+002, 3.463472e+001
6.678107e+002, 3.445213e+001
6.682928e+002, 3.421705e+001
6.687750e+002, 3.391929e+001
6.692571e+002, 3.370889e+001
6.697392e+002, 3.378962e+001
6.702213e+002, 3.412373e+001
6.707034e+002, 3.430055e+001
6.711855e+002, 3.420440e+001
6.716677e+002, 3.408472e+001
6.721498e+002, 3.401266e+001
6.726319e+002, 3.396075e+001
6.731140e+002, 3.387136e+001
6.735961e+002, 3.375813e+001
6.740782e+002, 3.372588e+001
6.745604e+002, 3.387797e+001
6.750425e+002, 3.413061e+001
6.755246e+002, 3.419488e+001
6.760067e+002, 3.402594e+001
6.764888e+002, 3.386528e+001
6.769709e+002, 3.373933e+001
6.774531e+002, 3.365876e+001
6.779352e+002, 3.364829e+001
6.784173e+002, 3.368970e+001
6.788994e+002, 3.371798e+001
6.793815e+002, 3.371584e+001
6.798636e+002, 3.370083e+001
6.803458e+002, 3.371185e+001
6.808279e+002, 3.370586e+001
6.813100e+002, 3.358875e+001
6.817921e+002, 3.335905e+001
6.822742e+002, 3.312228e+001
6.827563e+002, 3.295492e+001
6.832385e+002, 3.286450e+001
6.837206e+002, 3.290165e+001
6.842027e+002, 3.315556e+001
6.846848e+002, 3.334096e+001
6.851669e+002, 3.338256e+001
6.856490e+002, 3.337648e+001
6.861312e+002, 3.338693e+001
6.866133e+002, 3.339536e+001
6.870954e+002, 3.333064e+001
6.875775e+002, 3.312239e+001
6.880596e+002, 3.291090e+001
6.885417e+002, 3.283445e+001
6.890239e+002, 3.284808e+001
6.895060e+002, 3.284407e+001
6.899881e+002, 3.280366e+001
6.904702e+002, 3.278650e+001
6.909523e+002, 3.285354e+001
6.914344e+002, 3.297233e+001
6.919166e+002, 3.297530e+001
6.923987e+002, 3.274696e+001
6.928808e+002, 3.258635e+001
6.933629e+002, 3.252990e+001
6.938450e+002, 3.252044e+001
6.943271e+002, 3.252322e+001
6.948093e+002, 3.254373e+001
6.952914e+002, 3.262272e+001
6.957735e+002, 3.281096e+001
6.962556e+002, 3.295956e+001
6.967377e+002, 3.284129e+001
6.972198e+002, 3.254048e+001
6.977020e+002, 3.236477e+001
6.981841e+002, 3.236672e+001
6.986662e+002, 3.240816e+001
6.991483e+002, 3.239602e+001
6.996304e+002, 3.234678e+001
7.001125e+002, 3.232370e+001
7.005947e+002, 3.236766e+001
7.010768e+002, 3.237524e+001
7.015589e+002, 3.226571e+001
7.020410e+002, 3.219360e+001
7.025231e+002, 3.230770e+001
7.030052e+002, 3.252550e+001
7.034874e+002, 3.265334e+001
7.039695e+002, 3.260072e+001
7.044516e+002, 3.250046e+001
7.049337e+002, 3.251555e+001
7.054158e+002, 3.262566e+001
7.058979e+002, 3.272677e+001
7.063801e+002, 3.280363e+001
7.068622e+002, 3.292400e+001
7.073442e+002, 3.318474e+001
7.078264e+002, 3.347325e+001
7.083085e+002, 3.347575e+001
7.087906e+002, 3.303227e+001
7.092727e+002, 3.272697e+001
7.097548e+002, 3.268095e+001
7.102369e+002, 3.270045e+001
7.107191e+002, 3.268160e+001
7.112012e+002, 3.264299e+001
7.116833e+002, 3.263382e+001
7.121654e+002, 3.267205e+001
7.126475e+002, 3.274051e+001
7.131296e+002, 3.283641e+001
7.136118e+002, 3.294951e+001
7.140939e+002, 3.303740e+001
7.145760e+002, 3.310822e+001
7.150581e+002, 3.308371e+001
7.155402e+002, 3.287792e+001
7.160223e+002, 3.260888e+001
7.165045e+002, 3.248348e+001
7.169866e+002, 3.252336e+001
7.174687e+002, 3.255823e+001
7.179508e+002, 3.260263e+001
7.184329e+002, 3.260874e+001
7.189150e+002, 3.257941e+001
7.193972e+002, 3.248577e+001
7.198793e+002, 3.222119e+001
7.203614e+002, 3.179299e+001
7.208435e+002, 3.144949e+001
7.213256e+002, 3.147446e+001
7.218077e+002, 3.177183e+001
7.222899e+002, 3.198113e+001
7.227720e+002, 3.210453e+001
7.232541e+002, 3.211600e+001
7.237362e+002, 3.194626e+001
7.242183e+002, 3.175228e+001
7.247004e+002, 3.174607e+001
7.251826e+002, 3.192260e+001
7.256647e+002, 3.201028e+001
7.261468e+002, 3.188867e+001
7.266289e+002, 3.180399e+001
7.271110e+002, 3.188291e+001
7.275931e+002, 3.202328e+001
7.280753e+002, 3.212390e+001
7.285574e+002, 3.216298e+001
7.290395e+002, 3.214171e+001
7.295216e+002, 3.203447e+001
7.300037e+002, 3.191587e+001
7.304858e+002, 3.200199e+001
7.309680e+002, 3.230348e+001
7.314501e+002, 3.248616e+001
7.319322e+002, 3.246081e+001
7.324143e+002, 3.236188e+001
7.328964e+002, 3.228660e+001
7.333785e+002, 3.222837e+001
7.338607e+002, 3.215022e+001
7.343428e+002, 3.199290e+001
7.348249e+002, 3.190744e+001
7.353070e+002, 3.200365e+001
7.357891e+002, 3.211934e+001
7.362712e+002, 3.209182e+001
7.367534e+002, 3.196459e+001
7.372355e+002, 3.190416e+001
7.377176e+002, 3.199935e+001
7.381997e+002, 3.213012e+001
7.386818e+002, 3.207850e+001
7.391639e+002, 3.187440e+001
7.396461e+002, 3.183239e+001
7.401282e+002, 3.201351e+001
7.406103e+002, 3.219419e+001
7.410924e+002, 3.226725e+001
7.415745e+002, 3.224879e+001
7.420566e+002, 3.216475e+001
7.425388e+002, 3.200357e+001
7.430209e+002, 3.182510e+001
7.435030e+002, 3.153974e+001
7.439851e+002, 3.133625e+001
7.444672e+002, 3.136200e+001
7.449493e+002, 3.151708e+001
7.454315e+002, 3.166295e+001
7.459136e+002, 3.175335e+001
7.463957e+002, 3.178990e+001
7.468778e+002, 3.173969e+001
7.473599e+002, 3.164217e+001
7.478420e+002, 3.162162e+001
7.483242e+002, 3.167934e+001
7.488063e+002, 3.178203e+001
7.492884e+002, 3.195412e+001
7.497705e+002, 3.207682e+001
7.502526e+002, 3.197841e+001
7.507347e+002, 3.164058e+001
7.512169e+002, 3.143901e+001
7.516990e+002, 3.146431e+001
7.521811e+002, 3.149616e+001
7.526632e+002, 3.148786e+001
7.531453e+002, 3.146464e+001
7.536274e+002, 3.141729e+001
7.541096e+002, 3.137359e+001
7.545917e+002, 3.142949e+001
7.550738e+002, 3.168371e+001
7.555559e+002, 3.196954e+001
7.560380e+002, 3.202966e+001
7.565201e+002, 3.191283e+001
7.570023e+002, 3.184118e+001
7.574844e+002, 3.185500e+001
7.579665e+002, 3.184141e+001
7.584486e+002, 3.171578e+001
7.589307e+002, 3.150656e+001
7.594128e+002, 3.129932e+001
7.598950e+002, 3.094891e+001
7.603771e+002, 3.087304e+001
7.608592e+002, 3.138029e+001
7.613413e+002, 3.181789e+001
7.618234e+002, 3.179742e+001
7.623055e+002, 3.153134e+001
7.627877e+002, 3.137091e+001
7.632698e+002, 3.141408e+001
7.637519e+002, 3.152275e+001
7.642340e+002, 3.164092e+001
7.647161e+002, 3.173596e+001
7.651982e+002, 3.173461e+001
7.656804e+002, 3.165307e+001
7.661625e+002, 3.158387e+001
7.666446e+002, 3.156116e+001
7.671267e+002, 3.158350e+001
7.676088e+002, 3.166640e+001
7.680909e+002, 3.181779e+001
7.685731e+002, 3.182636e+001
7.690552e+002, 3.157557e+001
7.695373e+002, 3.137183e+001
7.700194e+002, 3.127595e+001
7.705015e+002, 3.125384e+001
7.709836e+002, 3.134092e+001
7.714658e+002, 3.149647e+001
7.719479e+002, 3.153628e+001
7.724300e+002, 3.129999e+001
7.729121e+002, 3.105909e+001
7.733942e+002, 3.099258e+001
7.738763e+002, 3.104848e+001
7.743585e+002, 3.117726e+001
7.748406e+002, 3.135299e+001
7.753227e+002, 3.152331e+001
7.758048e+002, 3.166208e+001
7.762869e+002, 3.173673e+001
7.767690e+002, 3.163874e+001
7.772512e+002, 3.132805e+001
7.777333e+002, 3.111103e+001
7.782154e+002, 3.101135e+001
7.786975e+002, 3.099999e+001
7.791796e+002, 3.111447e+001
7.796617e+002, 3.128680e+001
7.801439e+002, 3.140604e+001
7.806260e+002, 3.146638e+001
7.811081e+002, 3.149104e+001
7.815902e+002, 3.143508e+001
7.820723e+002, 3.139523e+001
7.825544e+002, 3.147767e+001
7.830366e+002, 3.160324e+001
7.835187e+002, 3.160272e+001
7.840008e+002, 3.145269e+001
7.844829e+002, 3.134609e+001
7.849650e+002, 3.151977e+001
7.854471e+002, 3.183580e+001
7.859293e+002, 3.181471e+001
7.864114e+002, 3.144957e+001
7.868935e+002, 3.124093e+001
7.873756e+002, 3.133590e+001
7.878577e+002, 3.155322e+001
7.883398e+002, 3.175673e+001
7.888220e+002, 3.194123e+001
7.893040e+002, 3.205429e+001
7.897861e+002, 3.213564e+001
7.902682e+002, 3.209314e+001
7.907504e+002, 3.180115e+001
7.912325e+002, 3.149338e+001
7.917146e+002, 3.129382e+001
7.921967e+002, 3.120230e+001
7.926788e+002, 3.120144e+001
7.931609e+002, 3.129440e+001
7.936431e+002, 3.139683e+001
7.941252e+002, 3.143297e+001
7.946073e+002, 3.142887e+001
7.950894e+002, 3.144411e+001
7.955715e+002, 3.147245e+001
7.960536e+002, 3.143435e+001
7.965358e+002, 3.128977e+001
7.970179e+002, 3.113921e+001
7.975000e+002, 3.112692e+001
7.979821e+002, 3.125928e+001
7.984642e+002, 3.137975e+001
7.989464e+002, 3.152387e+001
7.994285e+002, 3.159229e+001
7.999106e+002, 3.153092e+001
8.003927e+002, 3.140667e+001
8.008748e+002, 3.121081e+001
8.013569e+002, 3.098011e+001
8.018391e+002, 3.087969e+001
8.023212e+002, 3.103429e+001
8.028033e+002, 3.120810e+001
8.032854e+002, 3.127802e+001
8.037675e+002, 3.130079e+001
8.042496e+002, 3.133818e+001
8.047318e+002, 3.139441e+001
8.052139e+002, 3.145063e+001
8.056960e+002, 3.149641e+001
8.061781e+002, 3.153643e+001
8.066602e+002, 3.160559e+001
8.071423e+002, 3.169377e+001
8.076245e+002, 3.161112e+001
8.081066e+002, 3.129527e+001
8.085887e+002, 3.110021e+001
8.090708e+002, 3.122933e+001
8.095529e+002, 3.149606e+001
8.100350e+002, 3.162045e+001
8.105172e+002, 3.157346e+001
8.109993e+002, 3.156942e+001
8.114814e+002, 3.168389e+001
8.119635e+002, 3.174476e+001
8.124456e+002, 3.165520e+001
8.129277e+002, 3.152718e+001
8.134099e+002, 3.145916e+001
8.138920e+002, 3.145724e+001
8.143741e+002, 3.149238e+001
8.148562e+002, 3.158512e+001
8.153383e+002, 3.163482e+001
8.158204e+002, 3.147027e+001
8.163026e+002, 3.119967e+001
8.167847e+002, 3.106735e+001
8.172668e+002, 3.109459e+001
8.177489e+002, 3.117924e+001
8.182310e+002, 3.126754e+001
8.187131e+002, 3.135322e+001
8.191953e+002, 3.143101e+001
8.196774e+002, 3.150957e+001
8.201595e+002, 3.151390e+001
8.206416e+002, 3.137750e+001
8.211237e+002, 3.129362e+001
8.216058e+002, 3.140207e+001
8.220880e+002, 3.155073e+001
8.225701e+002, 3.154788e+001
8.230522e+002, 3.139887e+001
8.235343e+002, 3.131617e+001
8.240164e+002, 3.141256e+001
8.244985e+002, 3.149855e+001
8.249807e+002, 3.146263e+001
8.254628e+002, 3.139227e+001
8.259449e+002, 3.139213e+001
8.264270e+002, 3.145858e+001
8.269091e+002, 3.152459e+001
8.273912e+002, 3.155597e+001
8.278734e+002, 3.155601e+001
8.283555e+002, 3.151587e+001
8.288376e+002, 3.144718e+001
8.293197e+002, 3.140378e+001
8.298018e+002, 3.139077e+001
8.302839e+002, 3.135410e+001
8.307661e+002, 3.124778e+001
8.312482e+002, 3.116572e+001
8.317303e+002, 3.128996e+001
8.322124e+002, 3.167551e+001
8.326945e+002, 3.185862e+001
8.331766e+002, 3.168176e+001
8.336588e+002, 3.152525e+001
8.341409e+002, 3.150252e+001
8.346230e+002, 3.150974e+001
8.351051e+002, 3.146054e+001
8.355872e+002, 3.136129e+001
8.360693e+002, 3.126443e+001
8.365515e+002, 3.113607e+001
8.370336e+002, 3.109222e+001
8.375157e+002, 3.133577e+001
8.379978e+002, 3.160501e+001
8.384799e+002, 3.150990e+001
8.389620e+002, 3.114519e+001
8.394442e+002, 3.091847e+001
8.399263e+002, 3.102242e+001
8.404084e+002, 3.127695e+001
8.408905e+002, 3.146306e+001
8.413726e+002, 3.158703e+001
8.418547e+002, 3.169399e+001
8.423369e+002, 3.178858e+001
8.428190e+002, 3.177722e+001
8.433011e+002, 3.159223e+001
8.437832e+002, 3.138617e+001
8.442653e+002, 3.134851e+001
8.447474e+002, 3.147363e+001
8.452296e+002, 3.152583e+001
8.457117e+002, 3.148048e+001
8.461938e+002, 3.139479e+001
8.466759e+002, 3.117953e+001
8.471580e+002, 3.101521e+001
8.476401e+002, 3.106942e+001
8.481223e+002, 3.125147e+001
8.486044e+002, 3.134304e+001
8.490865e+002, 3.126976e+001
8.495686e+002, 3.118999e+001
8.500507e+002, 3.122724e+001
8.505328e+002, 3.126916e+001
8.510150e+002, 3.115295e+001
8.514971e+002, 3.095522e+001
8.519792e+002, 3.087412e+001
8.524613e+002, 3.096383e+001
8.529434e+002, 3.110910e+001
8.534255e+002, 3.120011e+001
8.539077e+002, 3.125662e+001
8.543898e+002, 3.136815e+001
8.548719e+002, 3.153488e+001
8.553540e+002, 3.154135e+001
8.558361e+002, 3.130076e+001
8.563182e+002, 3.108919e+001
8.568004e+002, 3.112652e+001
8.572825e+002, 3.133970e+001
8.577646e+002, 3.150036e+001
8.582467e+002, 3.162905e+001
8.587288e+002, 3.165674e+001
8.592109e+002, 3.150573e+001
8.596931e+002, 3.134746e+001
8.601752e+002, 3.125040e+001
8.606573e+002, 3.117366e+001
8.611394e+002, 3.102366e+001
8.616215e+002, 3.080366e+001
8.621036e+002, 3.072828e+001
8.625858e+002, 3.105410e+001
8.630679e+002, 3.136895e+001
8.635500e+002, 3.136525e+001
8.640321e+002, 3.118931e+001
8.645142e+002, 3.098326e+001
8.649963e+002, 3.080976e+001
8.654785e+002, 3.080857e+001
8.659606e+002, 3.108374e+001
8.664427e+002, 3.138730e+001
8.669248e+002, 3.121646e+001
8.674069e+002, 3.070708e+001
8.678890e+002, 3.065582e+001
8.683712e+002, 3.112338e+001
8.688533e+002, 3.154311e+001
8.693354e+002, 3.169142e+001
8.698175e+002, 3.165323e+001
8.702996e+002, 3.152106e+001
8.707817e+002, 3.129352e+001
8.712639e+002, 3.110368e+001
8.717459e+002, 3.096276e+001
8.722280e+002, 3.083973e+001
8.727101e+002, 3.068052e+001
8.731923e+002, 3.058596e+001
8.736744e+002, 3.069447e+001
8.741565e+002, 3.090545e+001
8.746386e+002, 3.095571e+001
8.751207e+002, 3.073024e+001
8.756028e+002, 3.056792e+001
8.760850e+002, 3.065524e+001
8.765671e+002, 3.078231e+001
8.770492e+002, 3.077403e+001
8.775313e+002, 3.070291e+001
8.780134e+002, 3.074259e+001
8.784955e+002, 3.090980e+001
8.789777e+002, 3.099930e+001
8.794598e+002, 3.077650e+001
8.799419e+002, 3.047297e+001
8.804240e+002, 3.052322e+001
8.809061e+002, 3.082492e+001
8.813882e+002, 3.100034e+001
8.818704e+002, 3.099227e+001
8.823525e+002, 3.092880e+001
8.828346e+002, 3.088484e+001
8.833167e+002, 3.085938e+001
8.837988e+002, 3.086097e+001
8.842809e+002, 3.090169e+001
8.847631e+002, 3.086263e+001
8.852452e+002, 3.067652e+001
8.857273e+002, 3.058707e+001
8.862094e+002, 3.078186e+001
8.866915e+002, 3.100184e+001
8.871736e+002, 3.087609e+001
8.876558e+002, 3.044178e+001
8.881379e+002, 3.027921e+001
8.886200e+002, 3.073127e+001
8.891021e+002, 3.099416e+001
8.895842e+002, 3.071856e+001
8.900663e+002, 3.041058e+001
8.905485e+002, 3.043096e+001
8.910306e+002, 3.068132e+001
8.915127e+002, 3.097875e+001
8.919948e+002, 3.128602e+001
8.924769e+002, 3.136904e+001
8.929590e+002, 3.080190e+001
8.934412e+002, 3.016834e+001
8.939233e+002, 3.017728e+001
8.944054e+002, 3.058281e+001
8.948875e+002, 3.086821e+001
8.953696e+002, 3.091580e+001
8.958517e+002, 3.084562e+001
8.963339e+002, 3.072958e+001
8.968160e+002, 3.060863e+001
8.972981e+002, 3.055967e+001
8.977802e+002, 3.058149e+001
8.982623e+002, 3.070729e+001
8.987444e+002, 3.095966e+001
8.992266e+002, 3.104691e+001
8.997087e+002, 3.079548e+001
9.001908e+002, 3.040652e+001
9.006729e+002, 3.016363e+001
9.011550e+002, 3.006822e+001
9.016371e+002, 3.009119e+001
9.021193e+002, 3.028858e+001
9.026014e+002, 3.050258e+001
9.030835e+002, 3.079221e+001
9.035656e+002, 3.100208e+001
9.040477e+002, 3.100234e+001
9.045298e+002, 3.084652e+001
9.050120e+002, 3.063615e+001
9.054941e+002, 3.026970e+001
9.059762e+002, 3.017335e+001
9.064583e+002, 3.074862e+001
9.069404e+002, 3.130773e+001
9.074225e+002, 3.143464e+001
9.079047e+002, 3.128972e+001
9.083868e+002, 3.104062e+001
9.088689e+002, 3.076788e+001
9.093510e+002, 3.065124e+001
9.098331e+002, 3.090052e+001
9.103152e+002, 3.118554e+001
9.107974e+002, 3.112014e+001
9.112795e+002, 3.087066e+001
9.117616e+002, 3.073165e+001
9.122437e+002, 3.072425e+001
9.127258e+002, 3.075861e+001
9.132079e+002, 3.079234e+001
9.136901e+002, 3.081850e+001
9.141722e+002, 3.083230e+001
9.146543e+002, 3.083047e+001
9.151364e+002, 3.078516e+001
9.156185e+002, 3.069400e+001
9.161006e+002, 3.062501e+001
9.165828e+002, 3.059796e+001
9.170649e+002, 3.058338e+001
9.175470e+002, 3.056133e+001
9.180291e+002, 3.052845e+001
9.185112e+002, 3.046440e+001
9.189933e+002, 3.031809e+001
9.194755e+002, 3.027710e+001
9.199576e+002, 3.045585e+001
9.204397e+002, 3.057602e+001
9.209218e+002, 3.045396e+001
9.214039e+002, 3.026707e+001
9.218860e+002, 3.018721e+001
9.223682e+002, 3.021815e+001
9.228503e+002, 3.034620e+001
9.233324e+002, 3.074680e+001
9.238145e+002, 3.100451e+001
9.242966e+002, 3.093945e+001
9.247787e+002, 3.074407e+001
9.252609e+002, 3.048488e+001
9.257430e+002, 3.023843e+001
9.262251e+002, 3.013096e+001
9.267072e+002, 3.020154e+001
9.271893e+002, 3.032977e+001
9.276714e+002, 3.048898e+001
9.281536e+002, 3.062024e+001
9.286357e+002, 3.064398e+001
9.291178e+002, 3.060240e+001
9.295999e+002, 3.056680e+001
9.300820e+002, 3.055576e+001
9.305641e+002, 3.058438e+001
9.310463e+002, 3.067225e+001
9.315284e+002, 3.074658e+001
9.320105e+002, 3.065244e+001
9.324926e+002, 3.044347e+001
9.329747e+002, 3.034338e+001
9.334568e+002, 3.036090e+001
9.339390e+002, 3.044400e+001
9.344211e+002, 3.058307e+001
9.349032e+002, 3.067699e+001
9.353853e+002, 3.060297e+001
9.358674e+002, 3.039477e+001
9.363495e+002, 3.024080e+001
9.368317e+002, 3.013346e+001
9.373138e+002, 3.012686e+001
9.377959e+002, 3.028042e+001
9.382780e+002, 3.041311e+001
9.387601e+002, 3.039615e+001
9.392422e+002, 3.032254e+001
9.397244e+002, 3.037239e+001
9.402065e+002, 3.058123e+001
9.406886e+002, 3.070156e+001
9.411707e+002, 3.072929e+001
9.416528e+002, 3.067772e+001
9.421349e+002, 3.044706e+001
9.426171e+002, 3.022955e+001
9.430992e+002, 3.016065e+001
9.435813e+002, 3.021855e+001
9.440634e+002, 3.033736e+001
9.445455e+002, 3.051945e+001
9.450276e+002, 3.070513e+001
9.455098e+002, 3.094730e+001
9.459919e+002, 3.110967e+001
9.464740e+002, 3.105735e+001
9.469561e+002, 3.089306e+001
9.474382e+002, 3.073275e+001
9.479203e+002, 3.060784e+001
9.484025e+002, 3.052880e+001
9.488846e+002, 3.051100e+001
9.493667e+002, 3.051604e+001
9.498488e+002, 3.050860e+001
9.503309e+002, 3.049920e+001
9.508130e+002, 3.052713e+001
9.512952e+002, 3.056818e+001
9.517773e+002, 3.051016e+001
9.522594e+002, 3.032870e+001
9.527415e+002, 3.019648e+001
9.532236e+002, 3.029724e+001
9.537057e+002, 3.054157e+001
9.541878e+002, 3.073404e+001
9.546699e+002, 3.087464e+001
9.551520e+002, 3.097951e+001
9.556342e+002, 3.105071e+001
9.561163e+002, 3.097970e+001
9.565984e+002, 3.068676e+001
9.570805e+002, 3.033745e+001
9.575626e+002, 3.019153e+001
9.580447e+002, 3.024647e+001
9.585269e+002, 3.044441e+001
9.590090e+002, 3.087310e+001
9.594911e+002, 3.104215e+001
9.599732e+002, 3.073862e+001
9.604553e+002, 3.040585e+001
9.609374e+002, 3.041243e+001
9.614196e+002, 3.061201e+001
9.619017e+002, 3.056829e+001
9.623838e+002, 3.010964e+001
9.628659e+002, 2.993975e+001
9.633480e+002, 3.030293e+001
9.638301e+002, 3.062531e+001
9.643123e+002, 3.073520e+001
9.647944e+002, 3.075829e+001
9.652765e+002, 3.077367e+001
9.657586e+002, 3.079285e+001
9.662407e+002, 3.086019e+001
9.667228e+002, 3.106841e+001
9.672050e+002, 3.114732e+001
9.676871e+002, 3.090935e+001
9.681692e+002, 3.066774e+001
9.686513e+002, 3.060476e+001
9.691334e+002, 3.064579e+001
9.696155e+002, 3.070827e+001
9.700977e+002, 3.076682e+001
9.705798e+002, 3.077297e+001
9.710619e+002, 3.068519e+001
9.715440e+002, 3.057309e+001
9.720261e+002, 3.046996e+001
9.725082e+002, 3.037318e+001
9.729904e+002, 3.024758e+001
9.734725e+002, 3.013422e+001
9.739546e+002, 3.014624e+001
9.744367e+002, 3.030428e+001
9.749188e+002, 3.045607e+001
9.754009e+002, 3.046850e+001
9.758831e+002, 3.042193e+001
9.763652e+002, 3.039477e+001
9.768473e+002, 3.040016e+001
9.773294e+002, 3.050700e+001
9.778115e+002, 3.068800e+001
9.782936e+002, 3.077730e+001
9.787758e+002, 3.069691e+001
9.792579e+002, 3.055532e+001
9.797400e+002, 3.046614e+001
9.802221e+002, 3.043187e+001
9.807042e+002, 3.050521e+001
9.811863e+002, 3.066275e+001
9.816685e+002, 3.068786e+001
9.821506e+002, 3.053844e+001
9.826327e+002, 3.040095e+001
9.831148e+002, 3.039944e+001
9.835969e+002, 3.047034e+001
9.840790e+002, 3.048959e+001
9.845612e+002, 3.045669e+001
9.850433e+002, 3.046016e+001
9.855254e+002, 3.049969e+001
9.860075e+002, 3.059659e+001
9.864896e+002, 3.079262e+001
9.869717e+002, 3.092706e+001
9.874539e+002, 3.084715e+001
9.879360e+002, 3.062577e+001
9.884181e+002, 3.049025e+001
9.889002e+002, 3.045418e+001
9.893823e+002, 3.046520e+001
9.898644e+002, 3.058451e+001
9.903466e+002, 3.062949e+001
9.908287e+002, 3.050196e+001
9.913108e+002, 3.032222e+001
9.917929e+002, 3.018666e+001
9.922750e+002, 3.009627e+001
9.927571e+002, 3.005766e+001
9.932393e+002, 3.004317e+001
9.937214e+002, 3.013030e+001
9.942035e+002, 3.051273e+001
9.946856e+002, 3.076742e+001
9.951677e+002, 3.060338e+001
9.956498e+002, 3.031941e+001
9.961320e+002, 3.024760e+001
9.966141e+002, 3.037483e+001
9.970962e+002, 3.047009e+001
9.975783e+002, 3.048581e+001
9.980604e+002, 3.047355e+001
9.985425e+002, 3.043203e+001
9.990247e+002, 3.038062e+001
9.995068e+002, 3.028123e+001
9.999889e+002, 3.020629e+001
1.000471e+003, 3.027901e+001
1.000953e+003, 3.049874e+001
1.001435e+003, 3.071146e+001
1.001917e+003, 3.091237e+001
1.002399e+003, 3.100118e+001
1.002882e+003, 3.080410e+001
1.003364e+003, 3.057374e+001
1.003846e+003, 3.059494e+001
1.004328e+003, 3.075207e+001
1.004810e+003, 3.076047e+001
1.005292e+003, 3.056717e+001
1.005774e+003, 3.040771e+001
1.006256e+003, 3.045422e+001
1.006739e+003, 3.056405e+001
1.007221e+003, 3.064690e+001
1.007703e+003, 3.068204e+001
1.008185e+003, 3.057156e+001
1.008667e+003, 3.039174e+001
1.009149e+003, 3.038984e+001
1.009631e+003, 3.063727e+001
1.010113e+003, 3.088856e+001
1.010595e+003, 3.092173e+001
1.011078e+003, 3.083982e+001
1.011560e+003, 3.076072e+001
1.012042e+003, 3.069854e+001
1.012524e+003, 3.070236e+001
1.013006e+003, 3.076133e+001
1.013488e+003, 3.078843e+001
1.013970e+003, 3.074775e+001
1.014452e+003, 3.073851e+001
1.014935e+003, 3.090673e+001
1.015417e+003, 3.116144e+001
1.015899e+003, 3.126761e+001
1.016381e+003, 3.125162e+001
1.016863e+003, 3.123824e+001
1.017345e+003, 3.124318e+001
1.017827e+003, 3.121933e+001
1.018309e+003, 3.114422e+001
1.018791e+003, 3.099251e+001
1.019274e+003, 3.065865e+001
1.019756e+003, 3.023886e+001
1.020238e+003, 3.026796e+001
1.020720e+003, 3.072630e+001
1.021202e+003, 3.110442e+001
1.021684e+003, 3.131711e+001
1.022166e+003, 3.138940e+001
1.022648e+003, 3.132634e+001
1.023130e+003, 3.117541e+001
1.023613e+003, 3.099611e+001
1.024095e+003, 3.079405e+001
1.024577e+003, 3.066757e+001
1.025059e+003, 3.061808e+001
1.025541e+003, 3.064565e+001
1.026023e+003, 3.076718e+001
1.026505e+003, 3.089234e+001
1.026987e+003, 3.096991e+001
1.027469e+003, 3.100368e+001
1.027952e+003, 3.098707e+001
1.028434e+003, 3.091408e+001
1.028916e+003, 3.096418e+001
1.029398e+003, 3.122049e+001
1.029880e+003, 3.128692e+001
1.030362e+003, 3.100435e+001
1.030844e+003, 3.072065e+001
1.031326e+003, 3.066650e+001
1.031809e+003, 3.075562e+001
1.032291e+003, 3.081677e+001
1.032773e+003, 3.084600e+001
1.033255e+003, 3.088459e+001
1.033737e+003, 3.094952e+001
1.034219e+003, 3.098502e+001
1.034701e+003, 3.095364e+001
1.035183e+003, 3.093272e+001
1.035666e+003, 3.098333e+001
1.036148e+003, 3.107302e+001
1.036630e+003, 3.113550e+001
1.037112e+003, 3.116856e+001
1.037594e+003, 3.118475e+001
1.038076e+003, 3.116194e+001
1.038558e+003, 3.115935e+001
1.039040e+003, 3.130600e+001
1.039522e+003, 3.134431e+001
1.040005e+003, 3.093180e+001
1.040487e+003, 3.034813e+001
1.040969e+003, 3.023857e+001
1.041451e+003, 3.073344e+001
1.041933e+003, 3.100663e+001
1.042415e+003, 3.089771e+001
1.042897e+003, 3.077085e+001
1.043379e+003, 3.058511e+001
1.043861e+003, 3.050908e+001
1.044344e+003, 3.079466e+001
1.044826e+003, 3.121977e+001
1.045308e+003, 3.131135e+001
1.045790e+003, 3.097512e+001
1.046272e+003, 3.077461e+001
1.046754e+003, 3.087332e+001
1.047236e+003, 3.097123e+001
1.047718e+003, 3.094006e+001
1.048201e+003, 3.093927e+001
1.048683e+003, 3.116710e+001
1.049165e+003, 3.147226e+001
1.049647e+003, 3.154109e+001
1.050129e+003, 3.131377e+001
1.050611e+003, 3.115149e+001
1.051093e+003, 3.115701e+001
1.051575e+003, 3.119069e+001
1.052057e+003, 3.127319e+001
1.052540e+003, 3.130906e+001
1.053022e+003, 3.113279e+001
1.053504e+003, 3.089859e+001
1.053986e+003, 3.093481e+001
1.054468e+003, 3.129613e+001
1.054950e+003, 3.152942e+001
1.055432e+003, 3.141924e+001
1.055914e+003, 3.129266e+001
1.056396e+003, 3.127565e+001
1.056879e+003, 3.126912e+001
1.057361e+003, 3.117410e+001
1.057843e+003, 3.104631e+001
1.058325e+003, 3.097477e+001
1.058807e+003, 3.097529e+001
1.059289e+003, 3.106116e+001
1.059771e+003, 3.134281e+001
1.060253e+003, 3.156772e+001
1.060736e+003, 3.167347e+001
1.061218e+003, 3.165560e+001
1.061700e+003, 3.136928e+001
1.062182e+003, 3.102332e+001
1.062664e+003, 3.101393e+001
1.063146e+003, 3.136918e+001
1.063628e+003, 3.159613e+001
1.064110e+003, 3.145520e+001
1.064593e+003, 3.124145e+001
1.065075e+003, 3.096189e+001
1.065557e+003, 3.076832e+001
1.066039e+003, 3.085460e+001
1.066521e+003, 3.106620e+001
1.067003e+003, 3.114705e+001
1.067485e+003, 3.107454e+001
1.067967e+003, 3.104129e+001
1.068449e+003, 3.117355e+001
1.068932e+003, 3.126185e+001
1.069414e+003, 3.111456e+001
1.069896e+003, 3.098742e+001
1.070378e+003, 3.114470e+001
1.070860e+003, 3.140458e+001
1.071342e+003, 3.147812e+001
1.071824e+003, 3.135680e+001
1.072306e+003, 3.126898e+001
1.072788e+003, 3.130574e+001
1.073271e+003, 3.136982e+001
1.073753e+003, 3.141171e+001
1.074235e+003, 3.146915e+001
1.074717e+003, 3.161652e+001
1.075199e+003, 3.176673e+001
1.075681e+003, 3.183636e+001
1.076163e+003, 3.179766e+001
1.076645e+003, 3.156941e+001
1.077127e+003, 3.098980e+001
1.077610e+003, 3.065221e+001
1.078092e+003, 3.103244e+001
1.078574e+003, 3.152791e+001
1.079056e+003, 3.175733e+001
1.079538e+003, 3.185170e+001
1.080020e+003, 3.196717e+001
1.080502e+003, 3.212404e+001
1.080984e+003, 3.229899e+001
1.081467e+003, 3.248291e+001
1.081949e+003, 3.269276e+001
1.082431e+003, 3.286705e+001
1.082913e+003, 3.315117e+001
1.083395e+003, 3.357811e+001
1.083877e+003, 3.420341e+001
1.084359e+003, 3.519229e+001
1.084841e+003, 3.640789e+001
1.085323e+003, 3.758244e+001
1.085806e+003, 3.868194e+001
1.086288e+003, 3.933524e+001
1.086770e+003, 3.938484e+001
1.087252e+003, 3.894915e+001
1.087734e+003, 3.776679e+001
1.088216e+003, 3.640380e+001
1.088698e+003, 3.533515e+001
1.089180e+003, 3.452061e+001
1.089662e+003, 3.376333e+001
1.090145e+003, 3.301590e+001
1.090627e+003, 3.246559e+001
1.091109e+003, 3.228379e+001
1.091591e+003, 3.217325e+001
1.092073e+003, 3.201536e+001
1.092555e+003, 3.187079e+001
1.093037e+003, 3.182963e+001
1.093519e+003, 3.181925e+001
1.094002e+003, 3.168662e+001
1.094484e+003, 3.142494e+001
1.094966e+003, 3.124425e+001
1.095448e+003, 3.119695e+001
1.095930e+003, 3.126167e+001
1.096412e+003, 3.159465e+001
1.096894e+003, 3.186187e+001
1.097376e+003, 3.180541e+001
1.097859e+003, 3.158319e+001
1.098341e+003, 3.137525e+001
1.098823e+003, 3.121613e+001
1.099305e+003, 3.114651e+001
1.099787e+003, 3.119248e+001
1.100269e+003, 3.129361e+001
1.100751e+003, 3.155700e+001
1.101233e+003, 3.172603e+001
1.101715e+003, 3.159271e+001
1.102198e+003, 3.136460e+001
1.102680e+003, 3.123814e+001
1.103162e+003, 3.121674e+001
1.103644e+003, 3.124666e+001
1.104126e+003, 3.132187e+001
1.104608e+003, 3.144270e+001
1.105090e+003, 3.165059e+001
1.105572e+003, 3.185024e+001
1.106054e+003, 3.216713e+001
1.106537e+003, 3.231923e+001
1.107019e+003, 3.187393e+001
1.107501e+003, 3.113421e+001
1.107983e+003, 3.087289e+001
1.108465e+003, 3.123914e+001
1.108947e+003, 3.153861e+001
1.109429e+003, 3.170380e+001
1.109911e+003, 3.180760e+001
1.110394e+003, 3.191314e+001
1.110876e+003, 3.190860e+001
1.111358e+003, 3.157027e+001
1.111840e+003, 3.115127e+001
1.112322e+003, 3.110348e+001
1.112804e+003, 3.145264e+001
1.113286e+003, 3.172478e+001
1.113768e+003, 3.193904e+001
1.114250e+003, 3.204119e+001
1.114733e+003, 3.197201e+001
1.115215e+003, 3.186434e+001
1.115697e+003, 3.175822e+001
1.116179e+003, 3.165754e+001
1.116661e+003, 3.158835e+001
1.117143e+003, 3.153478e+001
1.117625e+003, 3.135376e+001
1.118107e+003, 3.080301e+001
1.118589e+003, 3.074008e+001
1.119072e+003, 3.152189e+001
1.119554e+003, 3.207878e+001
1.120036e+003, 3.198079e+001
1.120518e+003, 3.170503e+001
1.121000e+003, 3.164499e+001
1.121482e+003, 3.173151e+001
1.121964e+003, 3.177086e+001
1.122446e+003, 3.177079e+001
1.122929e+003, 3.164147e+001
1.123411e+003, 3.127665e+001
1.123893e+003, 3.116547e+001
1.124375e+003, 3.147918e+001
1.124857e+003, 3.187144e+001
1.125339e+003, 3.215189e+001
1.125821e+003, 3.231457e+001
1.126303e+003, 3.233029e+001
1.126786e+003, 3.220852e+001
1.127268e+003, 3.211255e+001
1.127750e+003, 3.203521e+001
1.128232e+003, 3.207952e+001
1.128714e+003, 3.228458e+001
1.129196e+003, 3.240660e+001
1.129678e+003, 3.232652e+001
1.130160e+003, 3.216822e+001
1.130642e+003, 3.206975e+001
1.131125e+003, 3.201123e+001
1.131607e+003, 3.190322e+001
1.132089e+003, 3.175410e+001
1.132571e+003, 3.175172e+001
1.133053e+003, 3.189946e+001
1.133535e+003, 3.188198e+001
1.134017e+003, 3.160371e+001
1.134499e+003, 3.142161e+001
1.134981e+003, 3.162836e+001
1.135464e+003, 3.201279e+001
1.135946e+003, 3.221464e+001
1.136428e+003, 3.226357e+001
1.136910e+003, 3.223833e+001
1.137392e+003, 3.216338e+001
1.137874e+003, 3.215483e+001
1.138356e+003, 3.222446e+001
1.138838e+003, 3.229121e+001
1.139321e+003, 3.231372e+001
1.139803e+003, 3.230764e+001
1.140285e+003, 3.229879e+001
1.140767e+003, 3.226532e+001
1.141249e+003, 3.212192e+001
1.141731e+003, 3.194109e+001
1.142213e+003, 3.185483e+001
1.142695e+003, 3.188942e+001
1.143177e+003, 3.214220e+001
1.143660e+003, 3.259600e+001
1.144142e+003, 3.286922e+001
1.144624e+003, 3.261477e+001
1.145106e+003, 3.225837e+001
1.145588e+003, 3.229307e+001
1.146070e+003, 3.244537e+001
1.146552e+003, 3.232710e+001
1.147034e+003, 3.208105e+001
1.147516e+003, 3.200991e+001
1.147999e+003, 3.213399e+001
1.148481e+003, 3.228292e+001
1.148963e+003, 3.239123e+001
1.149445e+003, 3.247758e+001
1.149927e+003, 3.258120e+001
1.150409e+003, 3.263531e+001
1.150891e+003, 3.258008e+001
1.151373e+003, 3.245916e+001
1.151856e+003, 3.223119e+001
1.152338e+003, 3.200376e+001
1.152820e+003, 3.205275e+001
1.153302e+003, 3.243313e+001
1.153784e+003, 3.266909e+001
1.154266e+003, 3.246500e+001
1.154748e+003, 3.228603e+001
1.155230e+003, 3.228330e+001
1.155713e+003, 3.235460e+001
1.156195e+003, 3.251981e+001
1.156677e+003, 3.266692e+001
1.157159e+003, 3.262574e+001
1.157641e+003, 3.242122e+001
1.158123e+003, 3.228349e+001
1.158605e+003, 3.224982e+001
1.159087e+003, 3.224814e+001
1.159569e+003, 3.226796e+001
1.160052e+003, 3.232948e+001
1.160534e+003, 3.249067e+001
1.161016e+003, 3.263748e+001
1.161498e+003, 3.269603e+001
1.161980e+003, 3.267348e+001
1.162462e+003, 3.256124e+001
1.162944e+003, 3.233625e+001
1.163426e+003, 3.227630e+001
1.163908e+003, 3.244567e+001
1.164391e+003, 3.258940e+001
1.164873e+003, 3.265735e+001
1.165355e+003, 3.275697e+001
1.165837e+003, 3.296975e+001
1.166319e+003, 3.315151e+001
1.166801e+003, 3.311292e+001
1.167283e+003, 3.292068e+001
1.167765e+003, 3.287129e+001
1.168247e+003, 3.297313e+001
1.168730e+003, 3.292395e+001
1.169212e+003, 3.270463e+001
1.169694e+003, 3.258719e+001
1.170176e+003, 3.264637e+001
1.170658e+003, 3.282430e+001
1.171140e+003, 3.310192e+001
1.171622e+003, 3.332720e+001
1.172104e+003, 3.319038e+001
1.172587e+003, 3.282716e+001
1.173069e+003, 3.266763e+001
1.173551e+003, 3.268793e+001
1.174033e+003, 3.285536e+001
1.174515e+003, 3.311824e+001
1.174997e+003, 3.327626e+001
1.175479e+003, 3.325832e+001
1.175961e+003, 3.317032e+001
1.176443e+003, 3.307220e+001
1.176926e+003, 3.301058e+001
1.177408e+003, 3.308638e+001
1.177890e+003, 3.320396e+001
1.178372e+003, 3.321003e+001
1.178854e+003, 3.315337e+001
1.179336e+003, 3.315158e+001
1.179818e+003, 3.321003e+001
1.180300e+003, 3.325218e+001
1.180782e+003, 3.324488e+001
1.181265e+003, 3.323297e+001
1.181747e+003, 3.326259e+001
1.182229e+003, 3.327408e+001
1.182711e+003, 3.314950e+001
1.183193e+003, 3.305921e+001
1.183675e+003, 3.327069e+001
1.184157e+003, 3.359477e+001
1.184639e+003, 3.360229e+001
1.185122e+003, 3.325985e+001
1.185604e+003, 3.312002e+001
1.186086e+003, 3.349556e+001
1.186568e+003, 3.377708e+001
1.187050e+003, 3.384699e+001
1.187532e+003, 3.382431e+001
1.188014e+003, 3.369362e+001
1.188496e+003, 3.354779e+001
1.188979e+003, 3.345082e+001
1.189461e+003, 3.341078e+001
1.189943e+003, 3.347742e+001
1.190425e+003, 3.370079e+001
1.190907e+003, 3.371129e+001
1.191389e+003, 3.336826e+001
1.191871e+003, 3.322558e+001
1.192353e+003, 3.343976e+001
1.192835e+003, 3.366329e+001
1.193318e+003, 3.373159e+001
1.193800e+003, 3.369524e+001
1.194282e+003, 3.359458e+001
1.194764e+003, 3.346570e+001
1.195246e+003, 3.349265e+001
1.195728e+003, 3.366363e+001
1.196210e+003, 3.359449e+001
1.196692e+003, 3.328752e+001
1.197174e+003, 3.316427e+001
1.197657e+003, 3.332298e+001
1.198139e+003, 3.354966e+001
1.198621e+003, 3.371835e+001
1.199103e+003, 3.379424e+001
1.199585e+003, 3.367887e+001
1.200067e+003, 3.347811e+001
1.200549e+003, 3.338762e+001
1.201031e+003, 3.338418e+001
1.201514e+003, 3.346999e+001
1.201996e+003, 3.358562e+001
1.202478e+003, 3.353584e+001
1.202960e+003, 3.330275e+001
1.203442e+003, 3.316832e+001
1.203924e+003, 3.334790e+001
1.204406e+003, 3.351704e+001
1.204888e+003, 3.332550e+001
1.205370e+003, 3.313447e+001
1.205853e+003, 3.333392e+001
1.206335e+003, 3.364263e+001
1.206817e+003, 3.369458e+001
1.207299e+003, 3.355129e+001
1.207781e+003, 3.345713e+001
1.208263e+003, 3.345896e+001
1.208745e+003, 3.352522e+001
1.209227e+003, 3.373841e+001
1.209709e+003, 3.387978e+001
1.210192e+003, 3.387442e+001
1.210674e+003, 3.382243e+001
1.211156e+003, 3.372439e+001
1.211638e+003, 3.364621e+001
1.212120e+003, 3.367220e+001
1.212602e+003, 3.376894e+001
1.213084e+003, 3.380674e+001
1.213566e+003, 3.376912e+001
1.214049e+003, 3.375245e+001
1.214531e+003, 3.375580e+001
1.215013e+003, 3.378842e+001
1.215495e+003, 3.385971e+001
1.215977e+003, 3.392773e+001
1.216459e+003, 3.397425e+001
1.216941e+003, 3.398124e+001
1.217423e+003, 3.391116e+001
1.217906e+003, 3.380947e+001
1.218388e+003, 3.382942e+001
1.218870e+003, 3.394683e+001
1.219352e+003, 3.410213e+001
1.219834e+003, 3.424511e+001
1.220316e+003, 3.407678e+001
1.220798e+003, 3.359536e+001
1.221280e+003, 3.324803e+001
1.221762e+003, 3.327800e+001
1.222245e+003, 3.343477e+001
1.222727e+003, 3.344513e+001
1.223209e+003, 3.346972e+001
1.223691e+003, 3.376876e+001
1.224173e+003, 3.413557e+001
1.224655e+003, 3.428399e+001
1.225137e+003, 3.428582e+001
1.225619e+003, 3.435839e+001
1.226101e+003, 3.450480e+001
1.226584e+003, 3.448237e+001
1.227066e+003, 3.411955e+001
1.227548e+003, 3.384502e+001
1.228030e+003, 3.382539e+001
1.228512e+003, 3.389833e+001
1.228994e+003, 3.406881e+001
1.229476e+003, 3.423493e+001
1.229958e+003, 3.434064e+001
1.230441e+003, 3.437813e+001
1.230923e+003, 3.433899e+001
1.231405e+003, 3.422368e+001
1.231887e+003, 3.403982e+001
1.232369e+003, 3.369202e+001
1.232851e+003, 3.359081e+001
1.233333e+003, 3.383327e+001
1.233815e+003, 3.402002e+001
1.234297e+003, 3.400111e+001
1.234780e+003, 3.406146e+001
1.235262e+003, 3.444501e+001
1.235744e+003, 3.486907e+001
1.236226e+003, 3.477445e+001
1.236708e+003, 3.434250e+001
1.237190e+003, 3.439939e+001
1.237672e+003, 3.481688e+001
1.238154e+003, 3.505718e+001
1.238636e+003, 3.507280e+001
1.239119e+003, 3.491233e+001
1.239601e+003, 3.462593e+001
1.240083e+003, 3.442048e+001
1.240565e+003, 3.443871e+001
1.241047e+003, 3.451997e+001
1.241529e+003, 3.453332e+001
1.242011e+003, 3.451066e+001
1.242493e+003, 3.444459e+001
1.242975e+003, 3.439224e+001
1.243458e+003, 3.446534e+001
1.243940e+003, 3.459144e+001
1.244422e+003, 3.458059e+001
1.244904e+003, 3.441822e+001
1.245386e+003, 3.434838e+001
1.245868e+003, 3.454762e+001
1.246350e+003, 3.463360e+001
1.246832e+003, 3.440804e+001
1.247315e+003, 3.424189e+001
1.247797e+003, 3.430096e+001
1.248279e+003, 3.440968e+001
1.248761e+003, 3.444345e+001
1.249243e+003, 3.444945e+001
1.249725e+003, 3.452034e+001
1.250207e+003, 3.464936e+001
1.250689e+003, 3.473867e+001
1.251172e+003, 3.479486e+001
1.251654e+003, 3.466965e+001
1.252136e+003, 3.433672e+001
1.252618e+003, 3.432112e+001
1.253100e+003, 3.477779e+001
1.253582e+003, 3.511285e+001
1.254064e+003, 3.490131e+001
1.254546e+003, 3.453484e+001
1.255028e+003, 3.460085e+001
1.255510e+003, 3.485383e+001
1.255993e+003, 3.480531e+001
1.256475e+003, 3.461579e+001
1.256957e+003, 3.455806e+001
1.257439e+003, 3.463439e+001
1.257921e+003, 3.482196e+001
1.258403e+003, 3.507116e+001
1.258885e+003, 3.517601e+001
1.259367e+003, 3.499553e+001
1.259850e+003, 3.486797e+001
1.260332e+003, 3.506251e+001
1.260814e+003, 3.519941e+001
1.261296e+003, 3.501480e+001
1.261778e+003, 3.478913e+001
1.262260e+003, 3.466738e+001
1.262742e+003, 3.469207e+001
1.263224e+003, 3.500331e+001
1.263707e+003, 3.553728e+001
1.264189e+003, 3.574369e+001
1.264671e+003, 3.552382e+001
1.265153e+003, 3.528757e+001
1.265635e+003, 3.499723e+001
1.266117e+003, 3.489521e+001
1.266599e+003, 3.506087e+001
1.267081e+003, 3.524565e+001
1.267563e+003, 3.531096e+001
1.268046e+003, 3.533474e+001
1.268528e+003, 3.541811e+001
1.269010e+003, 3.551304e+001
1.269492e+003, 3.549771e+001
1.269974e+003, 3.541056e+001
1.270456e+003, 3.535662e+001
1.270938e+003, 3.531470e+001
1.271420e+003, 3.516033e+001
1.271902e+003, 3.493606e+001
1.272385e+003, 3.490409e+001
1.272867e+003, 3.516554e+001
1.273349e+003, 3.537244e+001
1.273831e+003, 3.520560e+001
1.274313e+003, 3.508819e+001
1.274795e+003, 3.533195e+001
1.275277e+003, 3.558294e+001
1.275759e+003, 3.556545e+001
1.276242e+003, 3.545922e+001
1.276724e+003, 3.549855e+001
1.277206e+003, 3.562914e+001
1.277688e+003, 3.563839e+001
1.278170e+003, 3.550729e+001
1.278652e+003, 3.542251e+001
1.279134e+003, 3.537560e+001
1.279616e+003, 3.541924e+001
1.280099e+003, 3.558006e+001
1.280581e+003, 3.573365e+001
1.281063e+003, 3.584460e+001
1.281545e+003, 3.582479e+001
1.282027e+003, 3.558104e+001
1.282509e+003, 3.529874e+001
1.282991e+003, 3.527283e+001
1.283473e+003, 3.545474e+001
1.283955e+003, 3.574902e+001
##END=



