##NAMES=Vertumnite
##RRUFFID=R070063
##IDEAL CHEMISTRY=Ca_4_Al_4_Si_4_O_6_(OH)_24_&#183;3H_2_O
##LOCALITY=Ettringer, Bellerberg Mt, Eifel mountains, Germany
##OWNER=RRUFF
##SOURCE=Bob Jenkins
##DESCRIPTION=Rosettes of colorless platy crystals
##STATUS=The identification of this mineral has been confirmed by single-crystal X-ray diffraction.
##URL=rruff.info/R070063
131.3791, 3105.758
131.8612, 3220.824
132.3433, 3337.970
132.8254, 3458.906
133.3075, 3584.476
133.7896, 3705.967
134.2718, 3815.057
134.7539, 3912.118
135.2360, 4004.478
135.7181, 4092.355
136.2002, 4175.815
136.6823, 4249.090
137.1645, 4309.872
137.6466, 4366.067
138.1287, 4427.442
138.6108, 4496.030
139.0929, 4563.131
139.5750, 4624.528
140.0572, 4678.538
140.5393, 4741.397
141.0214, 4815.942
141.5035, 4897.105
141.9856, 4977.169
142.4677, 5052.365
142.9499, 5132.156
143.4320, 5217.786
143.9141, 5308.084
144.3962, 5409.810
144.8783, 5528.399
145.3604, 5658.870
145.8425, 5786.729
146.3247, 5910.958
146.8068, 6032.487
147.2889, 6152.045
147.7710, 6283.819
148.2531, 6392.892
148.7352, 6470.412
149.2174, 6516.458
149.6995, 6558.050
150.1816, 6609.449
150.6637, 6649.613
151.1458, 6660.946
151.6279, 6639.442
152.1101, 6592.272
152.5922, 6515.336
153.0743, 6402.697
153.5564, 6288.833
154.0385, 6176.272
154.5206, 6063.919
155.0028, 5949.634
155.4849, 5832.431
155.9670, 5713.729
156.4491, 5592.455
156.9312, 5463.190
157.4133, 5343.109
157.8955, 5236.145
158.3776, 5141.642
158.8597, 5056.268
159.3418, 4980.668
159.8239, 4913.973
160.3060, 4854.703
160.7882, 4799.941
161.2703, 4755.871
161.7524, 4730.535
162.2345, 4720.536
162.7166, 4708.481
163.1987, 4683.978
163.6808, 4655.007
164.1630, 4628.646
164.6451, 4603.171
165.1272, 4584.109
165.6093, 4576.731
166.0914, 4580.942
166.5735, 4587.164
167.0557, 4589.793
167.5378, 4590.931
168.0199, 4593.585
168.5020, 4602.143
168.9841, 4610.911
169.4662, 4612.787
169.9484, 4605.602
170.4305, 4602.347
170.9126, 4616.685
171.3947, 4642.943
171.8768, 4667.675
172.3589, 4685.314
172.8411, 4697.245
173.3232, 4704.928
173.8053, 4707.974
174.2874, 4708.318
174.7695, 4703.083
175.2516, 4694.934
175.7338, 4694.764
176.2159, 4716.675
176.6980, 4750.266
177.1801, 4777.377
177.6622, 4791.626
178.1443, 4801.065
178.6264, 4819.053
179.1086, 4844.785
179.5907, 4866.700
180.0728, 4867.452
180.5549, 4856.210
181.0370, 4858.227
181.5191, 4887.485
182.0013, 4931.090
182.4834, 4964.809
182.9655, 4988.048
183.4476, 5006.859
183.9297, 5025.389
184.4118, 5043.874
184.8940, 5063.443
185.3761, 5087.724
185.8582, 5113.607
186.3403, 5129.839
186.8224, 5134.598
187.3046, 5137.213
187.7867, 5151.130
188.2688, 5175.560
188.7509, 5198.935
189.2330, 5216.061
189.7151, 5227.438
190.1973, 5235.815
190.6794, 5240.606
191.1615, 5243.770
191.6436, 5246.201
192.1257, 5247.584
192.6078, 5255.611
193.0900, 5282.450
193.5721, 5326.234
194.0542, 5349.789
194.5363, 5344.573
195.0184, 5323.071
195.5005, 5313.830
195.9826, 5317.483
196.4648, 5329.515
196.9469, 5351.238
197.4290, 5383.205
197.9111, 5404.954
198.3932, 5408.899
198.8753, 5401.693
199.3575, 5411.107
199.8396, 5441.268
200.3217, 5473.933
200.8038, 5491.074
201.2859, 5490.455
201.7680, 5493.767
202.2502, 5505.303
202.7323, 5524.580
203.2144, 5549.854
203.6965, 5584.590
204.1786, 5617.899
204.6607, 5635.335
205.1429, 5632.797
205.6250, 5633.521
206.1071, 5642.634
206.5892, 5660.128
207.0713, 5686.613
207.5534, 5725.279
208.0356, 5768.190
208.5177, 5804.805
208.9998, 5833.213
209.4819, 5860.079
209.9640, 5884.398
210.4461, 5903.850
210.9282, 5941.104
211.4104, 6002.757
211.8925, 6075.891
212.3746, 6139.346
212.8567, 6190.978
213.3388, 6236.836
213.8209, 6277.145
214.3031, 6307.795
214.7852, 6349.688
215.2673, 6407.101
215.7494, 6472.882
216.2315, 6529.724
216.7136, 6572.076
217.1958, 6615.312
217.6779, 6669.727
218.1600, 6744.066
218.6421, 6801.783
219.1242, 6836.848
219.6063, 6855.635
220.0885, 6880.402
220.5706, 6916.866
221.0527, 6949.671
221.5348, 6969.551
222.0169, 6969.980
222.4990, 6973.583
222.9812, 6984.436
223.4633, 6999.980
223.9454, 7006.331
224.4275, 6998.310
224.9096, 6988.217
225.3917, 6984.622
225.8739, 6993.234
226.3560, 6995.628
226.8381, 6987.778
227.3202, 6971.094
227.8023, 6958.165
228.2844, 6952.404
228.7665, 6946.488
229.2487, 6933.627
229.7308, 6906.256
230.2129, 6887.269
230.6950, 6880.601
231.1771, 6885.984
231.6592, 6898.573
232.1414, 6929.113
232.6235, 6955.837
233.1056, 6958.078
233.5877, 6924.117
234.0698, 6887.015
234.5519, 6847.404
235.0341, 6804.485
235.5162, 6785.431
235.9983, 6806.227
236.4804, 6836.982
236.9625, 6845.644
237.4446, 6818.790
237.9268, 6793.960
238.4089, 6779.381
238.8910, 6776.441
239.3731, 6772.345
239.8552, 6766.500
240.3373, 6759.972
240.8195, 6755.540
241.3016, 6761.530
241.7837, 6754.845
242.2658, 6725.226
242.7479, 6666.482
243.2300, 6623.220
243.7122, 6602.914
244.1943, 6592.690
244.6764, 6574.728
245.1585, 6544.303
245.6406, 6514.668
246.1227, 6489.729
246.6048, 6470.460
247.0870, 6451.191
247.5691, 6431.235
248.0512, 6411.720
248.5333, 6395.351
249.0154, 6387.328
249.4975, 6373.693
249.9797, 6348.567
250.4618, 6307.911
250.9439, 6271.628
251.4260, 6241.669
251.9081, 6214.965
252.3902, 6185.273
252.8724, 6149.811
253.3545, 6115.973
253.8366, 6086.193
254.3187, 6060.498
254.8008, 6038.623
255.2829, 6022.905
255.7651, 6009.701
256.2472, 5989.631
256.7293, 5953.813
257.2114, 5927.432
257.6935, 5924.198
258.1756, 5956.286
258.6577, 5968.983
259.1399, 5954.713
259.6220, 5925.745
260.1041, 5909.639
260.5862, 5917.868
261.0683, 5915.934
261.5504, 5884.007
262.0326, 5807.145
262.5147, 5754.357
262.9968, 5733.256
263.4789, 5731.892
263.9610, 5725.021
264.4431, 5711.134
264.9253, 5694.958
265.4074, 5678.312
265.8895, 5661.154
266.3716, 5643.595
266.8537, 5624.710
267.3358, 5606.271
267.8180, 5591.251
268.3001, 5578.722
268.7822, 5572.445
269.2643, 5576.849
269.7464, 5595.070
270.2285, 5606.424
270.7107, 5607.971
271.1928, 5604.180
271.6749, 5606.617
272.1570, 5618.291
272.6391, 5626.399
273.1212, 5623.313
273.6034, 5607.463
274.0855, 5591.478
274.5676, 5574.750
275.0497, 5559.242
275.5318, 5550.067
276.0139, 5548.214
276.4961, 5548.094
276.9782, 5544.894
277.4603, 5537.766
277.9424, 5540.672
278.4245, 5557.010
278.9066, 5580.220
279.3888, 5595.276
279.8709, 5600.707
280.3530, 5608.500
280.8351, 5625.656
281.3172, 5652.304
281.7993, 5683.294
282.2815, 5722.342
282.7636, 5759.560
283.2457, 5771.188
283.7278, 5755.353
284.2099, 5739.536
284.6920, 5741.355
285.1741, 5759.185
285.6563, 5770.077
286.1384, 5769.751
286.6205, 5767.974
287.1026, 5783.204
287.5847, 5815.325
288.0668, 5850.337
288.5490, 5881.630
289.0311, 5909.497
289.5132, 5936.545
289.9953, 5963.421
290.4774, 5986.840
290.9595, 6000.362
291.4417, 6004.518
291.9238, 6005.419
292.4059, 6003.610
292.8880, 6000.870
293.3701, 6003.376
293.8522, 6012.042
294.3344, 6024.454
294.8165, 6037.498
295.2986, 6051.530
295.7807, 6068.096
296.2628, 6086.516
296.7449, 6108.409
297.2271, 6139.764
297.7092, 6183.041
298.1913, 6226.379
298.6734, 6256.711
299.1555, 6275.375
299.6376, 6286.034
300.1198, 6287.889
300.6019, 6283.847
301.0840, 6276.559
301.5661, 6265.116
302.0482, 6257.124
302.5303, 6261.184
303.0125, 6274.574
303.4946, 6290.563
303.9767, 6305.632
304.4588, 6321.536
304.9409, 6343.362
305.4230, 6372.536
305.9052, 6395.243
306.3873, 6394.179
306.8694, 6378.601
307.3515, 6365.884
307.8336, 6365.469
308.3157, 6370.327
308.7979, 6373.076
309.2800, 6372.814
309.7621, 6377.831
310.2442, 6404.470
310.7263, 6437.600
311.2084, 6455.857
311.6906, 6431.767
312.1727, 6403.567
312.6548, 6399.022
313.1369, 6420.056
313.6190, 6438.467
314.1011, 6436.970
314.5833, 6425.913
315.0654, 6417.212
315.5475, 6411.060
316.0296, 6411.358
316.5117, 6423.203
316.9938, 6446.482
317.4760, 6467.115
317.9580, 6481.885
318.4402, 6490.488
318.9223, 6492.550
319.4044, 6478.379
319.8865, 6467.046
320.3686, 6464.636
320.8507, 6470.964
321.3329, 6480.459
321.8150, 6500.459
322.2971, 6518.249
322.7792, 6524.603
323.2613, 6502.351
323.7434, 6485.506
324.2256, 6481.567
324.7077, 6489.381
325.1898, 6497.681
325.6719, 6506.403
326.1540, 6514.594
326.6361, 6521.698
327.1183, 6523.939
327.6004, 6529.604
328.0825, 6543.562
328.5646, 6562.745
329.0467, 6571.940
329.5288, 6562.570
330.0110, 6551.327
330.4931, 6546.480
330.9752, 6556.066
331.4573, 6557.909
331.9394, 6545.100
332.4215, 6524.994
332.9037, 6520.675
333.3858, 6541.506
333.8679, 6564.188
334.3500, 6579.440
334.8321, 6586.600
335.3142, 6587.775
335.7964, 6582.661
336.2785, 6571.751
336.7606, 6551.558
337.2427, 6512.725
337.7248, 6489.342
338.2069, 6502.481
338.6891, 6558.279
339.1712, 6594.474
339.6533, 6607.019
340.1354, 6605.902
340.6175, 6606.069
341.0996, 6608.289
341.5818, 6605.794
342.0639, 6593.569
342.5460, 6573.068
343.0281, 6557.937
343.5102, 6548.597
343.9923, 6543.575
344.4745, 6542.528
344.9566, 6545.213
345.4387, 6548.039
345.9208, 6552.315
346.4029, 6555.331
346.8850, 6546.612
347.3672, 6525.404
347.8493, 6502.100
348.3314, 6489.478
348.8135, 6483.603
349.2956, 6469.938
349.7777, 6436.648
350.2599, 6400.345
350.7419, 6391.153
351.2241, 6407.034
351.7062, 6422.860
352.1883, 6412.617
352.6704, 6390.660
353.1525, 6382.760
353.6346, 6401.101
354.1168, 6426.736
354.5989, 6441.188
355.0810, 6447.136
355.5631, 6454.373
356.0452, 6468.259
356.5273, 6486.611
357.0095, 6508.380
357.4916, 6536.150
357.9737, 6560.902
358.4558, 6567.549
358.9379, 6566.954
359.4200, 6583.117
359.9022, 6649.970
360.3843, 6720.121
360.8664, 6760.522
361.3485, 6757.384
361.8306, 6760.610
362.3127, 6796.537
362.7949, 6847.537
363.2770, 6888.081
363.7591, 6896.461
364.2412, 6906.954
364.7233, 6935.132
365.2054, 6986.182
365.6876, 7027.738
366.1697, 7041.708
366.6518, 7050.174
367.1339, 7074.885
367.6160, 7138.116
368.0981, 7195.366
368.5803, 7233.975
369.0624, 7253.744
369.5445, 7291.586
370.0266, 7363.340
370.5087, 7439.239
370.9908, 7497.556
371.4730, 7524.776
371.9551, 7558.198
372.4372, 7600.031
372.9193, 7650.848
373.4014, 7714.183
373.8835, 7796.581
374.3657, 7878.836
374.8478, 7947.310
375.3299, 7998.526
375.8120, 8054.836
376.2941, 8118.822
376.7762, 8187.859
377.2584, 8254.474
377.7405, 8318.717
378.2226, 8384.825
378.7047, 8454.592
379.1868, 8527.711
379.6689, 8611.493
380.1511, 8707.055
380.6332, 8807.980
381.1153, 8909.679
381.5974, 9011.842
382.0795, 9097.271
382.5616, 9152.930
383.0438, 9189.450
383.5259, 9233.892
384.0080, 9286.274
384.4901, 9342.807
384.9722, 9398.593
385.4543, 9455.753
385.9364, 9523.241
386.4185, 9613.367
386.9007, 9704.866
387.3828, 9771.140
387.8649, 9815.121
388.3470, 9858.843
388.8291, 9922.424
389.3112, 9991.707
389.7934, 10048.98
390.2755, 10088.44
390.7576, 10119.58
391.2397, 10148.46
391.7218, 10173.65
392.2039, 10191.87
392.6861, 10195.40
393.1682, 10196.06
393.6503, 10201.33
394.1324, 10214.20
394.6145, 10225.21
395.0966, 10234.03
395.5788, 10238.79
396.0609, 10236.86
396.5430, 10221.26
397.0251, 10205.13
397.5072, 10190.43
397.9893, 10176.62
398.4715, 10170.33
398.9536, 10174.48
399.4357, 10184.50
399.9178, 10197.69
400.3999, 10225.49
400.8820, 10238.38
401.3642, 10224.20
401.8463, 10189.06
402.3284, 10175.36
402.8105, 10191.36
403.2926, 10215.46
403.7747, 10237.57
404.2569, 10260.93
404.7390, 10269.14
405.2211, 10260.19
405.7032, 10236.38
406.1853, 10198.67
406.6674, 10144.87
407.1496, 10091.41
407.6317, 10046.51
408.1138, 10009.86
408.5959, 9976.788
409.0780, 9950.382
409.5602, 9915.056
410.0423, 9845.485
410.5244, 9747.038
411.0065, 9650.654
411.4886, 9569.329
411.9707, 9496.804
412.4529, 9423.717
412.9350, 9349.141
413.4171, 9265.471
413.8992, 9151.915
414.3813, 9027.060
414.8634, 8920.503
415.3456, 8850.049
415.8277, 8785.318
416.3098, 8699.837
416.7919, 8598.421
417.2740, 8493.402
417.7561, 8391.176
418.2382, 8289.994
418.7203, 8188.840
419.2025, 8083.705
419.6846, 7987.920
420.1667, 7912.382
420.6488, 7847.623
421.1309, 7777.648
421.6130, 7700.263
422.0952, 7616.867
422.5773, 7525.280
423.0594, 7424.176
423.5415, 7330.279
424.0236, 7247.535
424.5057, 7171.677
424.9879, 7100.880
425.4700, 7047.036
425.9521, 6980.973
426.4342, 6891.857
426.9163, 6787.170
427.3984, 6704.589
427.8806, 6652.044
428.3627, 6606.506
428.8448, 6556.232
429.3269, 6500.336
429.8090, 6443.954
430.2911, 6387.268
430.7733, 6330.111
431.2554, 6270.850
431.7375, 6209.290
432.2196, 6151.279
432.7017, 6098.224
433.1838, 6050.693
433.6660, 6015.128
434.1481, 5992.301
434.6302, 5971.873
435.1123, 5943.256
435.5944, 5908.628
436.0765, 5874.183
436.5587, 5839.146
437.0408, 5807.953
437.5229, 5789.292
438.0050, 5780.976
438.4871, 5773.268
438.9692, 5763.615
439.4514, 5749.759
439.9335, 5728.301
440.4156, 5696.773
440.8977, 5663.703
441.3798, 5626.468
441.8619, 5592.394
442.3441, 5573.751
442.8262, 5597.354
443.3083, 5617.561
443.7904, 5608.841
444.2725, 5567.671
444.7546, 5537.272
445.2368, 5536.714
445.7189, 5544.736
446.2010, 5544.749
446.6831, 5534.325
447.1652, 5517.193
447.6473, 5487.417
448.1295, 5449.822
448.6116, 5426.036
449.0937, 5421.223
449.5758, 5422.294
450.0579, 5425.822
450.5400, 5435.449
451.0221, 5429.744
451.5042, 5402.182
451.9864, 5368.887
452.4685, 5354.557
452.9506, 5360.840
453.4327, 5371.762
453.9148, 5386.521
454.3969, 5401.354
454.8791, 5398.301
455.3612, 5376.640
455.8433, 5351.374
456.3254, 5336.765
456.8075, 5329.064
457.2896, 5317.074
457.7718, 5295.738
458.2539, 5274.894
458.7360, 5268.171
459.2181, 5271.873
459.7002, 5273.979
460.1823, 5265.238
460.6645, 5253.688
461.1466, 5246.598
461.6287, 5244.984
462.1108, 5217.450
462.5929, 5239.247
463.0750, 5250.936
463.5572, 5253.062
464.0393, 5216.978
464.5214, 5230.234
465.0035, 5223.716
465.4856, 5216.388
465.9677, 5236.588
466.4499, 5206.062
466.9320, 5225.824
467.4141, 5208.357
467.8962, 5180.385
468.3783, 5156.029
468.8604, 5134.910
469.3426, 5117.735
469.8247, 5105.499
470.3068, 5099.451
470.7889, 5095.512
471.2710, 5094.032
471.7531, 5094.385
472.2353, 5089.585
472.7174, 5079.984
473.1995, 5063.564
473.6816, 5035.013
474.1637, 4995.772
474.6458, 4960.554
475.1280, 4932.178
475.6101, 4908.349
476.0922, 4884.759
476.5743, 4862.028
477.0564, 4843.883
477.5385, 4839.558
478.0207, 4837.532
478.5028, 4820.000
478.9849, 4784.875
479.4670, 4750.857
479.9491, 4734.641
480.4312, 4725.847
480.9134, 4711.898
481.3955, 4686.023
481.8776, 4656.582
482.3597, 4624.479
482.8418, 4590.913
483.3239, 4561.297
483.8060, 4534.295
484.2881, 4513.506
484.7703, 4502.067
485.2524, 4505.070
485.7345, 4506.167
486.2166, 4513.404
486.6987, 4514.287
487.1808, 4488.291
487.6630, 4409.994
488.1451, 4358.461
488.6272, 4358.845
489.1093, 4402.678
489.5914, 4431.973
490.0735, 4445.932
490.5557, 4447.322
491.0378, 4431.838
491.5199, 4401.140
492.0020, 4381.607
492.4841, 4377.353
492.9662, 4381.072
493.4484, 4383.136
493.9305, 4384.251
494.4126, 4387.372
494.8947, 4397.915
495.3768, 4409.214
495.8589, 4409.973
496.3411, 4400.910
496.8232, 4394.400
497.3053, 4398.155
497.7874, 4408.914
498.2695, 4424.497
498.7516, 4449.743
499.2338, 4469.858
499.7159, 4466.067
500.1980, 4453.411
500.6801, 4462.813
501.1622, 4522.979
501.6443, 4585.913
502.1265, 4633.944
502.6086, 4663.360
503.0907, 4700.845
503.5728, 4755.217
504.0549, 4810.233
504.5370, 4850.775
505.0192, 4864.684
505.5013, 4897.712
505.9834, 4958.342
506.4655, 5037.454
506.9476, 5112.263
507.4297, 5182.196
507.9119, 5256.452
508.3940, 5340.121
508.8761, 5431.714
509.3582, 5528.789
509.8403, 5631.784
510.3224, 5735.600
510.8046, 5827.736
511.2867, 5916.789
511.7688, 6025.289
512.2509, 6161.310
512.7330, 6312.064
513.2151, 6468.665
513.6973, 6630.351
514.1794, 6794.955
514.6615, 6953.043
515.1436, 7119.958
515.6257, 7302.873
516.1078, 7503.214
516.5900, 7725.712
517.0721, 7946.317
517.5542, 8205.741
518.0363, 8539.942
518.5184, 9085.301
519.0005, 9540.648
519.4827, 9833.182
519.9648, 10024.04
520.4469, 10313.26
520.9290, 10771.45
521.4111, 11190.01
521.8932, 11455.03
522.3754, 11555.50
522.8575, 11771.37
523.3396, 12121.62
523.8217, 12528.21
524.3038, 12913.02
524.7859, 13274.78
525.2681, 13659.54
525.7502, 14088.98
526.2323, 14527.80
526.7144, 14936.11
527.1965, 15316.24
527.6786, 15669.91
528.1608, 16013.23
528.6429, 16323.55
529.1250, 16572.09
529.6071, 16758.55
530.0892, 16896.65
530.5714, 17009.78
531.0535, 17073.06
531.5356, 17061.64
532.0176, 16986.79
532.4998, 16817.54
532.9819, 16532.14
533.4640, 16146.83
533.9461, 15699.00
534.4282, 15154.65
534.9103, 14599.29
535.3925, 14052.37
535.8746, 13517.68
536.3567, 12976.68
536.8388, 12427.66
537.3209, 11877.68
537.8030, 11334.38
538.2852, 10799.08
538.7673, 10287.70
539.2494, 9803.786
539.7315, 9350.426
540.2136, 8938.604
540.6957, 8565.254
541.1779, 8210.947
541.6600, 7853.043
542.1421, 7513.192
542.6242, 7240.137
543.1063, 7032.466
543.5884, 6832.282
544.0706, 6591.124
544.5527, 6342.884
545.0348, 6119.994
545.5169, 5930.188
545.9990, 5765.486
546.4811, 5636.435
546.9633, 5528.250
547.4454, 5416.651
547.9275, 5288.762
548.4096, 5168.188
548.8917, 5059.520
549.3738, 4962.725
549.8560, 4877.506
550.3381, 4808.571
550.8202, 4743.608
551.3023, 4672.078
551.7844, 4592.208
552.2665, 4527.009
552.7487, 4480.278
553.2308, 4442.557
553.7129, 4402.101
554.1950, 4358.893
554.6771, 4312.129
555.1592, 4255.668
555.6414, 4200.161
556.1235, 4164.354
556.6056, 4145.532
557.0877, 4130.054
557.5698, 4115.391
558.0519, 4096.613
558.5341, 4065.332
559.0162, 4015.764
559.4983, 3976.248
559.9804, 3965.683
560.4625, 3967.157
560.9446, 3962.778
561.4268, 3941.821
561.9089, 3923.727
562.3910, 3911.104
562.8731, 3903.129
563.3552, 3897.782
563.8373, 3897.984
564.3195, 3895.369
564.8016, 3885.967
565.2837, 3869.536
565.7658, 3852.515
566.2479, 3833.506
566.7300, 3818.882
567.2122, 3819.671
567.6943, 3832.170
568.1764, 3835.583
568.6585, 3823.509
569.1406, 3807.649
569.6227, 3799.333
570.1049, 3798.656
570.5870, 3805.953
571.0691, 3837.068
571.5512, 3863.801
572.0333, 3856.879
572.5154, 3819.757
572.9976, 3796.195
573.4797, 3818.502
573.9618, 3848.085
574.4439, 3861.121
574.9260, 3846.069
575.4081, 3831.141
575.8903, 3812.439
576.3724, 3797.096
576.8545, 3795.763
577.3366, 3816.344
577.8187, 3829.656
578.3008, 3828.318
578.7830, 3816.624
579.2651, 3808.954
579.7472, 3805.520
580.2293, 3802.856
580.7114, 3800.122
581.1935, 3796.573
581.6757, 3788.875
582.1578, 3776.712
582.6399, 3765.684
583.1220, 3764.309
583.6041, 3765.935
584.0862, 3760.232
584.5684, 3737.407
585.0505, 3720.028
585.5326, 3725.849
586.0147, 3744.510
586.4968, 3756.567
586.9789, 3749.502
587.4611, 3742.826
587.9432, 3744.732
588.4253, 3754.401
588.9074, 3754.857
589.3895, 3744.695
589.8716, 3727.382
590.3538, 3699.803
590.8359, 3657.653
591.3180, 3640.807
591.8001, 3655.850
592.2822, 3679.385
592.7643, 3680.552
593.2465, 3663.013
593.7286, 3649.508
594.2107, 3649.753
594.6928, 3651.277
595.1749, 3630.292
595.6570, 3595.316
596.1392, 3573.326
596.6213, 3597.160
597.1034, 3624.795
597.5854, 3622.584
598.0676, 3588.321
598.5497, 3561.407
599.0318, 3554.753
599.5139, 3558.891
599.9960, 3568.493
600.4781, 3592.005
600.9603, 3604.515
601.4424, 3602.121
601.9245, 3591.791
602.4066, 3582.669
602.8887, 3574.518
603.3708, 3569.582
603.8530, 3571.285
604.3351, 3574.397
604.8172, 3559.449
605.2993, 3527.527
605.7814, 3502.533
606.2635, 3503.841
606.7457, 3519.209
607.2278, 3530.441
607.7099, 3536.852
608.1920, 3538.510
608.6741, 3531.530
609.1563, 3521.865
609.6384, 3515.921
610.1205, 3519.037
610.6026, 3518.252
611.0847, 3506.259
611.5668, 3489.259
612.0490, 3477.221
612.5311, 3474.309
613.0132, 3470.384
613.4953, 3462.091
613.9774, 3451.310
614.4595, 3447.803
614.9417, 3452.729
615.4238, 3459.972
615.9059, 3466.143
616.3880, 3471.704
616.8701, 3481.718
617.3522, 3496.761
617.8344, 3508.268
618.3165, 3503.651
618.7986, 3491.677
619.2807, 3489.746
619.7628, 3507.493
620.2449, 3518.593
620.7271, 3494.399
621.2092, 3455.068
621.6913, 3431.174
622.1734, 3440.778
622.6555, 3457.064
623.1376, 3479.417
623.6198, 3504.500
624.1019, 3516.246
624.5840, 3511.404
625.0661, 3497.940
625.5482, 3474.575
626.0303, 3441.128
626.5125, 3425.164
626.9946, 3429.092
627.4767, 3439.860
627.9588, 3448.478
628.4409, 3454.514
628.9230, 3455.219
629.4052, 3449.081
629.8873, 3442.212
630.3694, 3441.464
630.8515, 3444.309
631.3336, 3446.299
631.8157, 3441.365
632.2979, 3439.550
632.7800, 3446.767
633.2621, 3461.126
633.7442, 3475.796
634.2263, 3497.991
634.7084, 3511.556
635.1906, 3508.735
635.6727, 3488.906
636.1548, 3475.557
636.6369, 3469.609
637.1190, 3468.225
637.6011, 3471.296
638.0833, 3478.605
638.5654, 3480.662
639.0475, 3475.565
639.5296, 3471.348
640.0117, 3480.853
640.4938, 3498.460
640.9760, 3510.056
641.4581, 3507.500
641.9402, 3504.033
642.4223, 3514.286
642.9044, 3531.072
643.3865, 3538.927
643.8687, 3517.275
644.3508, 3500.388
644.8329, 3506.821
645.3150, 3535.463
645.7971, 3547.620
646.2792, 3532.840
646.7614, 3516.120
647.2435, 3508.900
647.7256, 3512.045
648.2077, 3517.017
648.6898, 3524.530
649.1719, 3531.432
649.6541, 3534.810
650.1362, 3535.062
650.6183, 3532.703
651.1004, 3526.226
651.5825, 3522.471
652.0646, 3530.697
652.5468, 3546.257
653.0289, 3561.001
653.5110, 3574.385
653.9931, 3583.650
654.4752, 3584.773
654.9573, 3580.312
655.4395, 3579.651
655.9216, 3588.979
656.4037, 3596.741
656.8858, 3597.782
657.3679, 3592.334
657.8500, 3597.387
658.3322, 3616.918
658.8143, 3634.878
659.2964, 3636.984
659.7785, 3626.077
660.2606, 3623.030
660.7427, 3629.579
661.2249, 3639.218
661.7070, 3645.705
662.1891, 3650.963
662.6712, 3658.731
663.1533, 3671.919
663.6354, 3683.838
664.1175, 3689.554
664.5996, 3691.699
665.0817, 3694.718
665.5638, 3698.510
666.0460, 3704.873
666.5281, 3720.208
667.0102, 3738.967
667.4923, 3734.783
667.9744, 3696.100
668.4565, 3664.849
668.9387, 3661.230
669.4208, 3680.563
669.9029, 3692.414
670.3850, 3696.543
670.8671, 3701.069
671.3492, 3713.336
671.8314, 3729.948
672.3135, 3746.873
672.7956, 3764.444
673.2777, 3776.078
673.7598, 3773.305
674.2419, 3764.385
674.7241, 3757.671
675.2062, 3761.247
675.6883, 3758.270
676.1704, 3740.714
676.6525, 3717.883
677.1346, 3701.959
677.6168, 3692.985
678.0989, 3691.522
678.5810, 3700.221
679.0631, 3714.576
679.5452, 3722.777
680.0273, 3724.904
680.5095, 3723.707
680.9916, 3717.968
681.4737, 3711.011
681.9558, 3709.422
682.4379, 3712.368
682.9200, 3713.285
683.4022, 3703.079
683.8843, 3693.158
684.3664, 3693.577
684.8485, 3708.642
685.3306, 3716.894
685.8127, 3703.075
686.2949, 3689.799
686.7770, 3693.847
687.2591, 3726.158
687.7412, 3742.347
688.2233, 3737.328
688.7054, 3723.321
689.1876, 3713.811
689.6697, 3709.102
690.1518, 3713.721
690.6339, 3731.689
691.1160, 3753.617
691.5981, 3771.770
692.0803, 3784.578
692.5624, 3788.341
693.0445, 3770.590
693.5266, 3753.807
694.0087, 3750.639
694.4908, 3758.858
694.9730, 3765.269
695.4551, 3764.940
695.9372, 3765.608
696.4193, 3768.482
696.9014, 3773.614
697.3835, 3787.924
697.8657, 3814.416
698.3478, 3839.765
698.8299, 3854.478
699.3120, 3860.034
699.7941, 3861.064
700.2762, 3857.363
700.7584, 3856.416
701.2405, 3870.140
701.7226, 3888.530
702.2047, 3898.451
702.6868, 3896.118
703.1689, 3888.012
703.6511, 3864.510
704.1332, 3841.327
704.6153, 3839.570
705.0974, 3882.930
705.5795, 3910.561
706.0616, 3911.215
706.5438, 3897.117
707.0259, 3893.969
707.5080, 3902.446
707.9901, 3913.411
708.4722, 3926.119
708.9543, 3937.314
709.4365, 3939.226
709.9186, 3933.385
710.4007, 3927.005
710.8828, 3921.698
711.3649, 3919.340
711.8470, 3926.498
712.3292, 3941.487
712.8113, 3944.236
713.2934, 3910.284
713.7755, 3879.344
714.2576, 3874.129
714.7397, 3900.741
715.2219, 3906.532
715.7040, 3882.675
716.1861, 3857.406
716.6682, 3857.224
717.1503, 3879.148
717.6324, 3891.511
718.1146, 3891.071
718.5967, 3885.653
719.0788, 3881.734
719.5609, 3878.643
720.0430, 3875.672
720.5251, 3873.680
721.0073, 3869.462
721.4894, 3858.495
721.9715, 3845.249
722.4536, 3836.536
722.9357, 3841.377
723.4178, 3838.680
723.9000, 3822.088
724.3821, 3799.060
724.8642, 3787.882
725.3463, 3789.969
725.8284, 3792.666
726.3105, 3792.526
726.7927, 3789.857
727.2748, 3785.276
727.7569, 3778.719
728.2390, 3770.067
728.7211, 3756.538
729.2032, 3743.009
729.6853, 3734.030
730.1674, 3729.183
730.6495, 3723.373
731.1317, 3717.156
731.6138, 3707.583
732.0959, 3691.312
732.5780, 3666.926
733.0601, 3653.063
733.5422, 3652.139
734.0244, 3655.546
734.5065, 3657.811
734.9886, 3659.070
735.4707, 3661.528
735.9528, 3665.705
736.4349, 3666.146
736.9171, 3651.365
737.3992, 3632.254
737.8813, 3626.083
738.3634, 3642.404
738.8455, 3652.333
739.3276, 3638.622
739.8098, 3615.563
740.2919, 3598.870
740.7740, 3590.406
741.2561, 3586.586
741.7382, 3589.530
742.2203, 3594.590
742.7025, 3593.104
743.1846, 3585.141
743.6667, 3580.799
744.1488, 3585.608
744.6309, 3589.832
745.1130, 3572.307
745.5952, 3542.386
746.0773, 3523.363
746.5594, 3535.472
747.0415, 3551.527
747.5236, 3559.767
748.0057, 3561.014
748.4879, 3558.547
748.9700, 3551.243
749.4521, 3542.014
749.9342, 3529.229
750.4163, 3514.695
750.8984, 3511.668
751.3806, 3521.492
751.8627, 3532.418
752.3448, 3540.469
752.8269, 3544.293
753.3090, 3537.833
753.7911, 3522.134
754.2733, 3507.322
754.7554, 3498.454
755.2375, 3493.880
755.7196, 3494.365
756.2017, 3500.908
756.6838, 3501.854
757.1660, 3486.800
757.6481, 3473.403
758.1302, 3471.616
758.6123, 3483.607
759.0944, 3494.994
759.5765, 3506.735
760.0587, 3514.064
760.5408, 3509.138
761.0229, 3496.004
761.5050, 3487.076
761.9871, 3484.429
762.4692, 3482.725
762.9514, 3479.771
763.4335, 3474.453
763.9156, 3464.650
764.3977, 3443.123
764.8798, 3430.096
765.3619, 3433.662
765.8441, 3444.440
766.3262, 3454.140
766.8083, 3464.065
767.2904, 3466.980
767.7725, 3459.938
768.2546, 3449.968
768.7368, 3448.323
769.2189, 3453.607
769.7010, 3460.623
770.1831, 3468.278
770.6652, 3476.289
771.1473, 3484.848
771.6295, 3493.546
772.1116, 3501.510
772.5937, 3516.132
773.0758, 3520.903
773.5579, 3507.062
774.0400, 3482.111
774.5222, 3461.884
775.0043, 3445.078
775.4864, 3438.043
775.9685, 3444.374
776.4506, 3460.046
776.9327, 3478.340
777.4149, 3498.107
777.8970, 3514.046
778.3791, 3521.579
778.8612, 3525.545
779.3433, 3530.606
779.8254, 3535.846
780.3076, 3537.369
780.7897, 3531.313
781.2718, 3524.014
781.7539, 3515.140
782.2360, 3505.767
782.7181, 3508.231
783.2003, 3526.289
783.6824, 3542.394
784.1645, 3547.680
784.6466, 3544.157
785.1287, 3535.941
785.6108, 3523.721
786.0930, 3513.640
786.5751, 3505.803
787.0572, 3504.765
787.5393, 3519.535
788.0214, 3550.397
788.5035, 3570.995
788.9857, 3563.326
789.4678, 3554.820
789.9499, 3558.934
790.4320, 3577.139
790.9141, 3587.119
791.3962, 3587.036
791.8784, 3585.989
792.3605, 3590.135
792.8426, 3598.771
793.3247, 3613.271
793.8068, 3633.636
794.2889, 3647.476
794.7711, 3637.640
795.2531, 3622.402
795.7352, 3617.399
796.2173, 3626.475
796.6995, 3638.810
797.1816, 3658.191
797.6637, 3675.087
798.1458, 3683.117
798.6279, 3681.383
799.1100, 3673.049
799.5922, 3655.610
800.0743, 3644.760
800.5564, 3662.935
801.0385, 3698.205
801.5206, 3727.254
802.0027, 3747.126
802.4849, 3757.211
802.9670, 3747.053
803.4491, 3732.667
803.9312, 3729.388
804.4133, 3749.888
804.8954, 3761.056
805.3776, 3756.138
805.8597, 3749.820
806.3418, 3759.802
806.8239, 3786.216
807.3060, 3805.041
807.7881, 3813.226
808.2703, 3815.889
808.7524, 3812.182
809.2345, 3808.761
809.7166, 3818.318
810.1987, 3849.212
810.6808, 3878.458
811.1630, 3895.177
811.6451, 3905.706
812.1272, 3917.589
812.6093, 3933.566
813.0914, 3945.230
813.5735, 3950.973
814.0557, 3954.379
814.5378, 3959.966
815.0199, 3967.501
815.5020, 3973.833
815.9841, 3976.697
816.4662, 3984.461
816.9484, 4009.074
817.4305, 4042.894
817.9126, 4074.506
818.3947, 4103.243
818.8768, 4126.661
819.3589, 4126.084
819.8411, 4100.715
820.3232, 4136.453
820.8053, 4162.085
821.2874, 4178.154
821.7695, 4156.012
822.2516, 4183.211
822.7338, 4190.640
823.2159, 4197.253
823.6980, 4231.396
824.1801, 4214.814
824.6622, 4248.519
825.1443, 4269.276
825.6265, 4285.597
826.1086, 4307.654
826.5907, 4350.972
827.0728, 4377.972
827.5549, 4377.505
828.0370, 4369.082
828.5192, 4384.920
829.0013, 4425.790
829.4834, 4453.273
829.9655, 4455.749
830.4476, 4457.744
830.9297, 4502.968
831.4119, 4566.874
831.8940, 4603.483
832.3761, 4578.268
832.8582, 4558.190
833.3403, 4567.826
833.8224, 4597.371
834.3046, 4633.642
834.7867, 4682.925
835.2688, 4721.910
835.7509, 4747.763
836.2330, 4764.008
836.7151, 4769.638
837.1973, 4769.116
837.6794, 4783.024
838.1615, 4820.794
838.6436, 4862.677
839.1257, 4892.665
839.6078, 4916.306
840.0900, 4941.081
840.5721, 4967.796
841.0542, 4997.170
841.5363, 5033.174
842.0184, 5068.184
842.5005, 5090.604
842.9827, 5099.255
843.4648, 5110.381
843.9469, 5125.376
844.4290, 5147.126
844.9111, 5187.690
845.3932, 5235.489
845.8754, 5268.441
846.3575, 5275.658
846.8396, 5278.771
847.3217, 5279.031
847.8038, 5284.043
848.2859, 5304.146
848.7681, 5349.854
849.2502, 5382.242
849.7323, 5395.575
850.2144, 5402.992
850.6965, 5422.085
851.1786, 5449.900
851.6608, 5474.209
852.1429, 5492.188
852.6250, 5507.075
853.1071, 5517.610
853.5892, 5528.246
854.0714, 5543.700
854.5535, 5565.301
855.0356, 5591.950
855.5177, 5629.547
855.9998, 5665.418
856.4819, 5690.186
856.9641, 5703.953
857.4462, 5700.173
857.9283, 5675.513
858.4104, 5651.338
858.8925, 5649.803
859.3746, 5662.496
859.8568, 5680.461
860.3389, 5706.049
860.8210, 5718.469
861.3030, 5694.034
861.7852, 5665.274
862.2673, 5658.214
862.7494, 5681.605
863.2315, 5691.335
863.7136, 5683.246
864.1957, 5675.404
864.6779, 5691.715
865.1600, 5720.204
865.6421, 5726.507
866.1242, 5707.419
866.6063, 5681.683
867.0884, 5656.877
867.5706, 5634.195
868.0527, 5616.004
868.5348, 5604.421
869.0169, 5587.509
869.4990, 5561.748
869.9811, 5536.942
870.4633, 5521.764
870.9454, 5514.530
871.4275, 5493.300
871.9096, 5458.620
872.3917, 5427.260
872.8738, 5420.961
873.3560, 5417.834
873.8381, 5394.512
874.3202, 5349.950
874.8023, 5308.214
875.2844, 5277.426
875.7665, 5247.090
876.2487, 5214.915
876.7308, 5180.436
877.2129, 5135.410
877.6950, 5078.998
878.1771, 5026.920
878.6592, 4990.665
879.1414, 4963.494
879.6235, 4938.647
880.1056, 4915.202
880.5877, 4889.513
881.0698, 4861.601
881.5519, 4829.448
882.0341, 4789.881
882.5162, 4745.474
882.9983, 4703.755
883.4804, 4664.791
883.9625, 4628.019
884.4446, 4592.395
884.9268, 4559.787
885.4089, 4537.191
885.8910, 4521.448
886.3731, 4501.427
886.8552, 4463.568
887.3373, 4429.350
887.8195, 4412.272
888.3016, 4405.872
888.7837, 4394.164
889.2658, 4375.788
889.7479, 4354.292
890.2300, 4330.553
890.7122, 4304.310
891.1943, 4274.732
891.6764, 4242.234
892.1585, 4207.370
892.6406, 4164.318
893.1227, 4132.066
893.6049, 4136.688
894.0870, 4156.529
894.5691, 4163.952
895.0512, 4145.515
895.5333, 4127.644
896.0154, 4110.807
896.4976, 4094.739
896.9797, 4079.298
897.4618, 4064.370
897.9439, 4050.427
898.4260, 4037.141
898.9081, 4026.259
899.3903, 4020.743
899.8724, 4017.501
900.3545, 4013.025
900.8366, 4006.021
901.3187, 4000.690
901.8008, 4000.542
902.2830, 3998.293
902.7651, 3985.883
903.2472, 3962.915
903.7293, 3958.453
904.2114, 3973.374
904.6935, 3985.854
905.1757, 3976.288
905.6578, 3957.040
906.1399, 3937.556
906.6220, 3919.233
907.1041, 3913.560
907.5862, 3946.768
908.0684, 3968.090
908.5505, 3950.321
909.0326, 3901.677
909.5147, 3889.046
909.9968, 3914.005
910.4789, 3941.232
910.9611, 3955.264
911.4432, 3958.996
911.9253, 3954.900
912.4074, 3943.744
912.8895, 3927.786
913.3716, 3891.686
913.8538, 3870.445
914.3359, 3882.229
914.8180, 3911.772
915.3001, 3924.357
915.7822, 3917.977
916.2643, 3912.362
916.7465, 3912.529
917.2286, 3915.346
917.7107, 3917.448
918.1928, 3918.833
918.6749, 3919.237
919.1570, 3916.104
919.6392, 3916.218
920.1213, 3931.588
920.6034, 3945.038
921.0855, 3934.306
921.5676, 3890.197
922.0497, 3873.709
922.5319, 3893.052
923.0140, 3920.980
923.4961, 3924.726
923.9782, 3917.958
924.4603, 3929.295
924.9424, 3965.812
925.4246, 3985.510
925.9067, 3949.922
926.3888, 3908.375
926.8708, 3892.247
927.3530, 3903.612
927.8351, 3910.046
928.3172, 3910.599
928.7993, 3911.933
929.2814, 3924.252
929.7635, 3937.902
930.2457, 3929.463
930.7278, 3903.007
931.2099, 3882.905
931.6920, 3877.529
932.1741, 3883.529
932.6563, 3909.033
933.1384, 3944.839
933.6205, 3957.455
934.1026, 3942.465
934.5847, 3928.568
935.0668, 3924.677
935.5490, 3926.237
936.0311, 3928.602
936.5132, 3930.315
936.9953, 3928.110
937.4774, 3921.407
937.9595, 3909.718
938.4417, 3882.092
938.9238, 3855.284
939.4059, 3851.802
939.8880, 3877.412
940.3701, 3897.236
940.8522, 3908.385
941.3344, 3912.692
941.8165, 3906.522
942.2986, 3896.917
942.7807, 3898.528
943.2628, 3915.519
943.7449, 3925.684
944.2271, 3911.379
944.7092, 3895.263
945.1913, 3891.616
945.6734, 3901.146
946.1555, 3908.148
946.6376, 3912.572
947.1198, 3914.446
947.6019, 3910.597
948.0840, 3905.920
948.5661, 3908.624
949.0482, 3917.647
949.5303, 3927.793
950.0125, 3946.229
950.4946, 3953.926
950.9767, 3938.087
951.4588, 3910.052
951.9409, 3902.404
952.4230, 3916.536
952.9052, 3931.018
953.3873, 3942.129
953.8694, 3946.059
954.3515, 3926.475
954.8336, 3899.837
955.3157, 3894.635
955.7979, 3941.686
956.2800, 3968.873
956.7621, 3946.293
957.2442, 3915.338
957.7263, 3917.376
958.2084, 3953.433
958.6906, 3978.766
959.1727, 3991.034
959.6548, 3991.862
960.1369, 3967.576
960.6190, 3941.955
961.1011, 3946.813
961.5833, 3985.733
962.0654, 4012.844
962.5475, 4009.320
963.0296, 4006.626
963.5117, 4018.234
963.9938, 4039.918
964.4760, 4050.456
964.9581, 4050.465
965.4402, 4045.733
965.9223, 4030.962
966.4044, 4021.053
966.8865, 4038.639
967.3687, 4069.296
967.8508, 4081.081
968.3329, 4046.317
968.8150, 4029.682
969.2971, 4040.880
969.7792, 4066.161
970.2614, 4089.604
970.7435, 4110.366
971.2256, 4126.046
971.7077, 4136.361
972.1898, 4139.673
972.6719, 4126.108
973.1541, 4110.716
973.6362, 4106.952
974.1183, 4118.173
974.6004, 4130.140
975.0825, 4143.082
975.5646, 4156.462
976.0468, 4170.968
976.5289, 4185.470
977.0110, 4196.000
977.4931, 4203.199
977.9752, 4210.411
978.4573, 4222.518
978.9395, 4231.801
979.4216, 4233.620
979.9037, 4229.791
980.3858, 4223.518
980.8679, 4212.927
981.3500, 4210.812
981.8322, 4222.553
982.3143, 4237.053
982.7964, 4237.721
983.2785, 4230.126
983.7606, 4223.638
984.2427, 4219.026
984.7249, 4219.832
985.2070, 4232.800
985.6891, 4246.924
986.1712, 4256.127
986.6533, 4260.631
987.1354, 4253.936
987.6176, 4235.490
988.0997, 4219.983
988.5818, 4222.928
989.0639, 4231.121
989.5460, 4232.243
990.0281, 4225.938
990.5103, 4213.578
990.9924, 4182.501
991.4745, 4165.071
991.9566, 4174.191
992.4387, 4196.198
992.9208, 4193.875
993.4029, 4172.305
993.8850, 4165.121
994.3671, 4189.853
994.8492, 4212.489
995.3314, 4204.759
995.8135, 4182.124
996.2956, 4161.595
996.7777, 4141.872
997.2598, 4133.075
997.7419, 4138.018
998.2241, 4145.886
998.7062, 4148.993
999.1883, 4147.699
999.6704, 4142.415
1000.153, 4133.292
1000.635, 4121.083
1001.117, 4102.261
1001.599, 4084.546
1002.081, 4071.883
1002.563, 4063.326
1003.045, 4056.548
1003.527, 4051.777
1004.009, 4045.701
1004.492, 4036.101
1004.974, 4027.402
1005.456, 4027.332
1005.938, 4031.405
1006.420, 4032.336
1006.902, 4026.730
1007.384, 4021.036
1007.866, 4017.498
1008.349, 4012.546
1008.831, 4001.369
1009.313, 3984.828
1009.795, 3977.153
1010.277, 3978.306
1010.759, 3976.937
1011.241, 3956.490
1011.723, 3937.916
1012.205, 3940.640
1012.688, 3961.536
1013.170, 3973.297
1013.652, 3973.790
1014.134, 3967.801
1014.616, 3954.802
1015.098, 3938.813
1015.580, 3925.756
1016.062, 3915.700
1016.544, 3908.919
1017.027, 3906.008
1017.509, 3905.217
1017.991, 3907.155
1018.473, 3910.059
1018.955, 3913.035
1019.437, 3916.523
1019.919, 3915.019
1020.401, 3907.991
1020.884, 3903.322
1021.366, 3911.746
1021.848, 3922.124
1022.330, 3920.224
1022.812, 3908.365
1023.294, 3899.541
1023.776, 3898.362
1024.258, 3899.186
1024.740, 3905.388
1025.223, 3907.674
1025.705, 3876.370
1026.187, 3823.290
1026.669, 3801.437
1027.151, 3829.908
1027.633, 3863.728
1028.115, 3875.552
1028.597, 3878.507
1029.079, 3882.659
1029.562, 3887.486
1030.044, 3905.575
1030.526, 3941.767
1031.008, 3964.616
1031.490, 3936.529
1031.972, 3892.535
1032.454, 3892.922
1032.936, 3925.344
1033.419, 3950.067
1033.901, 3946.525
1034.383, 3941.964
1034.865, 3939.492
1035.347, 3940.726
1035.829, 3951.595
1036.311, 3970.227
1036.793, 3977.476
1037.276, 3969.107
1037.758, 3962.272
1038.240, 3969.957
1038.722, 3985.333
1039.204, 4008.344
1039.686, 4039.831
1040.168, 4044.483
1040.650, 4013.740
1041.132, 3987.298
1041.615, 3985.020
1042.097, 3996.307
1042.579, 4003.623
1043.061, 4007.909
1043.543, 4011.779
1044.025, 4013.964
1044.507, 4018.927
1044.989, 4027.555
1045.471, 4039.147
1045.954, 4055.719
1046.436, 4076.689
1046.918, 4084.167
1047.400, 4076.698
1047.882, 4071.257
1048.364, 4089.073
1048.846, 4107.541
1049.328, 4105.577
1049.811, 4084.278
1050.293, 4072.367
1050.775, 4072.368
1051.257, 4076.066
1051.739, 4082.904
1052.221, 4088.946
1052.703, 4083.625
1053.185, 4073.338
1053.667, 4071.939
1054.150, 4088.678
1054.632, 4100.316
1055.114, 4094.098
1055.596, 4087.074
1056.078, 4093.015
1056.560, 4111.085
1057.042, 4110.519
1057.524, 4092.454
1058.006, 4078.135
1058.489, 4086.716
1058.971, 4098.112
1059.453, 4097.143
1059.935, 4087.851
1060.417, 4082.865
1060.899, 4083.726
1061.381, 4086.230
1061.863, 4091.155
1062.346, 4092.967
1062.828, 4079.344
1063.310, 4060.051
1063.792, 4054.195
1064.274, 4065.696
1064.756, 4069.771
1065.238, 4048.755
1065.720, 4030.408
1066.203, 4023.988
1066.685, 4028.199
1067.167, 4042.370
1067.649, 4063.931
1068.131, 4077.671
1068.613, 4075.988
1069.095, 4066.932
1069.577, 4057.018
1070.059, 4041.364
1070.542, 4010.351
1071.024, 3952.313
1071.506, 3930.108
1071.988, 3949.122
1072.470, 3973.328
1072.952, 3977.208
1073.434, 3966.233
1073.916, 3935.444
1074.398, 3892.172
1074.881, 3874.412
1075.363, 3917.958
1075.845, 3946.424
1076.327, 3943.032
1076.809, 3924.074
1077.291, 3915.004
1077.773, 3913.424
1078.255, 3912.602
1078.738, 3911.592
1079.220, 3909.090
1079.702, 3905.242
1080.184, 3898.690
1080.666, 3888.541
1081.148, 3874.969
1081.630, 3857.892
1082.112, 3837.389
1082.594, 3828.830
1083.077, 3850.914
1083.559, 3871.080
1084.041, 3850.913
1084.523, 3810.525
1085.005, 3781.540
1085.487, 3773.033
1085.969, 3762.913
1086.451, 3749.172
1086.933, 3739.370
1087.416, 3741.835
1087.898, 3752.046
1088.380, 3762.929
1088.862, 3773.936
1089.344, 3784.019
1089.826, 3803.353
1090.308, 3806.223
1090.790, 3779.547
1091.272, 3741.381
1091.755, 3725.594
1092.237, 3727.945
1092.719, 3725.825
1093.201, 3714.265
1093.683, 3704.554
1094.165, 3715.050
1094.647, 3720.108
1095.129, 3692.203
1095.612, 3636.423
1096.094, 3624.470
1096.576, 3659.299
1097.058, 3690.671
1097.540, 3696.957
1098.022, 3692.602
1098.504, 3690.443
1098.986, 3689.346
1099.469, 3687.866
1099.951, 3688.019
1100.433, 3681.860
1100.915, 3667.546
1101.397, 3652.252
1101.879, 3636.869
1102.361, 3626.560
1102.843, 3640.532
1103.325, 3671.040
1103.807, 3684.954
1104.290, 3648.995
1104.772, 3622.163
1105.254, 3620.294
1105.736, 3628.696
1106.218, 3625.294
1106.700, 3612.331
1107.182, 3600.279
1107.664, 3590.570
1108.147, 3581.768
1108.629, 3570.129
1109.111, 3562.013
1109.593, 3561.721
1110.075, 3568.168
1110.557, 3580.230
1111.039, 3598.050
1111.521, 3608.672
1112.004, 3605.878
1112.486, 3599.963
1112.968, 3604.909
1113.450, 3610.234
1113.932, 3601.549
1114.414, 3572.041
1114.896, 3552.982
1115.378, 3544.436
1115.860, 3546.461
1116.343, 3569.265
1116.825, 3594.925
1117.307, 3584.555
1117.789, 3554.485
1118.271, 3543.023
1118.753, 3584.930
1119.235, 3612.271
1119.717, 3619.443
1120.199, 3612.292
1120.682, 3589.750
1121.164, 3558.571
1121.646, 3536.538
1122.128, 3524.914
1122.610, 3525.240
1123.092, 3554.617
1123.574, 3576.268
1124.056, 3575.941
1124.539, 3562.561
1125.021, 3551.647
1125.503, 3543.038
1125.985, 3535.021
1126.467, 3527.103
1126.949, 3521.625
1127.431, 3516.852
1127.913, 3518.221
1128.396, 3533.951
1128.878, 3560.758
1129.360, 3577.180
1129.842, 3582.949
1130.324, 3580.503
1130.806, 3567.852
1131.288, 3553.548
1131.770, 3543.568
1132.252, 3538.904
1132.734, 3543.079
1133.217, 3561.992
1133.699, 3564.470
1134.181, 3546.548
1134.663, 3529.164
1135.145, 3527.451
1135.627, 3532.346
1136.109, 3527.658
1136.591, 3518.511
1137.074, 3516.719
1137.556, 3537.516
1138.038, 3546.097
1138.520, 3535.569
1139.002, 3524.317
1139.484, 3535.183
1139.966, 3557.685
1140.448, 3566.209
1140.931, 3561.186
1141.413, 3552.812
1141.895, 3539.255
1142.377, 3531.177
1142.859, 3533.415
1143.341, 3539.273
1143.823, 3536.923
1144.305, 3528.490
1144.787, 3523.249
1145.270, 3522.508
1145.752, 3522.533
1146.234, 3520.449
1146.716, 3519.660
1147.198, 3524.939
1147.680, 3531.880
1148.162, 3521.640
1148.644, 3496.023
1149.126, 3473.890
1149.609, 3457.518
1150.091, 3456.516
1150.573, 3499.832
1151.055, 3544.587
1151.537, 3547.155
1152.019, 3507.825
1152.501, 3500.940
1152.983, 3527.716
1153.466, 3550.678
1153.948, 3551.380
1154.430, 3542.814
1154.912, 3529.060
1155.394, 3517.053
1155.876, 3518.391
1156.358, 3539.370
1156.840, 3552.977
1157.322, 3559.242
1157.805, 3557.946
1158.287, 3542.750
1158.769, 3524.706
1159.251, 3518.143
1159.733, 3519.542
1160.215, 3519.802
1160.697, 3519.288
1161.179, 3512.436
1161.661, 3496.790
1162.144, 3481.988
1162.626, 3479.940
1163.108, 3483.669
1163.590, 3478.608
1164.072, 3466.946
1164.554, 3468.662
1165.036, 3502.373
1165.518, 3524.813
1166.000, 3527.130
1166.483, 3519.440
1166.965, 3514.124
1167.447, 3510.172
1167.929, 3504.957
1168.411, 3498.219
1168.893, 3493.442
1169.375, 3494.174
1169.857, 3493.460
1170.340, 3487.587
1170.822, 3481.180
1171.304, 3489.673
1171.786, 3505.744
1172.268, 3505.078
1172.750, 3476.947
1173.232, 3460.325
1173.714, 3484.005
1174.197, 3508.904
1174.679, 3517.458
1175.161, 3513.427
1175.643, 3509.545
1176.125, 3505.857
1176.607, 3502.415
1177.089, 3498.597
1177.571, 3496.424
1178.053, 3500.899
1178.536, 3503.396
1179.018, 3496.145
1179.500, 3480.659
1179.982, 3473.722
1180.464, 3474.530
1180.946, 3477.792
1181.428, 3484.478
1181.910, 3488.352
1182.392, 3480.662
1182.875, 3472.861
1183.357, 3478.760
1183.839, 3498.545
1184.321, 3507.321
1184.803, 3505.250
1185.285, 3504.836
1185.767, 3520.101
1186.249, 3532.882
1186.732, 3531.193
1187.214, 3520.763
1187.696, 3507.481
1188.178, 3490.602
1188.660, 3490.137
1189.142, 3507.776
1189.624, 3527.503
1190.106, 3541.521
1190.589, 3548.959
1191.071, 3546.806
1191.553, 3537.797
1192.035, 3526.910
1192.517, 3513.503
1192.999, 3508.637
1193.481, 3514.351
1193.963, 3524.465
1194.445, 3540.629
1194.927, 3553.158
1195.410, 3551.352
1195.892, 3538.246
1196.374, 3528.763
1196.856, 3522.854
1197.338, 3524.760
1197.820, 3538.529
1198.302, 3545.148
1198.784, 3512.212
1199.267, 3474.087
1199.749, 3468.086
1200.231, 3492.549
1200.713, 3501.065
1201.195, 3491.137
1201.677, 3492.490
1202.159, 3518.561
1202.641, 3547.289
1203.124, 3557.525
1203.606, 3557.071
1204.088, 3552.879
1204.570, 3545.608
1205.052, 3536.357
1205.534, 3524.601
1206.016, 3515.578
1206.498, 3512.141
1206.980, 3510.922
1207.463, 3505.147
1207.945, 3501.113
1208.427, 3508.299
1208.909, 3528.203
1209.391, 3553.684
1209.873, 3587.113
1210.355, 3599.544
1210.837, 3559.589
1211.319, 3510.173
1211.802, 3490.213
1212.284, 3492.969
1212.766, 3512.138
1213.248, 3556.175
1213.730, 3572.568
1214.212, 3558.669
1214.694, 3540.795
1215.176, 3535.073
1215.659, 3534.765
1216.141, 3535.512
1216.623, 3536.192
1217.105, 3534.630
1217.587, 3530.296
1218.069, 3524.252
1218.551, 3515.863
1219.033, 3512.991
1219.516, 3529.627
1219.998, 3547.542
1220.480, 3546.243
1220.962, 3534.073
1221.444, 3534.007
1221.926, 3552.365
1222.408, 3552.493
1222.890, 3529.827
1223.372, 3507.919
1223.854, 3503.307
1224.337, 3510.647
1224.819, 3535.290
1225.301, 3567.089
1225.783, 3574.261
1226.265, 3550.427
1226.747, 3542.925
1227.229, 3558.574
1227.711, 3570.615
1228.193, 3542.515
1228.676, 3512.484
1229.158, 3517.055
1229.640, 3547.009
1230.122, 3563.119
1230.604, 3564.286
1231.086, 3561.188
1231.568, 3555.112
1232.050, 3547.700
1232.533, 3534.946
1233.015, 3526.102
1233.497, 3536.390
1233.979, 3556.787
1234.461, 3549.051
1234.943, 3511.836
1235.425, 3495.695
1235.907, 3512.764
1236.390, 3533.820
1236.872, 3531.184
1237.354, 3526.488
1237.836, 3540.891
1238.318, 3567.001
1238.800, 3575.773
1239.282, 3567.936
1239.764, 3561.081
1240.246, 3559.490
1240.729, 3558.378
1241.211, 3551.194
1241.693, 3546.316
1242.175, 3551.085
1242.657, 3562.509
1243.139, 3569.073
1243.621, 3570.738
1244.103, 3565.271
1244.585, 3550.215
1245.068, 3537.139
1245.550, 3533.842
1246.032, 3534.412
1246.514, 3534.231
1246.996, 3534.810
1247.478, 3544.786
1247.960, 3562.079
1248.442, 3576.068
1248.925, 3584.931
1249.407, 3586.662
1249.889, 3571.576
1250.371, 3558.535
1250.853, 3559.291
1251.335, 3568.989
1251.817, 3570.125
1252.299, 3564.237
1252.781, 3555.253
1253.264, 3540.498
1253.746, 3535.344
1254.228, 3548.857
1254.710, 3569.051
1255.192, 3594.153
1255.674, 3619.473
1256.156, 3630.630
1256.638, 3629.114
1257.120, 3616.976
1257.603, 3588.469
1258.085, 3567.091
1258.567, 3555.786
1259.049, 3553.722
1259.531, 3564.755
1260.013, 3581.001
1260.495, 3584.667
1260.977, 3579.283
1261.460, 3571.606
1261.942, 3560.153
1262.424, 3556.115
1262.906, 3562.613
1263.388, 3568.867
1263.870, 3567.685
1264.352, 3563.765
1264.834, 3563.491
1265.317, 3566.780
1265.799, 3573.686
1266.281, 3585.478
1266.763, 3599.551
1267.245, 3618.198
1267.727, 3627.994
1268.209, 3614.910
1268.691, 3596.190
1269.173, 3591.624
1269.656, 3596.177
1270.138, 3602.716
1270.620, 3612.016
1271.102, 3615.191
1271.584, 3611.965
1272.066, 3606.833
1272.548, 3599.272
1273.030, 3594.860
1273.512, 3603.779
1273.995, 3615.679
1274.477, 3615.843
1274.959, 3602.380
1275.441, 3598.230
1275.923, 3602.857
1276.405, 3604.781
1276.887, 3592.807
1277.369, 3582.822
1277.852, 3586.650
1278.334, 3594.714
1278.816, 3596.707
1279.298, 3593.212
1279.780, 3597.499
1280.262, 3609.176
1280.744, 3625.361
1281.226, 3657.560
1281.708, 3675.313
1282.191, 3657.850
1282.673, 3634.814
1283.155, 3630.803
1283.637, 3640.153
1284.119, 3633.861
1284.601, 3617.074
1285.083, 3607.177
1285.565, 3619.394
1286.047, 3626.336
1286.530, 3623.585
1287.012, 3618.182
1287.494, 3614.286
1287.976, 3612.191
1288.458, 3615.367
1288.940, 3620.553
1289.422, 3619.705
1289.904, 3602.858
1290.386, 3593.615
1290.869, 3592.589
1291.351, 3596.836
1291.833, 3609.108
1292.315, 3621.376
1292.797, 3622.786
1293.279, 3616.916
1293.761, 3609.905
1294.243, 3600.975
1294.726, 3595.561
1295.208, 3593.474
1295.690, 3597.809
1296.172, 3619.429
1296.654, 3638.517
1297.136, 3635.141
1297.618, 3622.059
1298.100, 3616.096
1298.583, 3617.585
1299.065, 3623.719
1299.547, 3633.821
1300.029, 3641.198
1300.511, 3642.906
##END=



