##NAMES=Vesignieite
##RRUFFID=R120149
##IDEAL CHEMISTRY=Cu^2+^_3_Ba(V^5+^O_4_)_2_(OH)_2_
##LOCALITY=Mina Milpillas, Municipio de Santa Cruz, Sonora, Mexico
##OWNER=RRUFF
##SOURCE=Marcus Origlieri
##DESCRIPTION=Olive green druse of platy crystals, some with pseudohexagonal outlines, associated with malachite
##STATUS=The identification of this mineral has been confirmed by single-crystal X-ray diffraction.
##URL=rruff.info/R120149
8.975323e+001, 0.000000e+000
9.023535e+001, 3.795640e+002
9.071747e+001, 3.772591e+002
9.119958e+001, 3.749874e+002
9.168170e+001, 3.799250e+002
9.216382e+001, 3.831178e+002
9.264594e+001, 3.831071e+002
9.312805e+001, 3.810896e+002
9.361017e+001, 3.784143e+002
9.409229e+001, 3.749619e+002
9.457440e+001, 3.702425e+002
9.505651e+001, 3.655288e+002
9.553863e+001, 3.611366e+002
9.602074e+001, 3.569547e+002
9.650286e+001, 3.529677e+002
9.698498e+001, 3.489493e+002
9.746709e+001, 3.441504e+002
9.794921e+001, 3.389877e+002
9.843133e+001, 3.334784e+002
9.891344e+001, 3.277901e+002
9.939556e+001, 3.216291e+002
9.987768e+001, 3.151550e+002
1.003598e+002, 3.089397e+002
1.008419e+002, 3.032077e+002
1.013240e+002, 2.980382e+002
1.018061e+002, 2.934101e+002
1.022883e+002, 2.896719e+002
1.027704e+002, 2.861683e+002
1.032525e+002, 2.821764e+002
1.037346e+002, 2.775121e+002
1.042167e+002, 2.731292e+002
1.046988e+002, 2.700438e+002
1.051810e+002, 2.675559e+002
1.056631e+002, 2.646248e+002
1.061452e+002, 2.605082e+002
1.066273e+002, 2.555264e+002
1.071094e+002, 2.510248e+002
1.075915e+002, 2.474144e+002
1.080737e+002, 2.437821e+002
1.085558e+002, 2.395832e+002
1.090379e+002, 2.350081e+002
1.095200e+002, 2.305870e+002
1.100021e+002, 2.267761e+002
1.104842e+002, 2.236595e+002
1.109664e+002, 2.208161e+002
1.114485e+002, 2.185673e+002
1.119306e+002, 2.163052e+002
1.124127e+002, 2.136048e+002
1.128948e+002, 2.104876e+002
1.133769e+002, 2.073559e+002
1.138591e+002, 2.048454e+002
1.143412e+002, 2.035210e+002
1.148233e+002, 2.017839e+002
1.153054e+002, 1.993953e+002
1.157875e+002, 1.967177e+002
1.162696e+002, 1.940535e+002
1.167517e+002, 1.914945e+002
1.172339e+002, 1.890474e+002
1.177160e+002, 1.867633e+002
1.181981e+002, 1.845866e+002
1.186802e+002, 1.825997e+002
1.191623e+002, 1.808289e+002
1.196444e+002, 1.792673e+002
1.201266e+002, 1.779271e+002
1.206087e+002, 1.769545e+002
1.210908e+002, 1.761026e+002
1.215729e+002, 1.748726e+002
1.220550e+002, 1.730995e+002
1.225371e+002, 1.712306e+002
1.230193e+002, 1.697097e+002
1.235014e+002, 1.685782e+002
1.239835e+002, 1.674063e+002
1.244656e+002, 1.659899e+002
1.249477e+002, 1.644338e+002
1.254298e+002, 1.627552e+002
1.259120e+002, 1.608876e+002
1.263941e+002, 1.590130e+002
1.268762e+002, 1.575862e+002
1.273583e+002, 1.568137e+002
1.278404e+002, 1.561817e+002
1.283225e+002, 1.557779e+002
1.288047e+002, 1.553457e+002
1.292868e+002, 1.545027e+002
1.297689e+002, 1.529330e+002
1.302510e+002, 1.507100e+002
1.307331e+002, 1.489161e+002
1.312152e+002, 1.477936e+002
1.316974e+002, 1.468881e+002
1.321795e+002, 1.462590e+002
1.326616e+002, 1.457862e+002
1.331437e+002, 1.452400e+002
1.336258e+002, 1.443966e+002
1.341079e+002, 1.431756e+002
1.345901e+002, 1.421771e+002
1.350722e+002, 1.415313e+002
1.355543e+002, 1.409550e+002
1.360364e+002, 1.402165e+002
1.365185e+002, 1.393223e+002
1.370006e+002, 1.385468e+002
1.374828e+002, 1.382976e+002
1.379649e+002, 1.387485e+002
1.384470e+002, 1.387671e+002
1.389291e+002, 1.379946e+002
1.394112e+002, 1.368756e+002
1.398933e+002, 1.358861e+002
1.403755e+002, 1.351208e+002
1.408576e+002, 1.345398e+002
1.413397e+002, 1.341523e+002
1.418218e+002, 1.339375e+002
1.423039e+002, 1.337571e+002
1.427860e+002, 1.335653e+002
1.432681e+002, 1.333652e+002
1.437503e+002, 1.331514e+002
1.442324e+002, 1.328522e+002
1.447145e+002, 1.326320e+002
1.451966e+002, 1.326366e+002
1.456787e+002, 1.328657e+002
1.461608e+002, 1.331618e+002
1.466430e+002, 1.334009e+002
1.471251e+002, 1.335786e+002
1.476072e+002, 1.337447e+002
1.480893e+002, 1.338504e+002
1.485714e+002, 1.339865e+002
1.490535e+002, 1.342502e+002
1.495357e+002, 1.346507e+002
1.500178e+002, 1.350563e+002
1.504999e+002, 1.352314e+002
1.509820e+002, 1.349844e+002
1.514641e+002, 1.349353e+002
1.519462e+002, 1.351087e+002
1.524284e+002, 1.354742e+002
1.529105e+002, 1.361034e+002
1.533926e+002, 1.370047e+002
1.538747e+002, 1.380002e+002
1.543568e+002, 1.386409e+002
1.548389e+002, 1.386413e+002
1.553211e+002, 1.385743e+002
1.558032e+002, 1.382368e+002
1.562853e+002, 1.379137e+002
1.567674e+002, 1.379968e+002
1.572495e+002, 1.387006e+002
1.577316e+002, 1.398529e+002
1.582138e+002, 1.407227e+002
1.586959e+002, 1.411708e+002
1.591780e+002, 1.415424e+002
1.596601e+002, 1.417979e+002
1.601422e+002, 1.420247e+002
1.606243e+002, 1.424482e+002
1.611065e+002, 1.432493e+002
1.615886e+002, 1.443165e+002
1.620707e+002, 1.451220e+002
1.625528e+002, 1.455112e+002
1.630349e+002, 1.458117e+002
1.635170e+002, 1.461739e+002
1.639991e+002, 1.465974e+002
1.644813e+002, 1.470757e+002
1.649634e+002, 1.476431e+002
1.654455e+002, 1.482564e+002
1.659276e+002, 1.488062e+002
1.664097e+002, 1.491718e+002
1.668918e+002, 1.495594e+002
1.673740e+002, 1.502416e+002
1.678561e+002, 1.512744e+002
1.683382e+002, 1.523310e+002
1.688203e+002, 1.534191e+002
1.693024e+002, 1.543718e+002
1.697845e+002, 1.549313e+002
1.702667e+002, 1.549468e+002
1.707488e+002, 1.545376e+002
1.712309e+002, 1.538735e+002
1.717130e+002, 1.526056e+002
1.721951e+002, 1.517613e+002
1.726772e+002, 1.521702e+002
1.731594e+002, 1.530991e+002
1.736415e+002, 1.534858e+002
1.741236e+002, 1.526308e+002
1.746057e+002, 1.507355e+002
1.750878e+002, 1.490094e+002
1.755699e+002, 1.474406e+002
1.760521e+002, 1.460923e+002
1.765342e+002, 1.451867e+002
1.770163e+002, 1.444982e+002
1.774984e+002, 1.436452e+002
1.779805e+002, 1.423130e+002
1.784626e+002, 1.404935e+002
1.789448e+002, 1.388929e+002
1.794269e+002, 1.376688e+002
1.799090e+002, 1.365030e+002
1.803911e+002, 1.352767e+002
1.808732e+002, 1.340254e+002
1.813553e+002, 1.328744e+002
1.818375e+002, 1.319338e+002
1.823196e+002, 1.312228e+002
1.828017e+002, 1.305553e+002
1.832838e+002, 1.299461e+002
1.837659e+002, 1.293543e+002
1.842480e+002, 1.288267e+002
1.847301e+002, 1.283280e+002
1.852123e+002, 1.277081e+002
1.856944e+002, 1.267981e+002
1.861765e+002, 1.255410e+002
1.866586e+002, 1.244810e+002
1.871407e+002, 1.236913e+002
1.876228e+002, 1.230433e+002
1.881050e+002, 1.224901e+002
1.885871e+002, 1.220210e+002
1.890692e+002, 1.215485e+002
1.895513e+002, 1.209818e+002
1.900334e+002, 1.203240e+002
1.905155e+002, 1.196653e+002
1.909977e+002, 1.189970e+002
1.914798e+002, 1.183446e+002
1.919619e+002, 1.177355e+002
1.924440e+002, 1.171745e+002
1.929261e+002, 1.166453e+002
1.934082e+002, 1.161917e+002
1.938904e+002, 1.157762e+002
1.943725e+002, 1.152503e+002
1.948546e+002, 1.144723e+002
1.953367e+002, 1.135671e+002
1.958188e+002, 1.127623e+002
1.963009e+002, 1.120625e+002
1.967831e+002, 1.115031e+002
1.972652e+002, 1.111095e+002
1.977473e+002, 1.108566e+002
1.982294e+002, 1.107124e+002
1.987115e+002, 1.107495e+002
1.991936e+002, 1.109040e+002
1.996758e+002, 1.108808e+002
2.001579e+002, 1.105362e+002
2.006400e+002, 1.101996e+002
2.011221e+002, 1.101630e+002
2.016042e+002, 1.102895e+002
2.020863e+002, 1.102320e+002
2.025685e+002, 1.095896e+002
2.030506e+002, 1.084188e+002
2.035327e+002, 1.077410e+002
2.040148e+002, 1.080021e+002
2.044969e+002, 1.083383e+002
2.049790e+002, 1.085229e+002
2.054612e+002, 1.085244e+002
2.059433e+002, 1.083181e+002
2.064254e+002, 1.077926e+002
2.069075e+002, 1.069112e+002
2.073896e+002, 1.064316e+002
2.078717e+002, 1.068879e+002
2.083539e+002, 1.072797e+002
2.088360e+002, 1.072661e+002
2.093181e+002, 1.069058e+002
2.098002e+002, 1.064404e+002
2.102823e+002, 1.060772e+002
2.107644e+002, 1.058309e+002
2.112466e+002, 1.055776e+002
2.117287e+002, 1.051588e+002
2.122108e+002, 1.048779e+002
2.126929e+002, 1.049390e+002
2.131750e+002, 1.052728e+002
2.136571e+002, 1.056529e+002
2.141393e+002, 1.058882e+002
2.146214e+002, 1.059821e+002
2.151035e+002, 1.058676e+002
2.155856e+002, 1.054321e+002
2.160677e+002, 1.049400e+002
2.165498e+002, 1.044775e+002
2.170320e+002, 1.040693e+002
2.175141e+002, 1.037197e+002
2.179962e+002, 1.034175e+002
2.184783e+002, 1.031556e+002
2.189604e+002, 1.031508e+002
2.194425e+002, 1.037353e+002
2.199247e+002, 1.042774e+002
2.204068e+002, 1.043208e+002
2.208889e+002, 1.038884e+002
2.213710e+002, 1.033950e+002
2.218531e+002, 1.032230e+002
2.223352e+002, 1.033934e+002
2.228174e+002, 1.033085e+002
2.232995e+002, 1.026680e+002
2.237816e+002, 1.019938e+002
2.242637e+002, 1.017269e+002
2.247458e+002, 1.018753e+002
2.252279e+002, 1.020721e+002
2.257100e+002, 1.019879e+002
2.261922e+002, 1.016722e+002
2.266743e+002, 1.015375e+002
2.271564e+002, 1.017310e+002
2.276385e+002, 1.020399e+002
2.281206e+002, 1.022828e+002
2.286027e+002, 1.024503e+002
2.290849e+002, 1.025886e+002
2.295670e+002, 1.027255e+002
2.300491e+002, 1.028570e+002
2.305312e+002, 1.029721e+002
2.310133e+002, 1.030790e+002
2.314954e+002, 1.031626e+002
2.319776e+002, 1.031944e+002
2.324597e+002, 1.031671e+002
2.329418e+002, 1.031382e+002
2.334239e+002, 1.031153e+002
2.339060e+002, 1.031205e+002
2.343881e+002, 1.031987e+002
2.348703e+002, 1.033890e+002
2.353524e+002, 1.036338e+002
2.358345e+002, 1.038651e+002
2.363166e+002, 1.040866e+002
2.367987e+002, 1.042826e+002
2.372808e+002, 1.044265e+002
2.377630e+002, 1.045466e+002
2.382451e+002, 1.046649e+002
2.387272e+002, 1.047682e+002
2.392093e+002, 1.049017e+002
2.396914e+002, 1.051757e+002
2.401735e+002, 1.056661e+002
2.406557e+002, 1.060545e+002
2.411378e+002, 1.062244e+002
2.416199e+002, 1.062364e+002
2.421020e+002, 1.060600e+002
2.425841e+002, 1.056208e+002
2.430662e+002, 1.051930e+002
2.435484e+002, 1.053200e+002
2.440305e+002, 1.062423e+002
2.445126e+002, 1.070666e+002
2.449947e+002, 1.074970e+002
2.454768e+002, 1.077585e+002
2.459589e+002, 1.080477e+002
2.464410e+002, 1.084361e+002
2.469232e+002, 1.088149e+002
2.474053e+002, 1.089883e+002
2.478874e+002, 1.088802e+002
2.483695e+002, 1.087367e+002
2.488516e+002, 1.084873e+002
2.493337e+002, 1.082886e+002
2.498159e+002, 1.083170e+002
2.502980e+002, 1.086172e+002
2.507801e+002, 1.090008e+002
2.512622e+002, 1.090974e+002
2.517443e+002, 1.086191e+002
2.522264e+002, 1.085235e+002
2.527086e+002, 1.091013e+002
2.531907e+002, 1.098902e+002
2.536728e+002, 1.106016e+002
2.541549e+002, 1.111498e+002
2.546370e+002, 1.115957e+002
2.551191e+002, 1.120473e+002
2.556013e+002, 1.125833e+002
2.560834e+002, 1.129361e+002
2.565655e+002, 1.128992e+002
2.570476e+002, 1.128581e+002
2.575297e+002, 1.130908e+002
2.580118e+002, 1.136336e+002
2.584940e+002, 1.143055e+002
2.589761e+002, 1.148585e+002
2.594582e+002, 1.152111e+002
2.599403e+002, 1.156530e+002
2.604224e+002, 1.162045e+002
2.609045e+002, 1.168126e+002
2.613867e+002, 1.174554e+002
2.618688e+002, 1.181262e+002
2.623509e+002, 1.188094e+002
2.628330e+002, 1.194883e+002
2.633151e+002, 1.201483e+002
2.637972e+002, 1.208643e+002
2.642794e+002, 1.215635e+002
2.647615e+002, 1.223619e+002
2.652436e+002, 1.233678e+002
2.657257e+002, 1.245512e+002
2.662078e+002, 1.257830e+002
2.666899e+002, 1.269486e+002
2.671721e+002, 1.280510e+002
2.676542e+002, 1.290223e+002
2.681363e+002, 1.296862e+002
2.686184e+002, 1.304051e+002
2.691005e+002, 1.313593e+002
2.695826e+002, 1.325324e+002
2.700648e+002, 1.338065e+002
2.705469e+002, 1.350927e+002
2.710290e+002, 1.363816e+002
2.715111e+002, 1.377235e+002
2.719932e+002, 1.391785e+002
2.724753e+002, 1.406128e+002
2.729575e+002, 1.418808e+002
2.734396e+002, 1.430645e+002
2.739217e+002, 1.443735e+002
2.744038e+002, 1.459492e+002
2.748859e+002, 1.477818e+002
2.753680e+002, 1.497338e+002
2.758501e+002, 1.518351e+002
2.763322e+002, 1.539955e+002
2.768144e+002, 1.561831e+002
2.772965e+002, 1.584169e+002
2.777786e+002, 1.607153e+002
2.782607e+002, 1.630804e+002
2.787428e+002, 1.655282e+002
2.792249e+002, 1.681750e+002
2.797071e+002, 1.711526e+002
2.801892e+002, 1.741386e+002
2.806713e+002, 1.769633e+002
2.811534e+002, 1.797545e+002
2.816355e+002, 1.828071e+002
2.821176e+002, 1.862886e+002
2.825998e+002, 1.899636e+002
2.830819e+002, 1.930877e+002
2.835640e+002, 1.951841e+002
2.840461e+002, 1.977265e+002
2.845282e+002, 2.012384e+002
2.850103e+002, 2.053182e+002
2.854925e+002, 2.094682e+002
2.859746e+002, 2.135656e+002
2.864567e+002, 2.174818e+002
2.869388e+002, 2.209229e+002
2.874209e+002, 2.236162e+002
2.879030e+002, 2.267458e+002
2.883852e+002, 2.307501e+002
2.888673e+002, 2.351701e+002
2.893494e+002, 2.393752e+002
2.898315e+002, 2.432133e+002
2.903136e+002, 2.470616e+002
2.907957e+002, 2.515314e+002
2.912779e+002, 2.567270e+002
2.917600e+002, 2.615754e+002
2.922421e+002, 2.655530e+002
2.927242e+002, 2.693724e+002
2.932063e+002, 2.739655e+002
2.936884e+002, 2.794458e+002
2.941706e+002, 2.846493e+002
2.946527e+002, 2.882738e+002
2.951348e+002, 2.903052e+002
2.956169e+002, 2.932068e+002
2.960990e+002, 2.980268e+002
2.965811e+002, 3.030480e+002
2.970633e+002, 3.068534e+002
2.975454e+002, 3.094454e+002
2.980275e+002, 3.118156e+002
2.985096e+002, 3.146099e+002
2.989917e+002, 3.177743e+002
2.994738e+002, 3.208412e+002
2.999560e+002, 3.243647e+002
3.004381e+002, 3.272766e+002
3.009202e+002, 3.286585e+002
3.014023e+002, 3.287729e+002
3.018844e+002, 3.289056e+002
3.023665e+002, 3.298330e+002
3.028487e+002, 3.311451e+002
3.033308e+002, 3.316543e+002
3.038129e+002, 3.312347e+002
3.042950e+002, 3.303441e+002
3.047771e+002, 3.292469e+002
3.052592e+002, 3.278387e+002
3.057414e+002, 3.257749e+002
3.062235e+002, 3.228224e+002
3.067056e+002, 3.193453e+002
3.071877e+002, 3.161232e+002
3.076698e+002, 3.133329e+002
3.081519e+002, 3.101344e+002
3.086341e+002, 3.060452e+002
3.091162e+002, 3.014228e+002
3.095983e+002, 2.968725e+002
3.100804e+002, 2.925469e+002
3.105625e+002, 2.883973e+002
3.110446e+002, 2.844855e+002
3.115268e+002, 2.808136e+002
3.120089e+002, 2.770114e+002
3.124910e+002, 2.728451e+002
3.129731e+002, 2.685883e+002
3.134552e+002, 2.644226e+002
3.139373e+002, 2.603712e+002
3.144195e+002, 2.567285e+002
3.149016e+002, 2.539770e+002
3.153837e+002, 2.520310e+002
3.158658e+002, 2.496135e+002
3.163479e+002, 2.461305e+002
3.168300e+002, 2.424859e+002
3.173121e+002, 2.394875e+002
3.177943e+002, 2.371126e+002
3.182764e+002, 2.347934e+002
3.187585e+002, 2.321438e+002
3.192406e+002, 2.292434e+002
3.197227e+002, 2.264697e+002
3.202048e+002, 2.237722e+002
3.206870e+002, 2.212320e+002
3.211691e+002, 2.189561e+002
3.216512e+002, 2.168954e+002
3.221333e+002, 2.148179e+002
3.226154e+002, 2.125978e+002
3.230975e+002, 2.103396e+002
3.235797e+002, 2.083732e+002
3.240618e+002, 2.067953e+002
3.245439e+002, 2.052246e+002
3.250260e+002, 2.035424e+002
3.255081e+002, 2.017715e+002
3.259902e+002, 1.999842e+002
3.264724e+002, 1.982348e+002
3.269545e+002, 1.963405e+002
3.274366e+002, 1.938531e+002
3.279187e+002, 1.906101e+002
3.284008e+002, 1.878042e+002
3.288829e+002, 1.860960e+002
3.293651e+002, 1.847432e+002
3.298472e+002, 1.828555e+002
3.303293e+002, 1.802786e+002
3.308114e+002, 1.774709e+002
3.312935e+002, 1.748545e+002
3.317756e+002, 1.724513e+002
3.322578e+002, 1.699805e+002
3.327399e+002, 1.673804e+002
3.332220e+002, 1.647665e+002
3.337041e+002, 1.621423e+002
3.341862e+002, 1.595520e+002
3.346683e+002, 1.571375e+002
3.351505e+002, 1.550476e+002
3.356326e+002, 1.532337e+002
3.361147e+002, 1.513509e+002
3.365968e+002, 1.493448e+002
3.370789e+002, 1.473178e+002
3.375610e+002, 1.453394e+002
3.380432e+002, 1.433685e+002
3.385253e+002, 1.412956e+002
3.390074e+002, 1.390429e+002
3.394895e+002, 1.367257e+002
3.399716e+002, 1.346801e+002
3.404537e+002, 1.329707e+002
3.409359e+002, 1.313680e+002
3.414180e+002, 1.298834e+002
3.419001e+002, 1.284608e+002
3.423822e+002, 1.270299e+002
3.428643e+002, 1.255757e+002
3.433464e+002, 1.241319e+002
3.438286e+002, 1.227315e+002
3.443107e+002, 1.213336e+002
3.447928e+002, 1.201587e+002
3.452749e+002, 1.194981e+002
3.457570e+002, 1.188694e+002
3.462391e+002, 1.178181e+002
3.467213e+002, 1.163636e+002
3.472034e+002, 1.149207e+002
3.476855e+002, 1.139027e+002
3.481676e+002, 1.133375e+002
3.486497e+002, 1.125177e+002
3.491318e+002, 1.112256e+002
3.496140e+002, 1.099451e+002
3.500961e+002, 1.089447e+002
3.505782e+002, 1.081298e+002
3.510603e+002, 1.072355e+002
3.515424e+002, 1.060993e+002
3.520245e+002, 1.047980e+002
3.525067e+002, 1.036502e+002
3.529888e+002, 1.027692e+002
3.534709e+002, 1.019027e+002
3.539530e+002, 1.009850e+002
3.544351e+002, 1.000813e+002
3.549172e+002, 9.928107e+001
3.553994e+002, 9.861380e+001
3.558815e+002, 9.800851e+001
3.563636e+002, 9.734701e+001
3.568457e+002, 9.665939e+001
3.573278e+002, 9.583151e+001
3.578099e+002, 9.473255e+001
3.582920e+002, 9.360267e+001
3.587741e+002, 9.258434e+001
3.592563e+002, 9.169922e+001
3.597384e+002, 9.092960e+001
3.602205e+002, 9.026424e+001
3.607026e+002, 8.971561e+001
3.611847e+002, 8.915088e+001
3.616668e+002, 8.858268e+001
3.621490e+002, 8.798865e+001
3.626311e+002, 8.731875e+001
3.631132e+002, 8.661839e+001
3.635953e+002, 8.598766e+001
3.640774e+002, 8.549044e+001
3.645595e+002, 8.509341e+001
3.650417e+002, 8.465743e+001
3.655238e+002, 8.419566e+001
3.660059e+002, 8.366841e+001
3.664880e+002, 8.305667e+001
3.669701e+002, 8.239120e+001
3.674522e+002, 8.167674e+001
3.679344e+002, 8.092455e+001
3.684165e+002, 8.018642e+001
3.688986e+002, 7.955408e+001
3.693807e+002, 7.908548e+001
3.698628e+002, 7.856812e+001
3.703449e+002, 7.796968e+001
3.708271e+002, 7.734497e+001
3.713092e+002, 7.669653e+001
3.717913e+002, 7.604086e+001
3.722734e+002, 7.540016e+001
3.727555e+002, 7.477771e+001
3.732376e+002, 7.417795e+001
3.737198e+002, 7.372921e+001
3.742019e+002, 7.364281e+001
3.746840e+002, 7.344446e+001
3.751661e+002, 7.290201e+001
3.756482e+002, 7.217004e+001
3.761303e+002, 7.149715e+001
3.766125e+002, 7.100927e+001
3.770946e+002, 7.062505e+001
3.775767e+002, 7.014964e+001
3.780588e+002, 6.953275e+001
3.785409e+002, 6.896719e+001
3.790230e+002, 6.853506e+001
3.795052e+002, 6.815530e+001
3.799873e+002, 6.777682e+001
3.804694e+002, 6.738872e+001
3.809515e+002, 6.698829e+001
3.814336e+002, 6.654442e+001
3.819157e+002, 6.605872e+001
3.823979e+002, 6.567743e+001
3.828800e+002, 6.546758e+001
3.833621e+002, 6.531535e+001
3.838442e+002, 6.519417e+001
3.843263e+002, 6.507327e+001
3.848084e+002, 6.484248e+001
3.852906e+002, 6.435525e+001
3.857727e+002, 6.373408e+001
3.862548e+002, 6.327736e+001
3.867369e+002, 6.303510e+001
3.872190e+002, 6.278063e+001
3.877011e+002, 6.228601e+001
3.881833e+002, 6.172501e+001
3.886654e+002, 6.137749e+001
3.891475e+002, 6.140944e+001
3.896296e+002, 6.145733e+001
3.901117e+002, 6.113232e+001
3.905938e+002, 6.048912e+001
3.910760e+002, 5.999230e+001
3.915581e+002, 5.988987e+001
3.920402e+002, 5.987700e+001
3.925223e+002, 5.944013e+001
3.930044e+002, 5.852951e+001
3.934865e+002, 5.786300e+001
3.939687e+002, 5.796298e+001
3.944508e+002, 5.840462e+001
3.949329e+002, 5.847735e+001
3.954150e+002, 5.805536e+001
3.958971e+002, 5.754430e+001
3.963792e+002, 5.732421e+001
3.968614e+002, 5.736049e+001
3.973435e+002, 5.721862e+001
3.978256e+002, 5.665757e+001
3.983077e+002, 5.610551e+001
3.987898e+002, 5.586787e+001
3.992719e+002, 5.588551e+001
3.997540e+002, 5.593084e+001
4.002361e+002, 5.589764e+001
4.007183e+002, 5.580655e+001
4.012004e+002, 5.571812e+001
4.016825e+002, 5.566817e+001
4.021646e+002, 5.555941e+001
4.026467e+002, 5.526068e+001
4.031288e+002, 5.494641e+001
4.036110e+002, 5.489665e+001
4.040931e+002, 5.515337e+001
4.045752e+002, 5.539247e+001
4.050573e+002, 5.519125e+001
4.055394e+002, 5.439199e+001
4.060215e+002, 5.396764e+001
4.065037e+002, 5.419550e+001
4.069858e+002, 5.448424e+001
4.074679e+002, 5.455951e+001
4.079500e+002, 5.445344e+001
4.084321e+002, 5.431190e+001
4.089142e+002, 5.422402e+001
4.093964e+002, 5.417379e+001
4.098785e+002, 5.408271e+001
4.103606e+002, 5.381673e+001
4.108427e+002, 5.369070e+001
4.113248e+002, 5.380708e+001
4.118069e+002, 5.402911e+001
4.122891e+002, 5.429257e+001
4.127712e+002, 5.455350e+001
4.132533e+002, 5.468911e+001
4.137354e+002, 5.448133e+001
4.142175e+002, 5.379385e+001
4.146996e+002, 5.330674e+001
4.151818e+002, 5.312732e+001
4.156639e+002, 5.305823e+001
4.161460e+002, 5.306985e+001
4.166281e+002, 5.313452e+001
4.171102e+002, 5.320651e+001
4.175923e+002, 5.324809e+001
4.180745e+002, 5.328388e+001
4.185566e+002, 5.342540e+001
4.190387e+002, 5.377060e+001
4.195208e+002, 5.399901e+001
4.200029e+002, 5.397146e+001
4.204850e+002, 5.381278e+001
4.209672e+002, 5.358052e+001
4.214493e+002, 5.328257e+001
4.219314e+002, 5.306967e+001
4.224135e+002, 5.313443e+001
4.228956e+002, 5.346386e+001
4.233777e+002, 5.379765e+001
4.238599e+002, 5.414073e+001
4.243420e+002, 5.441664e+001
4.248241e+002, 5.453345e+001
4.253062e+002, 5.453385e+001
4.257883e+002, 5.457372e+001
4.262704e+002, 5.477394e+001
4.267526e+002, 5.502635e+001
4.272347e+002, 5.513639e+001
4.277168e+002, 5.509270e+001
4.281989e+002, 5.511271e+001
4.286810e+002, 5.535616e+001
4.291631e+002, 5.571669e+001
4.296453e+002, 5.593943e+001
4.301274e+002, 5.595000e+001
4.306095e+002, 5.599038e+001
4.310916e+002, 5.620764e+001
4.315737e+002, 5.653399e+001
4.320558e+002, 5.683416e+001
4.325380e+002, 5.707083e+001
4.330201e+002, 5.729132e+001
4.335022e+002, 5.753430e+001
4.339843e+002, 5.779563e+001
4.344664e+002, 5.815572e+001
4.349485e+002, 5.874992e+001
4.354307e+002, 5.933050e+001
4.359128e+002, 5.972813e+001
4.363949e+002, 5.996428e+001
4.368770e+002, 6.011964e+001
4.373591e+002, 6.021904e+001
4.378412e+002, 6.031622e+001
4.383234e+002, 6.061772e+001
4.388055e+002, 6.125283e+001
4.392876e+002, 6.193444e+001
4.397697e+002, 6.268831e+001
4.402518e+002, 6.345420e+001
4.407339e+002, 6.420977e+001
4.412160e+002, 6.492906e+001
4.416982e+002, 6.553161e+001
4.421803e+002, 6.587893e+001
4.426624e+002, 6.590089e+001
4.431445e+002, 6.618996e+001
4.436266e+002, 6.691573e+001
4.441087e+002, 6.773772e+001
4.445909e+002, 6.875359e+001
4.450730e+002, 6.975321e+001
4.455551e+002, 7.037151e+001
4.460372e+002, 7.037757e+001
4.465193e+002, 7.009360e+001
4.470014e+002, 7.026545e+001
4.474836e+002, 7.106519e+001
4.479657e+002, 7.180789e+001
4.484478e+002, 7.228098e+001
4.489299e+002, 7.272553e+001
4.494120e+002, 7.330495e+001
4.498941e+002, 7.402081e+001
4.503763e+002, 7.475139e+001
4.508584e+002, 7.547019e+001
4.513405e+002, 7.613988e+001
4.518226e+002, 7.653983e+001
4.523047e+002, 7.656300e+001
4.527868e+002, 7.656979e+001
4.532690e+002, 7.682487e+001
4.537511e+002, 7.718458e+001
4.542332e+002, 7.744488e+001
4.547153e+002, 7.754335e+001
4.551974e+002, 7.757004e+001
4.556795e+002, 7.760503e+001
4.561617e+002, 7.763400e+001
4.566438e+002, 7.757236e+001
4.571259e+002, 7.735600e+001
4.576080e+002, 7.712746e+001
4.580901e+002, 7.712060e+001
4.585722e+002, 7.733566e+001
4.590544e+002, 7.744428e+001
4.595365e+002, 7.731108e+001
4.600186e+002, 7.710390e+001
4.605007e+002, 7.702592e+001
4.609828e+002, 7.704012e+001
4.614649e+002, 7.688477e+001
4.619471e+002, 7.636511e+001
4.624292e+002, 7.558616e+001
4.629113e+002, 7.497205e+001
4.633934e+002, 7.477943e+001
4.638755e+002, 7.440504e+001
4.643576e+002, 7.363581e+001
4.648398e+002, 7.272639e+001
4.653219e+002, 7.190586e+001
4.658040e+002, 7.123040e+001
4.662861e+002, 7.067770e+001
4.667682e+002, 7.023020e+001
4.672503e+002, 6.989100e+001
4.677325e+002, 6.959261e+001
4.682146e+002, 6.955599e+001
4.686967e+002, 6.931878e+001
4.691788e+002, 6.857113e+001
4.696609e+002, 6.759254e+001
4.701430e+002, 6.683182e+001
4.706252e+002, 6.649407e+001
4.711073e+002, 6.632023e+001
4.715894e+002, 6.579526e+001
4.720715e+002, 6.478567e+001
4.725536e+002, 6.401952e+001
4.730357e+002, 6.382809e+001
4.735179e+002, 6.372454e+001
4.740000e+002, 6.349537e+001
4.744821e+002, 6.312205e+001
4.749642e+002, 6.260369e+001
4.754463e+002, 6.185096e+001
4.759284e+002, 6.098665e+001
4.764106e+002, 6.029516e+001
4.768927e+002, 5.981050e+001
4.773748e+002, 5.929212e+001
4.778569e+002, 5.852122e+001
4.783390e+002, 5.771417e+001
4.788211e+002, 5.723043e+001
4.793033e+002, 5.716369e+001
4.797854e+002, 5.712883e+001
4.802675e+002, 5.696719e+001
4.807496e+002, 5.669889e+001
4.812317e+002, 5.632772e+001
4.817138e+002, 5.584896e+001
4.821959e+002, 5.538380e+001
4.826780e+002, 5.505570e+001
4.831602e+002, 5.486153e+001
4.836423e+002, 5.457383e+001
4.841244e+002, 5.404189e+001
4.846065e+002, 5.358590e+001
4.850886e+002, 5.335855e+001
4.855707e+002, 5.328942e+001
4.860529e+002, 5.329436e+001
4.865350e+002, 5.333940e+001
4.870171e+002, 5.332827e+001
4.874992e+002, 5.308943e+001
4.879813e+002, 5.250738e+001
4.884634e+002, 5.200534e+001
4.889456e+002, 5.144475e+001
4.894277e+002, 5.108019e+001
4.899098e+002, 5.123161e+001
4.903919e+002, 5.167482e+001
4.908740e+002, 5.188955e+001
4.913561e+002, 5.152847e+001
4.918383e+002, 5.083126e+001
4.923204e+002, 5.047162e+001
4.928025e+002, 5.057247e+001
4.932846e+002, 5.067348e+001
4.937667e+002, 5.070856e+001
4.942488e+002, 5.069038e+001
4.947310e+002, 5.058944e+001
4.952131e+002, 5.042089e+001
4.956952e+002, 5.028840e+001
4.961773e+002, 5.032918e+001
4.966594e+002, 5.045585e+001
4.971415e+002, 5.040921e+001
4.976237e+002, 5.015257e+001
4.981058e+002, 4.987075e+001
4.985879e+002, 4.966431e+001
4.990700e+002, 4.949402e+001
4.995521e+002, 4.926826e+001
5.000342e+002, 4.892195e+001
5.005164e+002, 4.866670e+001
5.009985e+002, 4.857592e+001
5.014806e+002, 4.865319e+001
5.019627e+002, 4.904305e+001
5.024448e+002, 4.978198e+001
5.029269e+002, 5.031316e+001
5.034091e+002, 4.999966e+001
5.038912e+002, 4.879955e+001
5.043733e+002, 4.820141e+001
5.048554e+002, 4.872865e+001
5.053375e+002, 4.920060e+001
5.058196e+002, 4.913140e+001
5.063018e+002, 4.875721e+001
5.067839e+002, 4.845993e+001
5.072660e+002, 4.837613e+001
5.077481e+002, 4.836885e+001
5.082302e+002, 4.822797e+001
5.087123e+002, 4.791945e+001
5.091945e+002, 4.759953e+001
5.096766e+002, 4.723057e+001
5.101587e+002, 4.688866e+001
5.106408e+002, 4.663853e+001
5.111229e+002, 4.643091e+001
5.116050e+002, 4.613409e+001
5.120872e+002, 4.564031e+001
5.125693e+002, 4.516540e+001
5.130514e+002, 4.521868e+001
5.135335e+002, 4.591199e+001
5.140156e+002, 4.625762e+001
5.144977e+002, 4.582314e+001
5.149799e+002, 4.518254e+001
5.154620e+002, 4.480968e+001
5.159441e+002, 4.467685e+001
5.164262e+002, 4.455975e+001
5.169083e+002, 4.434863e+001
5.173904e+002, 4.411019e+001
5.178726e+002, 4.395216e+001
5.183547e+002, 4.386648e+001
5.188368e+002, 4.370954e+001
5.193189e+002, 4.336451e+001
5.198010e+002, 4.296565e+001
5.202831e+002, 4.287810e+001
5.207653e+002, 4.326977e+001
5.212474e+002, 4.342057e+001
5.217295e+002, 4.296328e+001
5.222116e+002, 4.238897e+001
5.226937e+002, 4.216175e+001
5.231758e+002, 4.226857e+001
5.236580e+002, 4.238678e+001
5.241401e+002, 4.227525e+001
5.246222e+002, 4.199631e+001
5.251043e+002, 4.188359e+001
5.255864e+002, 4.227118e+001
5.260685e+002, 4.233555e+001
5.265507e+002, 4.162539e+001
5.270328e+002, 4.084474e+001
5.275149e+002, 4.064537e+001
5.279970e+002, 4.104274e+001
5.284791e+002, 4.150987e+001
5.289612e+002, 4.154438e+001
5.294434e+002, 4.123972e+001
5.299255e+002, 4.122575e+001
5.304076e+002, 4.171376e+001
5.308897e+002, 4.200024e+001
5.313718e+002, 4.154102e+001
5.318539e+002, 4.083997e+001
5.323361e+002, 4.042537e+001
5.328182e+002, 4.041020e+001
5.333003e+002, 4.043572e+001
5.337824e+002, 4.019349e+001
5.342645e+002, 3.983834e+001
5.347466e+002, 3.975034e+001
5.352288e+002, 3.999719e+001
5.357109e+002, 4.024678e+001
5.361930e+002, 4.023901e+001
5.366751e+002, 4.001604e+001
5.371572e+002, 3.986551e+001
5.376393e+002, 3.981819e+001
5.381215e+002, 3.979758e+001
5.386036e+002, 3.980316e+001
5.390857e+002, 3.981364e+001
5.395678e+002, 3.977734e+001
5.400499e+002, 3.969541e+001
5.405320e+002, 3.966843e+001
5.410142e+002, 3.983935e+001
5.414963e+002, 4.022277e+001
5.419784e+002, 4.029038e+001
5.424604e+002, 3.955950e+001
5.429426e+002, 3.908588e+001
5.434247e+002, 3.930040e+001
5.439068e+002, 3.977468e+001
5.443889e+002, 4.003788e+001
5.448710e+002, 3.996237e+001
5.453531e+002, 3.971399e+001
5.458353e+002, 3.938844e+001
5.463174e+002, 3.900630e+001
5.467995e+002, 3.887634e+001
5.472816e+002, 3.916816e+001
5.477637e+002, 3.938667e+001
5.482458e+002, 3.901070e+001
5.487280e+002, 3.840215e+001
5.492101e+002, 3.818499e+001
5.496922e+002, 3.863491e+001
5.501743e+002, 3.911864e+001
5.506564e+002, 3.921281e+001
5.511385e+002, 3.906067e+001
5.516207e+002, 3.894681e+001
5.521028e+002, 3.893005e+001
5.525849e+002, 3.897670e+001
5.530670e+002, 3.909235e+001
5.535491e+002, 3.927708e+001
5.540313e+002, 3.921902e+001
5.545134e+002, 3.862362e+001
5.549955e+002, 3.817579e+001
5.554776e+002, 3.817072e+001
5.559597e+002, 3.836650e+001
5.564418e+002, 3.847005e+001
5.569240e+002, 3.840367e+001
5.574061e+002, 3.826965e+001
5.578882e+002, 3.816755e+001
5.583703e+002, 3.809541e+001
5.588524e+002, 3.812705e+001
5.593345e+002, 3.839286e+001
5.598167e+002, 3.857132e+001
5.602988e+002, 3.853521e+001
5.607809e+002, 3.837197e+001
5.612630e+002, 3.816117e+001
5.617451e+002, 3.791486e+001
5.622272e+002, 3.771182e+001
5.627094e+002, 3.765715e+001
5.631915e+002, 3.770345e+001
5.636736e+002, 3.765466e+001
5.641557e+002, 3.745113e+001
5.646378e+002, 3.735714e+001
5.651199e+002, 3.767571e+001
5.656021e+002, 3.825820e+001
5.660842e+002, 3.845323e+001
5.665663e+002, 3.796843e+001
5.670484e+002, 3.751759e+001
5.675305e+002, 3.741084e+001
5.680126e+002, 3.744059e+001
5.684948e+002, 3.731422e+001
5.689769e+002, 3.699977e+001
5.694590e+002, 3.670201e+001
5.699411e+002, 3.661626e+001
5.704232e+002, 3.673260e+001
5.709053e+002, 3.686870e+001
5.713875e+002, 3.710534e+001
5.718696e+002, 3.724920e+001
5.723517e+002, 3.716772e+001
5.728338e+002, 3.704937e+001
5.733159e+002, 3.712617e+001
5.737980e+002, 3.740387e+001
5.742802e+002, 3.761098e+001
5.747623e+002, 3.744465e+001
5.752444e+002, 3.700293e+001
5.757265e+002, 3.668081e+001
5.762086e+002, 3.647952e+001
5.766907e+002, 3.639567e+001
5.771729e+002, 3.646090e+001
5.776550e+002, 3.663224e+001
5.781371e+002, 3.686348e+001
5.786192e+002, 3.719492e+001
5.791013e+002, 3.739971e+001
5.795834e+002, 3.731916e+001
5.800656e+002, 3.711040e+001
5.805477e+002, 3.692260e+001
5.810298e+002, 3.677857e+001
5.815119e+002, 3.669027e+001
5.819940e+002, 3.667188e+001
5.824761e+002, 3.670240e+001
5.829583e+002, 3.670675e+001
5.834404e+002, 3.658163e+001
5.839225e+002, 3.659391e+001
5.844046e+002, 3.692486e+001
5.848867e+002, 3.723772e+001
5.853688e+002, 3.728688e+001
5.858510e+002, 3.711183e+001
5.863331e+002, 3.689545e+001
5.868152e+002, 3.673553e+001
5.872973e+002, 3.663697e+001
5.877794e+002, 3.663298e+001
5.882615e+002, 3.674116e+001
5.887437e+002, 3.682175e+001
5.892258e+002, 3.682608e+001
5.897079e+002, 3.680835e+001
5.901900e+002, 3.681401e+001
5.906721e+002, 3.684164e+001
5.911542e+002, 3.688357e+001
5.916364e+002, 3.692114e+001
5.921185e+002, 3.698613e+001
5.926006e+002, 3.719809e+001
5.930827e+002, 3.746592e+001
5.935648e+002, 3.748497e+001
5.940469e+002, 3.713172e+001
5.945291e+002, 3.663337e+001
5.950112e+002, 3.630201e+001
5.954933e+002, 3.617326e+001
5.959754e+002, 3.605461e+001
5.964575e+002, 3.590860e+001
5.969396e+002, 3.581265e+001
5.974218e+002, 3.579512e+001
5.979039e+002, 3.584409e+001
5.983860e+002, 3.595617e+001
5.988681e+002, 3.612755e+001
5.993502e+002, 3.630811e+001
5.998323e+002, 3.642800e+001
6.003145e+002, 3.649067e+001
6.007966e+002, 3.661835e+001
6.012787e+002, 3.692791e+001
6.017608e+002, 3.706138e+001
6.022429e+002, 3.655816e+001
6.027250e+002, 3.582338e+001
6.032072e+002, 3.551467e+001
6.036893e+002, 3.582999e+001
6.041714e+002, 3.620626e+001
6.046535e+002, 3.637960e+001
6.051356e+002, 3.643060e+001
6.056177e+002, 3.643985e+001
6.060999e+002, 3.643081e+001
6.065820e+002, 3.649573e+001
6.070641e+002, 3.672998e+001
6.075462e+002, 3.705998e+001
6.080283e+002, 3.714737e+001
6.085104e+002, 3.670503e+001
6.089926e+002, 3.642643e+001
6.094747e+002, 3.646654e+001
6.099568e+002, 3.656858e+001
6.104389e+002, 3.648769e+001
6.109210e+002, 3.628960e+001
6.114031e+002, 3.627410e+001
6.118853e+002, 3.670263e+001
6.123674e+002, 3.730968e+001
6.128495e+002, 3.750108e+001
6.133316e+002, 3.723972e+001
6.138137e+002, 3.700994e+001
6.142958e+002, 3.693867e+001
6.147780e+002, 3.692361e+001
6.152601e+002, 3.687012e+001
6.157422e+002, 3.678314e+001
6.162243e+002, 3.668785e+001
6.167064e+002, 3.659050e+001
6.171885e+002, 3.648525e+001
6.176707e+002, 3.634170e+001
6.181528e+002, 3.619234e+001
6.186349e+002, 3.611176e+001
6.191170e+002, 3.612012e+001
6.195991e+002, 3.615815e+001
6.200812e+002, 3.615693e+001
6.205634e+002, 3.611380e+001
6.210455e+002, 3.606863e+001
6.215276e+002, 3.592516e+001
6.220097e+002, 3.590455e+001
6.224918e+002, 3.625544e+001
6.229739e+002, 3.663464e+001
6.234561e+002, 3.659906e+001
6.239382e+002, 3.610071e+001
6.244203e+002, 3.563771e+001
6.249023e+002, 3.568955e+001
6.253845e+002, 3.607492e+001
6.258666e+002, 3.629984e+001
6.263487e+002, 3.634120e+001
6.268308e+002, 3.639544e+001
6.273129e+002, 3.659693e+001
6.277950e+002, 3.682109e+001
6.282772e+002, 3.679244e+001
6.287593e+002, 3.645193e+001
6.292414e+002, 3.619728e+001
6.297235e+002, 3.611065e+001
6.302056e+002, 3.610548e+001
6.306877e+002, 3.616079e+001
6.311699e+002, 3.624475e+001
6.316520e+002, 3.630262e+001
6.321341e+002, 3.630908e+001
6.326162e+002, 3.627988e+001
6.330983e+002, 3.623320e+001
6.335804e+002, 3.615956e+001
6.340626e+002, 3.611894e+001
6.345447e+002, 3.614380e+001
6.350268e+002, 3.616091e+001
6.355089e+002, 3.614909e+001
6.359910e+002, 3.610681e+001
6.364731e+002, 3.602286e+001
6.369553e+002, 3.588448e+001
6.374374e+002, 3.575239e+001
6.379195e+002, 3.561635e+001
6.384016e+002, 3.553313e+001
6.388837e+002, 3.566886e+001
6.393658e+002, 3.603059e+001
6.398480e+002, 3.634037e+001
6.403301e+002, 3.640252e+001
6.408122e+002, 3.629594e+001
6.412943e+002, 3.628606e+001
6.417764e+002, 3.646934e+001
6.422585e+002, 3.661000e+001
6.427407e+002, 3.671693e+001
6.432228e+002, 3.677339e+001
6.437049e+002, 3.670416e+001
6.441870e+002, 3.657831e+001
6.446691e+002, 3.658590e+001
6.451512e+002, 3.685403e+001
6.456334e+002, 3.716938e+001
6.461155e+002, 3.710719e+001
6.465976e+002, 3.667244e+001
6.470797e+002, 3.648878e+001
6.475618e+002, 3.673967e+001
6.480439e+002, 3.706253e+001
6.485261e+002, 3.718925e+001
6.490082e+002, 3.716732e+001
6.494903e+002, 3.714069e+001
6.499724e+002, 3.713582e+001
6.504545e+002, 3.710317e+001
6.509366e+002, 3.698778e+001
6.514188e+002, 3.685350e+001
6.519009e+002, 3.677197e+001
6.523830e+002, 3.675299e+001
6.528651e+002, 3.680038e+001
6.533472e+002, 3.694208e+001
6.538293e+002, 3.709776e+001
6.543115e+002, 3.690338e+001
6.547936e+002, 3.606205e+001
6.552757e+002, 3.559354e+001
6.557578e+002, 3.591586e+001
6.562399e+002, 3.641701e+001
6.567220e+002, 3.685041e+001
6.572042e+002, 3.719369e+001
6.576863e+002, 3.743303e+001
6.581684e+002, 3.752182e+001
6.586505e+002, 3.757399e+001
6.591326e+002, 3.776030e+001
6.596147e+002, 3.799421e+001
6.600969e+002, 3.801792e+001
6.605790e+002, 3.777308e+001
6.610611e+002, 3.739040e+001
6.615432e+002, 3.692725e+001
6.620253e+002, 3.641837e+001
6.625074e+002, 3.624429e+001
6.629896e+002, 3.680084e+001
6.634717e+002, 3.717133e+001
6.639538e+002, 3.707360e+001
6.644359e+002, 3.691932e+001
6.649180e+002, 3.705813e+001
6.654001e+002, 3.746263e+001
6.658823e+002, 3.789207e+001
6.663644e+002, 3.824262e+001
6.668465e+002, 3.846136e+001
6.673286e+002, 3.839186e+001
6.678107e+002, 3.804419e+001
6.682928e+002, 3.775614e+001
6.687750e+002, 3.757779e+001
6.692571e+002, 3.754289e+001
6.697392e+002, 3.777145e+001
6.702213e+002, 3.821917e+001
6.707034e+002, 3.843644e+001
6.711855e+002, 3.817912e+001
6.716677e+002, 3.798241e+001
6.721498e+002, 3.807600e+001
6.726319e+002, 3.827917e+001
6.731140e+002, 3.840568e+001
6.735961e+002, 3.842913e+001
6.740782e+002, 3.839787e+001
6.745604e+002, 3.832033e+001
6.750425e+002, 3.826351e+001
6.755246e+002, 3.852787e+001
6.760067e+002, 3.925795e+001
6.764888e+002, 3.964281e+001
6.769709e+002, 3.923728e+001
6.774531e+002, 3.876611e+001
6.779352e+002, 3.888957e+001
6.784173e+002, 3.943900e+001
6.788994e+002, 3.980829e+001
6.793815e+002, 3.975134e+001
6.798636e+002, 3.962217e+001
6.803458e+002, 3.963482e+001
6.808279e+002, 3.970752e+001
6.813100e+002, 3.967235e+001
6.817921e+002, 3.952214e+001
6.822742e+002, 3.945858e+001
6.827563e+002, 3.967568e+001
6.832385e+002, 4.008159e+001
6.837206e+002, 4.020541e+001
6.842027e+002, 3.988433e+001
6.846848e+002, 3.963646e+001
6.851669e+002, 3.954536e+001
6.856490e+002, 3.953401e+001
6.861312e+002, 3.959845e+001
6.866133e+002, 3.970896e+001
6.870954e+002, 3.978514e+001
6.875775e+002, 3.976188e+001
6.880596e+002, 3.975726e+001
6.885417e+002, 3.991682e+001
6.890239e+002, 4.016839e+001
6.895060e+002, 4.033694e+001
6.899881e+002, 4.039280e+001
6.904702e+002, 4.040910e+001
6.909523e+002, 4.042425e+001
6.914344e+002, 4.046244e+001
6.919166e+002, 4.066671e+001
6.923987e+002, 4.146470e+001
6.928808e+002, 4.172713e+001
6.933629e+002, 4.071381e+001
6.938450e+002, 3.981337e+001
6.943271e+002, 4.008934e+001
6.948093e+002, 4.116587e+001
6.952914e+002, 4.196014e+001
6.957735e+002, 4.196880e+001
6.962556e+002, 4.162677e+001
6.967377e+002, 4.125586e+001
6.972198e+002, 4.092742e+001
6.977020e+002, 4.097811e+001
6.981841e+002, 4.148690e+001
6.986662e+002, 4.194477e+001
6.991483e+002, 4.196851e+001
6.996304e+002, 4.168224e+001
7.001125e+002, 4.155524e+001
7.005947e+002, 4.158562e+001
7.010768e+002, 4.179105e+001
7.015589e+002, 4.242705e+001
7.020410e+002, 4.300222e+001
7.025231e+002, 4.304717e+001
7.030052e+002, 4.282074e+001
7.034874e+002, 4.299757e+001
7.039695e+002, 4.391508e+001
7.044516e+002, 4.485455e+001
7.049337e+002, 4.476482e+001
7.054158e+002, 4.388039e+001
7.058979e+002, 4.333723e+001
7.063801e+002, 4.325634e+001
7.068622e+002, 4.343505e+001
7.073442e+002, 4.386090e+001
7.078264e+002, 4.439079e+001
7.083085e+002, 4.463487e+001
7.087906e+002, 4.442057e+001
7.092727e+002, 4.437628e+001
7.097548e+002, 4.462589e+001
7.102369e+002, 4.497569e+001
7.107191e+002, 4.538759e+001
7.112012e+002, 4.579549e+001
7.116833e+002, 4.610902e+001
7.121654e+002, 4.629679e+001
7.126475e+002, 4.638661e+001
7.131296e+002, 4.636431e+001
7.136118e+002, 4.626172e+001
7.140939e+002, 4.623743e+001
7.145760e+002, 4.628545e+001
7.150581e+002, 4.648735e+001
7.155402e+002, 4.692606e+001
7.160223e+002, 4.749131e+001
7.165045e+002, 4.802327e+001
7.169866e+002, 4.853374e+001
7.174687e+002, 4.894481e+001
7.179508e+002, 4.917276e+001
7.184329e+002, 4.938014e+001
7.189150e+002, 4.963116e+001
7.193972e+002, 4.991890e+001
7.198793e+002, 5.019475e+001
7.203614e+002, 5.046198e+001
7.208435e+002, 5.084375e+001
7.213256e+002, 5.152626e+001
7.218077e+002, 5.240751e+001
7.222899e+002, 5.304896e+001
7.227720e+002, 5.342124e+001
7.232541e+002, 5.385474e+001
7.237362e+002, 5.455750e+001
7.242183e+002, 5.520131e+001
7.247004e+002, 5.524424e+001
7.251826e+002, 5.470738e+001
7.256647e+002, 5.467575e+001
7.261468e+002, 5.567163e+001
7.266289e+002, 5.662517e+001
7.271110e+002, 5.711132e+001
7.275931e+002, 5.737748e+001
7.280753e+002, 5.762622e+001
7.285574e+002, 5.793724e+001
7.290395e+002, 5.841191e+001
7.295216e+002, 5.915860e+001
7.300037e+002, 6.005338e+001
7.304858e+002, 6.083603e+001
7.309680e+002, 6.150425e+001
7.314501e+002, 6.204642e+001
7.319322e+002, 6.238373e+001
7.324143e+002, 6.277952e+001
7.328964e+002, 6.355293e+001
7.333785e+002, 6.458298e+001
7.338607e+002, 6.524306e+001
7.343428e+002, 6.529917e+001
7.348249e+002, 6.534520e+001
7.353070e+002, 6.543986e+001
7.357891e+002, 6.561918e+001
7.362712e+002, 6.598901e+001
7.367534e+002, 6.646876e+001
7.372355e+002, 6.683341e+001
7.377176e+002, 6.696567e+001
7.381997e+002, 6.702448e+001
7.386818e+002, 6.726332e+001
7.391639e+002, 6.765926e+001
7.396461e+002, 6.799440e+001
7.401282e+002, 6.824400e+001
7.406103e+002, 6.846370e+001
7.410924e+002, 6.868568e+001
7.415745e+002, 6.889526e+001
7.420566e+002, 6.906638e+001
7.425388e+002, 6.921964e+001
7.430209e+002, 6.927327e+001
7.435030e+002, 6.919243e+001
7.439851e+002, 6.903994e+001
7.444672e+002, 6.878050e+001
7.449493e+002, 6.849751e+001
7.454315e+002, 6.829199e+001
7.459136e+002, 6.819905e+001
7.463957e+002, 6.822701e+001
7.468778e+002, 6.855238e+001
7.473599e+002, 6.897723e+001
7.478420e+002, 6.875113e+001
7.483242e+002, 6.785242e+001
7.488063e+002, 6.720695e+001
7.492884e+002, 6.717792e+001
7.497705e+002, 6.738475e+001
7.502526e+002, 6.740329e+001
7.507347e+002, 6.722262e+001
7.512169e+002, 6.702615e+001
7.516990e+002, 6.684130e+001
7.521811e+002, 6.660729e+001
7.526632e+002, 6.621169e+001
7.531453e+002, 6.583199e+001
7.536274e+002, 6.563387e+001
7.541096e+002, 6.561219e+001
7.545917e+002, 6.567997e+001
7.550738e+002, 6.585485e+001
7.555559e+002, 6.595406e+001
7.560380e+002, 6.561893e+001
7.565201e+002, 6.496549e+001
7.570023e+002, 6.449545e+001
7.574844e+002, 6.428925e+001
7.579665e+002, 6.426527e+001
7.584486e+002, 6.439093e+001
7.589307e+002, 6.463246e+001
7.594128e+002, 6.488089e+001
7.598950e+002, 6.518875e+001
7.603771e+002, 6.540606e+001
7.608592e+002, 6.554234e+001
7.613413e+002, 6.558396e+001
7.618234e+002, 6.542239e+001
7.623055e+002, 6.519815e+001
7.627877e+002, 6.511635e+001
7.632698e+002, 6.523382e+001
7.637519e+002, 6.548836e+001
7.642340e+002, 6.587289e+001
7.647161e+002, 6.634521e+001
7.651982e+002, 6.690344e+001
7.656804e+002, 6.750896e+001
7.661625e+002, 6.794038e+001
7.666446e+002, 6.810701e+001
7.671267e+002, 6.816290e+001
7.676088e+002, 6.829443e+001
7.680909e+002, 6.850194e+001
7.685731e+002, 6.880703e+001
7.690552e+002, 6.922491e+001
7.695373e+002, 6.972067e+001
7.700194e+002, 7.035767e+001
7.705015e+002, 7.101076e+001
7.709836e+002, 7.161672e+001
7.714658e+002, 7.215356e+001
7.719479e+002, 7.254581e+001
7.724300e+002, 7.260193e+001
7.729121e+002, 7.272803e+001
7.733942e+002, 7.332650e+001
7.738763e+002, 7.412428e+001
7.743585e+002, 7.464902e+001
7.748406e+002, 7.488523e+001
7.753227e+002, 7.517520e+001
7.758048e+002, 7.574831e+001
7.762869e+002, 7.651334e+001
7.767690e+002, 7.726341e+001
7.772512e+002, 7.800031e+001
7.777333e+002, 7.871715e+001
7.782154e+002, 7.937807e+001
7.786975e+002, 8.008749e+001
7.791796e+002, 8.093651e+001
7.796617e+002, 8.185412e+001
7.801439e+002, 8.268525e+001
7.806260e+002, 8.338724e+001
7.811081e+002, 8.422688e+001
7.815902e+002, 8.540317e+001
7.820723e+002, 8.660019e+001
7.825544e+002, 8.754927e+001
7.830366e+002, 8.840662e+001
7.835187e+002, 8.941013e+001
7.840008e+002, 9.063455e+001
7.844829e+002, 9.207288e+001
7.849650e+002, 9.381792e+001
7.854471e+002, 9.571120e+001
7.859293e+002, 9.715227e+001
7.864114e+002, 9.812512e+001
7.868935e+002, 9.941935e+001
7.873756e+002, 1.013045e+002
7.878577e+002, 1.033263e+002
7.883398e+002, 1.050185e+002
7.888220e+002, 1.064510e+002
7.893040e+002, 1.081589e+002
7.897861e+002, 1.101741e+002
7.902682e+002, 1.124161e+002
7.907504e+002, 1.150951e+002
7.912325e+002, 1.178004e+002
7.917146e+002, 1.202447e+002
7.921967e+002, 1.225185e+002
7.926788e+002, 1.248435e+002
7.931609e+002, 1.272762e+002
7.936431e+002, 1.299094e+002
7.941252e+002, 1.328919e+002
7.946073e+002, 1.361053e+002
7.950894e+002, 1.393083e+002
7.955715e+002, 1.425111e+002
7.960536e+002, 1.457420e+002
7.965358e+002, 1.490188e+002
7.970179e+002, 1.524070e+002
7.975000e+002, 1.560247e+002
7.979821e+002, 1.599082e+002
7.984642e+002, 1.635466e+002
7.989464e+002, 1.666032e+002
7.994285e+002, 1.700463e+002
7.999106e+002, 1.743386e+002
8.003927e+002, 1.789244e+002
8.008748e+002, 1.833512e+002
8.013569e+002, 1.876789e+002
8.018391e+002, 1.921921e+002
8.023212e+002, 1.970009e+002
8.028033e+002, 2.019543e+002
8.032854e+002, 2.071054e+002
8.037675e+002, 2.122299e+002
8.042496e+002, 2.169541e+002
8.047318e+002, 2.213596e+002
8.052139e+002, 2.259483e+002
8.056960e+002, 2.309666e+002
8.061781e+002, 2.361556e+002
8.066602e+002, 2.410309e+002
8.071423e+002, 2.456343e+002
8.076245e+002, 2.505323e+002
8.081066e+002, 2.559173e+002
8.085887e+002, 2.608054e+002
8.090708e+002, 2.646349e+002
8.095529e+002, 2.678853e+002
8.100350e+002, 2.712083e+002
8.105172e+002, 2.746054e+002
8.109993e+002, 2.780800e+002
8.114814e+002, 2.819261e+002
8.119635e+002, 2.854595e+002
8.124456e+002, 2.885575e+002
8.129277e+002, 2.912050e+002
8.134099e+002, 2.933092e+002
8.138920e+002, 2.949143e+002
8.143741e+002, 2.961966e+002
8.148562e+002, 2.972505e+002
8.153383e+002, 2.979998e+002
8.158204e+002, 2.983728e+002
8.163026e+002, 2.983655e+002
8.167847e+002, 2.979765e+002
8.172668e+002, 2.972012e+002
8.177489e+002, 2.959974e+002
8.182310e+002, 2.943309e+002
8.187131e+002, 2.922751e+002
8.191953e+002, 2.899679e+002
8.196774e+002, 2.874066e+002
8.201595e+002, 2.845915e+002
8.206416e+002, 2.815787e+002
8.211237e+002, 2.781469e+002
8.216058e+002, 2.738719e+002
8.220880e+002, 2.693788e+002
8.225701e+002, 2.655028e+002
8.230522e+002, 2.622126e+002
8.235343e+002, 2.585564e+002
8.240164e+002, 2.540365e+002
8.244985e+002, 2.495112e+002
8.249807e+002, 2.449894e+002
8.254628e+002, 2.408733e+002
8.259449e+002, 2.378654e+002
8.264270e+002, 2.357545e+002
8.269091e+002, 2.335679e+002
8.273912e+002, 2.307224e+002
8.278734e+002, 2.276925e+002
8.283555e+002, 2.251353e+002
8.288376e+002, 2.229684e+002
8.293197e+002, 2.207847e+002
8.298018e+002, 2.185583e+002
8.302839e+002, 2.166611e+002
8.307661e+002, 2.152921e+002
8.312482e+002, 2.143391e+002
8.317303e+002, 2.136253e+002
8.322124e+002, 2.131678e+002
8.326945e+002, 2.128424e+002
8.331766e+002, 2.125920e+002
8.336588e+002, 2.125673e+002
8.341409e+002, 2.125800e+002
8.346230e+002, 2.129866e+002
8.351051e+002, 2.142666e+002
8.355872e+002, 2.162626e+002
8.360693e+002, 2.181496e+002
8.365515e+002, 2.193044e+002
8.370336e+002, 2.208965e+002
8.375157e+002, 2.237561e+002
8.379978e+002, 2.272778e+002
8.384799e+002, 2.309144e+002
8.389620e+002, 2.345474e+002
8.394442e+002, 2.380663e+002
8.399263e+002, 2.414108e+002
8.404084e+002, 2.448682e+002
8.408905e+002, 2.489192e+002
8.413726e+002, 2.534306e+002
8.418547e+002, 2.574249e+002
8.423369e+002, 2.608000e+002
8.428190e+002, 2.648220e+002
8.433011e+002, 2.700453e+002
8.437832e+002, 2.757010e+002
8.442653e+002, 2.808764e+002
8.447474e+002, 2.855934e+002
8.452296e+002, 2.904220e+002
8.457117e+002, 2.953966e+002
8.461938e+002, 3.004015e+002
8.466759e+002, 3.058042e+002
8.471580e+002, 3.108883e+002
8.476401e+002, 3.152300e+002
8.481223e+002, 3.189236e+002
8.486044e+002, 3.222317e+002
8.490865e+002, 3.251918e+002
8.495686e+002, 3.278971e+002
8.500507e+002, 3.310012e+002
8.505328e+002, 3.334069e+002
8.510150e+002, 3.340663e+002
8.514971e+002, 3.331128e+002
8.519792e+002, 3.308298e+002
8.524613e+002, 3.274063e+002
8.529434e+002, 3.233452e+002
8.534255e+002, 3.192273e+002
8.539077e+002, 3.148295e+002
8.543898e+002, 3.096179e+002
8.548719e+002, 3.035847e+002
8.553540e+002, 2.962801e+002
8.558361e+002, 2.874863e+002
8.563182e+002, 2.780360e+002
8.568004e+002, 2.684226e+002
8.572825e+002, 2.587893e+002
8.577646e+002, 2.495335e+002
8.582467e+002, 2.409365e+002
8.587288e+002, 2.321606e+002
8.592109e+002, 2.227776e+002
8.596931e+002, 2.137250e+002
8.601752e+002, 2.052039e+002
8.606573e+002, 1.972276e+002
8.611394e+002, 1.898577e+002
8.616215e+002, 1.830643e+002
8.621036e+002, 1.765374e+002
8.625858e+002, 1.699975e+002
8.630679e+002, 1.637579e+002
8.635500e+002, 1.579891e+002
8.640321e+002, 1.526888e+002
8.645142e+002, 1.480189e+002
8.649963e+002, 1.438593e+002
8.654785e+002, 1.398739e+002
8.659606e+002, 1.358627e+002
8.664427e+002, 1.319325e+002
8.669248e+002, 1.282441e+002
8.674069e+002, 1.248078e+002
8.678890e+002, 1.216865e+002
8.683712e+002, 1.188974e+002
8.688533e+002, 1.161534e+002
8.693354e+002, 1.132976e+002
8.698175e+002, 1.105321e+002
8.702996e+002, 1.081798e+002
8.707817e+002, 1.062401e+002
8.712639e+002, 1.042197e+002
8.717459e+002, 1.020296e+002
8.722280e+002, 9.991518e+001
8.727101e+002, 9.788623e+001
8.731923e+002, 9.599260e+001
8.736744e+002, 9.433345e+001
8.741565e+002, 9.283382e+001
8.746386e+002, 9.124061e+001
8.751207e+002, 8.940159e+001
8.756028e+002, 8.785181e+001
8.760850e+002, 8.711049e+001
8.765671e+002, 8.641508e+001
8.770492e+002, 8.506665e+001
8.775313e+002, 8.341586e+001
8.780134e+002, 8.208692e+001
8.784955e+002, 8.122508e+001
8.789777e+002, 8.058379e+001
8.794598e+002, 8.008942e+001
8.799419e+002, 7.956677e+001
8.804240e+002, 7.861428e+001
8.809061e+002, 7.737588e+001
8.813882e+002, 7.640651e+001
8.818704e+002, 7.578521e+001
8.823525e+002, 7.524219e+001
8.828346e+002, 7.460400e+001
8.833167e+002, 7.396975e+001
8.837988e+002, 7.359644e+001
8.842809e+002, 7.355125e+001
8.847631e+002, 7.322495e+001
8.852452e+002, 7.246970e+001
8.857273e+002, 7.180099e+001
8.862094e+002, 7.145102e+001
8.866915e+002, 7.120710e+001
8.871736e+002, 7.085853e+001
8.876558e+002, 7.040517e+001
8.881379e+002, 6.984116e+001
8.886200e+002, 6.896857e+001
8.891021e+002, 6.826488e+001
8.895842e+002, 6.796965e+001
8.900663e+002, 6.771685e+001
8.905485e+002, 6.720547e+001
8.910306e+002, 6.655960e+001
8.915127e+002, 6.609758e+001
8.919948e+002, 6.591438e+001
8.924769e+002, 6.565446e+001
8.929590e+002, 6.485269e+001
8.934412e+002, 6.406019e+001
8.939233e+002, 6.403512e+001
8.944054e+002, 6.443301e+001
8.948875e+002, 6.448246e+001
8.953696e+002, 6.405490e+001
8.958517e+002, 6.358185e+001
8.963339e+002, 6.340211e+001
8.968160e+002, 6.331468e+001
8.972981e+002, 6.280899e+001
8.977802e+002, 6.195773e+001
8.982623e+002, 6.158302e+001
8.987444e+002, 6.181374e+001
8.992266e+002, 6.183000e+001
8.997087e+002, 6.121991e+001
9.001908e+002, 6.025455e+001
9.006729e+002, 5.927563e+001
9.011550e+002, 5.826617e+001
9.016371e+002, 5.764553e+001
9.021193e+002, 5.764893e+001
9.026014e+002, 5.760303e+001
9.030835e+002, 5.750022e+001
9.035656e+002, 5.719208e+001
9.040477e+002, 5.646001e+001
9.045298e+002, 5.546381e+001
9.050120e+002, 5.460938e+001
9.054941e+002, 5.393727e+001
9.059762e+002, 5.342201e+001
9.064583e+002, 5.317071e+001
9.069404e+002, 5.295857e+001
9.074225e+002, 5.268652e+001
9.079047e+002, 5.235628e+001
9.083868e+002, 5.201533e+001
9.088689e+002, 5.164874e+001
9.093510e+002, 5.110469e+001
9.098331e+002, 5.013156e+001
9.103152e+002, 4.920783e+001
9.107974e+002, 4.878270e+001
9.112795e+002, 4.876773e+001
9.117616e+002, 4.929436e+001
9.122437e+002, 5.013417e+001
9.127258e+002, 5.027532e+001
9.132079e+002, 4.923626e+001
9.136901e+002, 4.787310e+001
9.141722e+002, 4.740191e+001
9.146543e+002, 4.762852e+001
9.151364e+002, 4.729702e+001
9.156185e+002, 4.637497e+001
9.161006e+002, 4.591396e+001
9.165828e+002, 4.628768e+001
9.170649e+002, 4.664014e+001
9.175470e+002, 4.620980e+001
9.180291e+002, 4.524490e+001
9.185112e+002, 4.465272e+001
9.189933e+002, 4.454771e+001
9.194755e+002, 4.452991e+001
9.199576e+002, 4.480775e+001
9.204397e+002, 4.486986e+001
9.209218e+002, 4.425447e+001
9.214039e+002, 4.349147e+001
9.218860e+002, 4.320454e+001
9.223682e+002, 4.338001e+001
9.228503e+002, 4.345805e+001
9.233324e+002, 4.333085e+001
9.238145e+002, 4.313987e+001
9.242966e+002, 4.280396e+001
9.247787e+002, 4.252615e+001
9.252609e+002, 4.266121e+001
9.257430e+002, 4.292960e+001
9.262251e+002, 4.263940e+001
9.267072e+002, 4.156841e+001
9.271893e+002, 4.065607e+001
9.276714e+002, 4.065003e+001
9.281536e+002, 4.098973e+001
9.286357e+002, 4.125964e+001
9.291178e+002, 4.139178e+001
9.295999e+002, 4.123269e+001
9.300820e+002, 4.080980e+001
9.305641e+002, 4.037465e+001
9.310463e+002, 4.008270e+001
9.315284e+002, 3.988819e+001
9.320105e+002, 3.977937e+001
9.324926e+002, 3.971069e+001
9.329747e+002, 3.946339e+001
9.334568e+002, 3.903760e+001
9.339390e+002, 3.860241e+001
9.344211e+002, 3.821370e+001
9.349032e+002, 3.794067e+001
9.353853e+002, 3.787812e+001
9.358674e+002, 3.798681e+001
9.363495e+002, 3.805040e+001
9.368317e+002, 3.808549e+001
9.373138e+002, 3.799003e+001
9.377959e+002, 3.769921e+001
9.382780e+002, 3.739587e+001
9.387601e+002, 3.719165e+001
9.392422e+002, 3.702150e+001
9.397244e+002, 3.673289e+001
9.402065e+002, 3.626234e+001
9.406886e+002, 3.604975e+001
9.411707e+002, 3.640001e+001
9.416528e+002, 3.658037e+001
9.421349e+002, 3.633822e+001
9.426171e+002, 3.598359e+001
9.430992e+002, 3.575996e+001
9.435813e+002, 3.560640e+001
9.440634e+002, 3.530287e+001
9.445455e+002, 3.472090e+001
9.450276e+002, 3.431960e+001
9.455098e+002, 3.432820e+001
9.459919e+002, 3.449690e+001
9.464740e+002, 3.487070e+001
9.469561e+002, 3.518595e+001
9.474382e+002, 3.500970e+001
9.479203e+002, 3.438538e+001
9.484025e+002, 3.382994e+001
9.488846e+002, 3.364069e+001
9.493667e+002, 3.355867e+001
9.498488e+002, 3.331758e+001
9.503309e+002, 3.303263e+001
9.508130e+002, 3.288956e+001
9.512952e+002, 3.286891e+001
9.517773e+002, 3.285488e+001
9.522594e+002, 3.280930e+001
9.527415e+002, 3.278952e+001
9.532236e+002, 3.287363e+001
9.537057e+002, 3.299340e+001
9.541878e+002, 3.301051e+001
9.546699e+002, 3.291813e+001
9.551520e+002, 3.259950e+001
9.556342e+002, 3.203878e+001
9.561163e+002, 3.162366e+001
9.565984e+002, 3.157075e+001
9.570805e+002, 3.172058e+001
9.575626e+002, 3.184063e+001
9.580447e+002, 3.193069e+001
9.585269e+002, 3.190828e+001
9.590090e+002, 3.173033e+001
9.594911e+002, 3.163149e+001
9.599732e+002, 3.168748e+001
9.604553e+002, 3.177984e+001
9.609374e+002, 3.184703e+001
9.614196e+002, 3.186829e+001
9.619017e+002, 3.177434e+001
9.623838e+002, 3.150348e+001
9.628659e+002, 3.130540e+001
9.633480e+002, 3.111579e+001
9.638301e+002, 3.108952e+001
9.643123e+002, 3.157104e+001
9.647944e+002, 3.198133e+001
9.652765e+002, 3.164585e+001
9.657586e+002, 3.076298e+001
9.662407e+002, 3.028920e+001
9.667228e+002, 3.054121e+001
9.672050e+002, 3.079716e+001
9.676871e+002, 3.095824e+001
9.681692e+002, 3.102460e+001
9.686513e+002, 3.100228e+001
9.691334e+002, 3.088172e+001
9.696155e+002, 3.055764e+001
9.700977e+002, 3.007859e+001
9.705798e+002, 2.982397e+001
9.710619e+002, 3.016288e+001
9.715440e+002, 3.044018e+001
9.720261e+002, 3.004788e+001
9.725082e+002, 2.953848e+001
9.729904e+002, 2.955570e+001
9.734725e+002, 2.994396e+001
9.739546e+002, 3.027704e+001
9.744367e+002, 3.041318e+001
9.749188e+002, 3.039150e+001
9.754009e+002, 3.016085e+001
9.758831e+002, 2.987813e+001
9.763652e+002, 2.977390e+001
9.768473e+002, 2.977125e+001
9.773294e+002, 2.970265e+001
9.778115e+002, 2.955832e+001
9.782936e+002, 2.942801e+001
9.787758e+002, 2.935340e+001
9.792579e+002, 2.925587e+001
9.797400e+002, 2.898573e+001
9.802221e+002, 2.863172e+001
9.807042e+002, 2.853481e+001
9.811863e+002, 2.866144e+001
9.816685e+002, 2.870767e+001
9.821506e+002, 2.861419e+001
9.826327e+002, 2.864943e+001
9.831148e+002, 2.902138e+001
9.835969e+002, 2.946551e+001
9.840790e+002, 2.941349e+001
9.845612e+002, 2.886044e+001
9.850433e+002, 2.865431e+001
9.855254e+002, 2.888080e+001
9.860075e+002, 2.890391e+001
9.864896e+002, 2.846494e+001
9.869717e+002, 2.809032e+001
9.874539e+002, 2.825281e+001
9.879360e+002, 2.876501e+001
9.884181e+002, 2.904252e+001
9.889002e+002, 2.904541e+001
9.893823e+002, 2.893835e+001
9.898644e+002, 2.863513e+001
9.903466e+002, 2.838829e+001
9.908287e+002, 2.829093e+001
9.913108e+002, 2.826655e+001
9.917929e+002, 2.831079e+001
9.922750e+002, 2.838053e+001
9.927571e+002, 2.820350e+001
9.932393e+002, 2.744111e+001
9.937214e+002, 2.704396e+001
9.942035e+002, 2.720216e+001
9.946856e+002, 2.751436e+001
9.951677e+002, 2.803264e+001
9.956498e+002, 2.848536e+001
9.961320e+002, 2.852129e+001
9.966141e+002, 2.818645e+001
9.970962e+002, 2.791727e+001
9.975783e+002, 2.781539e+001
9.980604e+002, 2.775127e+001
9.985425e+002, 2.771848e+001
9.990247e+002, 2.768690e+001
9.995068e+002, 2.762618e+001
9.999889e+002, 2.756095e+001
1.000471e+003, 2.754522e+001
1.000953e+003, 2.757486e+001
1.001435e+003, 2.755117e+001
1.001917e+003, 2.733510e+001
1.002399e+003, 2.720658e+001
1.002882e+003, 2.745730e+001
1.003364e+003, 2.774365e+001
1.003846e+003, 2.764268e+001
1.004328e+003, 2.735936e+001
1.004810e+003, 2.741094e+001
1.005292e+003, 2.787783e+001
1.005774e+003, 2.820621e+001
1.006256e+003, 2.791798e+001
1.006739e+003, 2.752189e+001
1.007221e+003, 2.756275e+001
1.007703e+003, 2.775374e+001
1.008185e+003, 2.766738e+001
1.008667e+003, 2.735386e+001
1.009149e+003, 2.705748e+001
1.009631e+003, 2.687396e+001
1.010113e+003, 2.681340e+001
1.010595e+003, 2.693421e+001
1.011078e+003, 2.712961e+001
1.011560e+003, 2.725685e+001
1.012042e+003, 2.732692e+001
1.012524e+003, 2.737608e+001
1.013006e+003, 2.739835e+001
1.013488e+003, 2.731501e+001
1.013970e+003, 2.709591e+001
1.014452e+003, 2.691551e+001
1.014935e+003, 2.701931e+001
1.015417e+003, 2.726703e+001
1.015899e+003, 2.728708e+001
1.016381e+003, 2.712756e+001
1.016863e+003, 2.699690e+001
1.017345e+003, 2.693043e+001
1.017827e+003, 2.693513e+001
1.018309e+003, 2.701796e+001
1.018791e+003, 2.711617e+001
1.019274e+003, 2.712258e+001
1.019756e+003, 2.707573e+001
1.020238e+003, 2.722798e+001
1.020720e+003, 2.756389e+001
1.021202e+003, 2.762158e+001
1.021684e+003, 2.730367e+001
1.022166e+003, 2.704535e+001
1.022648e+003, 2.710373e+001
1.023130e+003, 2.732913e+001
1.023613e+003, 2.750276e+001
1.024095e+003, 2.762160e+001
1.024577e+003, 2.760788e+001
1.025059e+003, 2.743737e+001
1.025541e+003, 2.733698e+001
1.026023e+003, 2.735057e+001
1.026505e+003, 2.743485e+001
1.026987e+003, 2.758139e+001
1.027469e+003, 2.774368e+001
1.027952e+003, 2.784375e+001
1.028434e+003, 2.788390e+001
1.028916e+003, 2.780761e+001
1.029398e+003, 2.759271e+001
1.029880e+003, 2.731741e+001
1.030362e+003, 2.692175e+001
1.030844e+003, 2.665027e+001
1.031326e+003, 2.670567e+001
1.031809e+003, 2.694438e+001
1.032291e+003, 2.708432e+001
1.032773e+003, 2.712170e+001
1.033255e+003, 2.708945e+001
1.033737e+003, 2.694323e+001
1.034219e+003, 2.681698e+001
1.034701e+003, 2.666569e+001
1.035183e+003, 2.665526e+001
1.035666e+003, 2.701379e+001
1.036148e+003, 2.751784e+001
1.036630e+003, 2.769295e+001
1.037112e+003, 2.749300e+001
1.037594e+003, 2.721825e+001
1.038076e+003, 2.677158e+001
1.038558e+003, 2.640581e+001
1.039040e+003, 2.607741e+001
1.039522e+003, 2.593849e+001
1.040005e+003, 2.628302e+001
1.040487e+003, 2.682638e+001
1.040969e+003, 2.690079e+001
1.041451e+003, 2.635546e+001
1.041933e+003, 2.614286e+001
1.042415e+003, 2.663675e+001
1.042897e+003, 2.696386e+001
1.043379e+003, 2.687332e+001
1.043861e+003, 2.665931e+001
1.044344e+003, 2.650344e+001
1.044826e+003, 2.636202e+001
1.045308e+003, 2.609079e+001
1.045790e+003, 2.562683e+001
1.046272e+003, 2.543357e+001
1.046754e+003, 2.578770e+001
1.047236e+003, 2.610330e+001
1.047718e+003, 2.632468e+001
1.048201e+003, 2.637626e+001
1.048683e+003, 2.605841e+001
1.049165e+003, 2.559184e+001
1.049647e+003, 2.538951e+001
1.050129e+003, 2.551672e+001
1.050611e+003, 2.568007e+001
1.051093e+003, 2.590050e+001
1.051575e+003, 2.604347e+001
1.052057e+003, 2.602067e+001
1.052540e+003, 2.595255e+001
1.053022e+003, 2.594645e+001
1.053504e+003, 2.595046e+001
1.053986e+003, 2.583815e+001
1.054468e+003, 2.558746e+001
1.054950e+003, 2.540031e+001
1.055432e+003, 2.539450e+001
1.055914e+003, 2.537298e+001
1.056396e+003, 2.520390e+001
1.056879e+003, 2.505743e+001
1.057361e+003, 2.512956e+001
1.057843e+003, 2.528747e+001
1.058325e+003, 2.523637e+001
1.058807e+003, 2.494119e+001
1.059289e+003, 2.483359e+001
1.059771e+003, 2.527097e+001
1.060253e+003, 2.562675e+001
1.060736e+003, 2.560722e+001
1.061218e+003, 2.547350e+001
1.061700e+003, 2.539263e+001
1.062182e+003, 2.535360e+001
1.062664e+003, 2.532340e+001
1.063146e+003, 2.529221e+001
1.063628e+003, 2.522528e+001
1.064110e+003, 2.509294e+001
1.064593e+003, 2.494644e+001
1.065075e+003, 2.469946e+001
1.065557e+003, 2.455230e+001
1.066039e+003, 2.471720e+001
1.066521e+003, 2.505590e+001
1.067003e+003, 2.545099e+001
1.067485e+003, 2.582550e+001
1.067967e+003, 2.584123e+001
1.068449e+003, 2.510798e+001
1.068932e+003, 2.445634e+001
1.069414e+003, 2.427201e+001
1.069896e+003, 2.429416e+001
1.070378e+003, 2.435467e+001
1.070860e+003, 2.447738e+001
1.071342e+003, 2.478048e+001
1.071824e+003, 2.522719e+001
1.072306e+003, 2.556947e+001
1.072788e+003, 2.579861e+001
1.073271e+003, 2.572149e+001
1.073753e+003, 2.476836e+001
1.074235e+003, 2.397742e+001
1.074717e+003, 2.440292e+001
1.075199e+003, 2.526166e+001
1.075681e+003, 2.546416e+001
1.076163e+003, 2.500085e+001
1.076645e+003, 2.456477e+001
1.077127e+003, 2.437428e+001
1.077610e+003, 2.428989e+001
1.078092e+003, 2.439959e+001
1.078574e+003, 2.442475e+001
1.079056e+003, 2.402246e+001
1.079538e+003, 2.353599e+001
1.080020e+003, 2.343491e+001
1.080502e+003, 2.364546e+001
1.080984e+003, 2.371422e+001
1.081467e+003, 2.344392e+001
1.081949e+003, 2.332369e+001
1.082431e+003, 2.374756e+001
1.082913e+003, 2.418509e+001
1.083395e+003, 2.438856e+001
1.083877e+003, 2.437701e+001
1.084359e+003, 2.406915e+001
1.084841e+003, 2.359735e+001
1.085323e+003, 2.325881e+001
1.085806e+003, 2.313128e+001
1.086288e+003, 2.314417e+001
1.086770e+003, 2.331428e+001
1.087252e+003, 2.355926e+001
1.087734e+003, 2.402340e+001
1.088216e+003, 2.438303e+001
1.088698e+003, 2.423869e+001
1.089180e+003, 2.378226e+001
1.089662e+003, 2.344003e+001
1.090145e+003, 2.329821e+001
1.090627e+003, 2.321847e+001
1.091109e+003, 2.314374e+001
1.091591e+003, 2.312608e+001
1.092073e+003, 2.324182e+001
1.092555e+003, 2.337085e+001
1.093037e+003, 2.337940e+001
1.093519e+003, 2.335185e+001
1.094002e+003, 2.348585e+001
1.094484e+003, 2.378617e+001
1.094966e+003, 2.393499e+001
1.095448e+003, 2.364609e+001
1.095930e+003, 2.346651e+001
1.096412e+003, 2.373848e+001
1.096894e+003, 2.399926e+001
1.097376e+003, 2.398978e+001
1.097859e+003, 2.376862e+001
1.098341e+003, 2.333147e+001
1.098823e+003, 2.275094e+001
1.099305e+003, 2.239865e+001
1.099787e+003, 2.244134e+001
1.100269e+003, 2.254597e+001
1.100751e+003, 2.272219e+001
1.101233e+003, 2.282826e+001
1.101715e+003, 2.265146e+001
1.102198e+003, 2.247910e+001
1.102680e+003, 2.273630e+001
1.103162e+003, 2.327551e+001
1.103644e+003, 2.346123e+001
1.104126e+003, 2.306548e+001
1.104608e+003, 2.275579e+001
1.105090e+003, 2.266979e+001
1.105572e+003, 2.266160e+001
1.106054e+003, 2.274353e+001
1.106537e+003, 2.282534e+001
1.107019e+003, 2.281722e+001
1.107501e+003, 2.275801e+001
1.107983e+003, 2.275855e+001
1.108465e+003, 2.284823e+001
1.108947e+003, 2.287324e+001
1.109429e+003, 2.280521e+001
1.109911e+003, 2.269234e+001
1.110394e+003, 2.240539e+001
1.110876e+003, 2.222262e+001
1.111358e+003, 2.243352e+001
1.111840e+003, 2.279773e+001
1.112322e+003, 2.290618e+001
1.112804e+003, 2.274062e+001
1.113286e+003, 2.260522e+001
1.113768e+003, 2.246435e+001
1.114250e+003, 2.241357e+001
1.114733e+003, 2.246219e+001
1.115215e+003, 2.260789e+001
1.115697e+003, 2.306481e+001
1.116179e+003, 2.341316e+001
1.116661e+003, 2.300591e+001
1.117143e+003, 2.200270e+001
1.117625e+003, 2.161152e+001
1.118107e+003, 2.217968e+001
1.118589e+003, 2.254051e+001
1.119072e+003, 2.266150e+001
1.119554e+003, 2.261245e+001
1.120036e+003, 2.235366e+001
1.120518e+003, 2.201724e+001
1.121000e+003, 2.162906e+001
1.121482e+003, 2.131354e+001
1.121964e+003, 2.151031e+001
1.122446e+003, 2.239218e+001
1.122929e+003, 2.268139e+001
1.123411e+003, 2.216132e+001
1.123893e+003, 2.180239e+001
1.124375e+003, 2.186275e+001
1.124857e+003, 2.195445e+001
1.125339e+003, 2.181806e+001
1.125821e+003, 2.159521e+001
1.126303e+003, 2.152945e+001
1.126786e+003, 2.161357e+001
1.127268e+003, 2.171917e+001
1.127750e+003, 2.184604e+001
1.128232e+003, 2.201900e+001
1.128714e+003, 2.226438e+001
1.129196e+003, 2.234176e+001
1.129678e+003, 2.211235e+001
1.130160e+003, 2.184397e+001
1.130642e+003, 2.184331e+001
1.131125e+003, 2.204800e+001
1.131607e+003, 2.229701e+001
1.132089e+003, 2.257558e+001
1.132571e+003, 2.257456e+001
1.133053e+003, 2.228457e+001
1.133535e+003, 2.198714e+001
1.134017e+003, 2.176879e+001
1.134499e+003, 2.175630e+001
1.134981e+003, 2.208737e+001
1.135464e+003, 2.247599e+001
1.135946e+003, 2.229854e+001
1.136428e+003, 2.174618e+001
1.136910e+003, 2.156874e+001
1.137392e+003, 2.171488e+001
1.137874e+003, 2.194682e+001
1.138356e+003, 2.218324e+001
1.138838e+003, 2.221565e+001
1.139321e+003, 2.193646e+001
1.139803e+003, 2.159221e+001
1.140285e+003, 2.146895e+001
1.140767e+003, 2.145206e+001
1.141249e+003, 2.127694e+001
1.141731e+003, 2.106397e+001
1.142213e+003, 2.113102e+001
1.142695e+003, 2.142013e+001
1.143177e+003, 2.165221e+001
1.143660e+003, 2.173284e+001
1.144142e+003, 2.169704e+001
1.144624e+003, 2.152261e+001
1.145106e+003, 2.135605e+001
1.145588e+003, 2.134172e+001
1.146070e+003, 2.143098e+001
1.146552e+003, 2.162183e+001
1.147034e+003, 2.184189e+001
1.147516e+003, 2.197968e+001
1.147999e+003, 2.201986e+001
1.148481e+003, 2.198763e+001
1.148963e+003, 2.187817e+001
1.149445e+003, 2.179492e+001
1.149927e+003, 2.178183e+001
1.150409e+003, 2.184236e+001
1.150891e+003, 2.209573e+001
1.151373e+003, 2.232914e+001
1.151856e+003, 2.224215e+001
1.152338e+003, 2.196436e+001
1.152820e+003, 2.182338e+001
1.153302e+003, 2.188807e+001
1.153784e+003, 2.202434e+001
1.154266e+003, 2.234227e+001
1.154748e+003, 2.250448e+001
1.155230e+003, 2.227387e+001
1.155713e+003, 2.199278e+001
1.156195e+003, 2.183597e+001
1.156677e+003, 2.177870e+001
1.157159e+003, 2.181293e+001
1.157641e+003, 2.191320e+001
1.158123e+003, 2.193318e+001
1.158605e+003, 2.182739e+001
1.159087e+003, 2.171045e+001
1.159569e+003, 2.158634e+001
1.160052e+003, 2.145435e+001
1.160534e+003, 2.125019e+001
1.161016e+003, 2.111115e+001
1.161498e+003, 2.118817e+001
1.161980e+003, 2.137288e+001
1.162462e+003, 2.141013e+001
1.162944e+003, 2.127182e+001
1.163426e+003, 2.130763e+001
1.163908e+003, 2.162436e+001
1.164391e+003, 2.178312e+001
1.164873e+003, 2.165393e+001
1.165355e+003, 2.158258e+001
1.165837e+003, 2.175568e+001
1.166319e+003, 2.200238e+001
1.166801e+003, 2.213683e+001
1.167283e+003, 2.215951e+001
1.167765e+003, 2.203727e+001
1.168247e+003, 2.176129e+001
1.168730e+003, 2.161201e+001
1.169212e+003, 2.160270e+001
1.169694e+003, 2.170809e+001
1.170176e+003, 2.192459e+001
1.170658e+003, 2.211734e+001
1.171140e+003, 2.219996e+001
1.171622e+003, 2.215689e+001
1.172104e+003, 2.187781e+001
1.172587e+003, 2.148499e+001
1.173069e+003, 2.142584e+001
1.173551e+003, 2.161657e+001
1.174033e+003, 2.175167e+001
1.174515e+003, 2.179827e+001
1.174997e+003, 2.184540e+001
1.175479e+003, 2.192275e+001
1.175961e+003, 2.195227e+001
1.176443e+003, 2.186202e+001
1.176926e+003, 2.171023e+001
1.177408e+003, 2.151136e+001
1.177890e+003, 2.133979e+001
1.178372e+003, 2.133294e+001
1.178854e+003, 2.142708e+001
1.179336e+003, 2.148937e+001
1.179818e+003, 2.150558e+001
1.180300e+003, 2.155511e+001
1.180782e+003, 2.168863e+001
1.181265e+003, 2.171217e+001
1.181747e+003, 2.140829e+001
1.182229e+003, 2.107598e+001
1.182711e+003, 2.077106e+001
1.183193e+003, 2.065679e+001
1.183675e+003, 2.092483e+001
1.184157e+003, 2.147754e+001
1.184639e+003, 2.229078e+001
1.185122e+003, 2.330665e+001
1.185604e+003, 2.374094e+001
1.186086e+003, 2.302382e+001
1.186568e+003, 2.235416e+001
1.187050e+003, 2.185150e+001
1.187532e+003, 2.153197e+001
1.188014e+003, 2.148952e+001
1.188496e+003, 2.156215e+001
1.188979e+003, 2.164585e+001
1.189461e+003, 2.171431e+001
1.189943e+003, 2.167770e+001
1.190425e+003, 2.150616e+001
1.190907e+003, 2.141357e+001
1.191389e+003, 2.145111e+001
1.191871e+003, 2.141913e+001
1.192353e+003, 2.126526e+001
1.192835e+003, 2.109085e+001
1.193318e+003, 2.092428e+001
1.193800e+003, 2.082798e+001
1.194282e+003, 2.088826e+001
1.194764e+003, 2.107209e+001
1.195246e+003, 2.127853e+001
1.195728e+003, 2.150243e+001
1.196210e+003, 2.157712e+001
1.196692e+003, 2.150115e+001
1.197174e+003, 2.142340e+001
1.197657e+003, 2.137812e+001
1.198139e+003, 2.124096e+001
1.198621e+003, 2.092319e+001
1.199103e+003, 2.064695e+001
1.199585e+003, 2.077444e+001
1.200067e+003, 2.109909e+001
1.200549e+003, 2.122918e+001
1.201031e+003, 2.122330e+001
1.201514e+003, 2.117273e+001
1.201996e+003, 2.111680e+001
1.202478e+003, 2.117136e+001
1.202960e+003, 2.132989e+001
1.203442e+003, 2.129606e+001
1.203924e+003, 2.076719e+001
1.204406e+003, 2.039555e+001
1.204888e+003, 2.096480e+001
1.205370e+003, 2.158545e+001
1.205853e+003, 2.143525e+001
1.206335e+003, 2.096502e+001
1.206817e+003, 2.066556e+001
1.207299e+003, 2.057536e+001
1.207781e+003, 2.066167e+001
1.208263e+003, 2.093723e+001
1.208745e+003, 2.104516e+001
1.209227e+003, 2.066687e+001
1.209709e+003, 2.046262e+001
1.210192e+003, 2.064581e+001
1.210674e+003, 2.094323e+001
1.211156e+003, 2.145362e+001
1.211638e+003, 2.180316e+001
1.212120e+003, 2.146382e+001
1.212602e+003, 2.067892e+001
1.213084e+003, 2.039824e+001
1.213566e+003, 2.073505e+001
1.214049e+003, 2.102046e+001
1.214531e+003, 2.126481e+001
1.215013e+003, 2.141944e+001
1.215495e+003, 2.147957e+001
1.215977e+003, 2.139876e+001
1.216459e+003, 2.112017e+001
1.216941e+003, 2.086647e+001
1.217423e+003, 2.093293e+001
1.217906e+003, 2.120366e+001
1.218388e+003, 2.136184e+001
1.218870e+003, 2.139939e+001
1.219352e+003, 2.116307e+001
1.219834e+003, 2.074448e+001
1.220316e+003, 2.068830e+001
1.220798e+003, 2.105895e+001
1.221280e+003, 2.142220e+001
1.221762e+003, 2.154956e+001
1.222245e+003, 2.147001e+001
1.222727e+003, 2.100699e+001
1.223209e+003, 2.056104e+001
1.223691e+003, 2.068756e+001
1.224173e+003, 2.103576e+001
1.224655e+003, 2.119989e+001
1.225137e+003, 2.119129e+001
1.225619e+003, 2.110773e+001
1.226101e+003, 2.097556e+001
1.226584e+003, 2.078225e+001
1.227066e+003, 2.044080e+001
1.227548e+003, 2.028900e+001
1.228030e+003, 2.068077e+001
1.228512e+003, 2.097276e+001
1.228994e+003, 2.075437e+001
1.229476e+003, 2.047082e+001
1.229958e+003, 2.051383e+001
1.230441e+003, 2.071232e+001
1.230923e+003, 2.071745e+001
1.231405e+003, 2.053965e+001
1.231887e+003, 2.056425e+001
1.232369e+003, 2.094157e+001
1.232851e+003, 2.102974e+001
1.233333e+003, 2.069449e+001
1.233815e+003, 2.045951e+001
1.234297e+003, 2.050010e+001
1.234780e+003, 2.059715e+001
1.235262e+003, 2.059524e+001
1.235744e+003, 2.053800e+001
1.236226e+003, 2.045760e+001
1.236708e+003, 2.040782e+001
1.237190e+003, 2.074575e+001
1.237672e+003, 2.132254e+001
1.238154e+003, 2.141905e+001
1.238636e+003, 2.106292e+001
1.239119e+003, 2.073694e+001
1.239601e+003, 2.059320e+001
1.240083e+003, 2.056154e+001
1.240565e+003, 2.061492e+001
1.241047e+003, 2.067555e+001
1.241529e+003, 2.062700e+001
1.242011e+003, 2.059336e+001
1.242493e+003, 2.076114e+001
1.242975e+003, 2.096568e+001
1.243458e+003, 2.101492e+001
1.243940e+003, 2.092856e+001
1.244422e+003, 2.075988e+001
1.244904e+003, 2.053175e+001
1.245386e+003, 2.037891e+001
1.245868e+003, 2.035153e+001
1.246350e+003, 2.037426e+001
1.246832e+003, 2.047443e+001
1.247315e+003, 2.056940e+001
1.247797e+003, 2.066180e+001
1.248279e+003, 2.070134e+001
1.248761e+003, 2.063147e+001
1.249243e+003, 2.050516e+001
1.249725e+003, 2.041285e+001
1.250207e+003, 2.035428e+001
1.250689e+003, 2.032475e+001
1.251172e+003, 2.032367e+001
1.251654e+003, 2.038776e+001
1.252136e+003, 2.052695e+001
1.252618e+003, 2.047408e+001
1.253100e+003, 2.015054e+001
1.253582e+003, 1.989172e+001
1.254064e+003, 1.992946e+001
1.254546e+003, 2.014115e+001
1.255028e+003, 2.046209e+001
1.255510e+003, 2.076026e+001
1.255993e+003, 2.070787e+001
1.256475e+003, 2.048995e+001
1.256957e+003, 2.048719e+001
1.257439e+003, 2.061625e+001
1.257921e+003, 2.054200e+001
1.258403e+003, 2.024729e+001
1.258885e+003, 2.009263e+001
1.259367e+003, 2.028479e+001
1.259850e+003, 2.042561e+001
1.260332e+003, 2.025580e+001
1.260814e+003, 2.008929e+001
1.261296e+003, 2.009504e+001
1.261778e+003, 2.014002e+001
1.262260e+003, 2.006147e+001
1.262742e+003, 1.998911e+001
1.263224e+003, 2.022251e+001
1.263707e+003, 2.069085e+001
1.264189e+003, 2.075303e+001
1.264671e+003, 2.020365e+001
1.265153e+003, 1.995690e+001
1.265635e+003, 2.007086e+001
1.266117e+003, 2.027482e+001
1.266599e+003, 2.053075e+001
1.267081e+003, 2.071814e+001
1.267563e+003, 2.076876e+001
1.268046e+003, 2.072603e+001
1.268528e+003, 2.062133e+001
1.269010e+003, 2.049944e+001
1.269492e+003, 2.047095e+001
1.269974e+003, 2.050446e+001
1.270456e+003, 2.054894e+001
1.270938e+003, 2.057713e+001
1.271420e+003, 2.049443e+001
1.271902e+003, 2.033215e+001
1.272385e+003, 2.027315e+001
1.272867e+003, 2.038782e+001
1.273349e+003, 2.049111e+001
1.273831e+003, 2.041711e+001
1.274313e+003, 2.038142e+001
1.274795e+003, 2.056860e+001
1.275277e+003, 2.074360e+001
1.275759e+003, 2.071117e+001
1.276242e+003, 2.061267e+001
1.276724e+003, 2.062137e+001
1.277206e+003, 2.070589e+001
1.277688e+003, 2.074695e+001
1.278170e+003, 2.074577e+001
1.278652e+003, 2.066731e+001
1.279134e+003, 2.043977e+001
1.279616e+003, 2.043315e+001
1.280099e+003, 2.074969e+001
1.280581e+003, 2.092763e+001
1.281063e+003, 2.078420e+001
1.281545e+003, 2.060326e+001
1.282027e+003, 2.060807e+001
1.282509e+003, 2.071215e+001
1.282991e+003, 2.081682e+001
1.283473e+003, 2.088385e+001
1.283955e+003, 2.083514e+001
##END=



