##NAMES=Vesignieite
##RRUFFID=R120149
##IDEAL CHEMISTRY=Cu^2+^_3_Ba(V^5+^O_4_)_2_(OH)_2_
##LOCALITY=Mina Milpillas, Municipio de Santa Cruz, Sonora, Mexico
##OWNER=RRUFF
##SOURCE=Marcus Origlieri
##DESCRIPTION=Olive green druse of platy crystals, some with pseudohexagonal outlines, associated with malachite
##STATUS=The identification of this mineral has been confirmed by single-crystal X-ray diffraction.
##URL=rruff.info/R120149
8.936163e+001, 0.000000e+000
8.984375e+001, 2.774630e+002
9.032587e+001, 2.794579e+002
9.080798e+001, 2.798499e+002
9.129010e+001, 2.780264e+002
9.177222e+001, 2.753103e+002
9.225433e+001, 2.733984e+002
9.273645e+001, 2.722017e+002
9.321857e+001, 2.708366e+002
9.370068e+001, 2.684744e+002
9.418280e+001, 2.653286e+002
9.466492e+001, 2.620804e+002
9.514703e+001, 2.586235e+002
9.562915e+001, 2.552840e+002
9.611127e+001, 2.530982e+002
9.659338e+001, 2.522401e+002
9.707550e+001, 2.517352e+002
9.755762e+001, 2.504482e+002
9.803973e+001, 2.483613e+002
9.852185e+001, 2.459995e+002
9.900397e+001, 2.433382e+002
9.948608e+001, 2.403486e+002
9.996820e+001, 2.381480e+002
1.004503e+002, 2.371025e+002
1.009324e+002, 2.363970e+002
1.014146e+002, 2.341614e+002
1.018967e+002, 2.299004e+002
1.023788e+002, 2.254675e+002
1.028609e+002, 2.216377e+002
1.033430e+002, 2.183242e+002
1.038251e+002, 2.161138e+002
1.043073e+002, 2.156251e+002
1.047894e+002, 2.163722e+002
1.052715e+002, 2.157467e+002
1.057536e+002, 2.129624e+002
1.062357e+002, 2.096672e+002
1.067178e+002, 2.069418e+002
1.072000e+002, 2.050001e+002
1.076821e+002, 2.033642e+002
1.081642e+002, 2.021940e+002
1.086463e+002, 2.015618e+002
1.091284e+002, 2.003926e+002
1.096105e+002, 1.986466e+002
1.100927e+002, 1.963736e+002
1.105748e+002, 1.936409e+002
1.110569e+002, 1.888449e+002
1.115390e+002, 1.850977e+002
1.120211e+002, 1.834916e+002
1.125032e+002, 1.847879e+002
1.129854e+002, 1.855247e+002
1.134675e+002, 1.856670e+002
1.139496e+002, 1.849076e+002
1.144317e+002, 1.827898e+002
1.149138e+002, 1.769533e+002
1.153959e+002, 1.714099e+002
1.158781e+002, 1.682617e+002
1.163602e+002, 1.690767e+002
1.168423e+002, 1.695785e+002
1.173244e+002, 1.680910e+002
1.178065e+002, 1.651309e+002
1.182886e+002, 1.620136e+002
1.187708e+002, 1.586439e+002
1.192529e+002, 1.556585e+002
1.197350e+002, 1.536024e+002
1.202171e+002, 1.527721e+002
1.206992e+002, 1.527090e+002
1.211813e+002, 1.537453e+002
1.216635e+002, 1.556135e+002
1.221456e+002, 1.568025e+002
1.226277e+002, 1.559501e+002
1.231098e+002, 1.539520e+002
1.235919e+002, 1.519908e+002
1.240740e+002, 1.506323e+002
1.245562e+002, 1.494006e+002
1.250383e+002, 1.477644e+002
1.255204e+002, 1.457199e+002
1.260025e+002, 1.436263e+002
1.264846e+002, 1.415452e+002
1.269667e+002, 1.396247e+002
1.274489e+002, 1.382346e+002
1.279310e+002, 1.377916e+002
1.284131e+002, 1.379456e+002
1.288952e+002, 1.382423e+002
1.293773e+002, 1.387912e+002
1.298594e+002, 1.388813e+002
1.303416e+002, 1.370942e+002
1.308237e+002, 1.337227e+002
1.313058e+002, 1.307806e+002
1.317879e+002, 1.297872e+002
1.322700e+002, 1.302907e+002
1.327521e+002, 1.299941e+002
1.332343e+002, 1.285245e+002
1.337164e+002, 1.265411e+002
1.341985e+002, 1.252473e+002
1.346806e+002, 1.246888e+002
1.351627e+002, 1.242146e+002
1.356448e+002, 1.234131e+002
1.361270e+002, 1.222771e+002
1.366091e+002, 1.210741e+002
1.370912e+002, 1.196936e+002
1.375733e+002, 1.183407e+002
1.380554e+002, 1.177717e+002
1.385375e+002, 1.182304e+002
1.390197e+002, 1.187602e+002
1.395018e+002, 1.186022e+002
1.399839e+002, 1.176344e+002
1.404660e+002, 1.164997e+002
1.409481e+002, 1.152058e+002
1.414302e+002, 1.137900e+002
1.419124e+002, 1.127273e+002
1.423945e+002, 1.122497e+002
1.428766e+002, 1.118114e+002
1.433587e+002, 1.107695e+002
1.438408e+002, 1.086280e+002
1.443229e+002, 1.069271e+002
1.448051e+002, 1.061255e+002
1.452872e+002, 1.063671e+002
1.457693e+002, 1.063413e+002
1.462514e+002, 1.058079e+002
1.467335e+002, 1.051572e+002
1.472156e+002, 1.049162e+002
1.476978e+002, 1.056473e+002
1.481799e+002, 1.060966e+002
1.486620e+002, 1.059047e+002
1.491441e+002, 1.048321e+002
1.496262e+002, 1.037658e+002
1.501083e+002, 1.026342e+002
1.505905e+002, 1.015347e+002
1.510726e+002, 1.006352e+002
1.515547e+002, 1.001893e+002
1.520368e+002, 9.973347e+001
1.525189e+002, 9.914207e+001
1.530010e+002, 9.848134e+001
1.534832e+002, 9.756521e+001
1.539653e+002, 9.603555e+001
1.544474e+002, 9.422179e+001
1.549295e+002, 9.291481e+001
1.554116e+002, 9.289280e+001
1.558937e+002, 9.290538e+001
1.563759e+002, 9.234910e+001
1.568580e+002, 9.036167e+001
1.573401e+002, 8.885280e+001
1.578222e+002, 8.839024e+001
1.583043e+002, 8.875183e+001
1.587864e+002, 8.911818e+001
1.592686e+002, 8.921593e+001
1.597507e+002, 8.927902e+001
1.602328e+002, 8.946415e+001
1.607149e+002, 9.049427e+001
1.611970e+002, 9.096028e+001
1.616791e+002, 8.988183e+001
1.621613e+002, 8.755649e+001
1.626434e+002, 8.585107e+001
1.631255e+002, 8.609384e+001
1.636076e+002, 8.706443e+001
1.640897e+002, 8.767569e+001
1.645718e+002, 8.752586e+001
1.650540e+002, 8.697846e+001
1.655361e+002, 8.604000e+001
1.660182e+002, 8.472957e+001
1.665003e+002, 8.354130e+001
1.669824e+002, 8.287080e+001
1.674645e+002, 8.242766e+001
1.679467e+002, 8.186246e+001
1.684288e+002, 8.073628e+001
1.689109e+002, 7.964338e+001
1.693930e+002, 7.915881e+001
1.698751e+002, 7.932881e+001
1.703572e+002, 7.936106e+001
1.708394e+002, 7.808421e+001
1.713215e+002, 7.635014e+001
1.718036e+002, 7.560920e+001
1.722857e+002, 7.785725e+001
1.727678e+002, 8.068619e+001
1.732499e+002, 8.155894e+001
1.737321e+002, 8.015187e+001
1.742142e+002, 7.805141e+001
1.746963e+002, 7.622958e+001
1.751784e+002, 7.469537e+001
1.756605e+002, 7.346532e+001
1.761426e+002, 7.256772e+001
1.766248e+002, 7.198315e+001
1.771069e+002, 7.172668e+001
1.775890e+002, 7.182662e+001
1.780711e+002, 7.214198e+001
1.785532e+002, 7.290752e+001
1.790353e+002, 7.388718e+001
1.795175e+002, 7.420828e+001
1.799996e+002, 7.245688e+001
1.804817e+002, 6.984295e+001
1.809638e+002, 6.885161e+001
1.814459e+002, 7.007063e+001
1.819280e+002, 7.216125e+001
1.824102e+002, 7.351774e+001
1.828923e+002, 7.418973e+001
1.833744e+002, 7.465324e+001
1.838565e+002, 7.497153e+001
1.843386e+002, 7.528576e+001
1.848207e+002, 7.605977e+001
1.853029e+002, 7.749484e+001
1.857850e+002, 7.916798e+001
1.862671e+002, 8.038384e+001
1.867492e+002, 8.115487e+001
1.872313e+002, 8.187097e+001
1.877134e+002, 8.287312e+001
1.881956e+002, 8.408379e+001
1.886777e+002, 8.505613e+001
1.891598e+002, 8.565517e+001
1.896419e+002, 8.607033e+001
1.901240e+002, 8.671745e+001
1.906061e+002, 8.761368e+001
1.910883e+002, 8.856898e+001
1.915704e+002, 8.948706e+001
1.920525e+002, 9.037016e+001
1.925346e+002, 9.118307e+001
1.930167e+002, 9.198170e+001
1.934988e+002, 9.259657e+001
1.939810e+002, 9.223506e+001
1.944631e+002, 9.072928e+001
1.949452e+002, 8.936937e+001
1.954273e+002, 8.895612e+001
1.959094e+002, 8.945705e+001
1.963915e+002, 8.982304e+001
1.968737e+002, 8.984797e+001
1.973558e+002, 8.960636e+001
1.978379e+002, 8.932910e+001
1.983200e+002, 8.901839e+001
1.988021e+002, 8.868051e+001
1.992842e+002, 8.828354e+001
1.997664e+002, 8.781599e+001
2.002485e+002, 8.748918e+001
2.007306e+002, 8.738020e+001
2.012127e+002, 8.744646e+001
2.016948e+002, 8.741675e+001
2.021769e+002, 8.724727e+001
2.026591e+002, 8.712230e+001
2.031412e+002, 8.722698e+001
2.036233e+002, 8.757908e+001
2.041054e+002, 8.800182e+001
2.045875e+002, 8.844488e+001
2.050696e+002, 8.891728e+001
2.055518e+002, 8.952641e+001
2.060339e+002, 9.029678e+001
2.065160e+002, 9.114114e+001
2.069981e+002, 9.205384e+001
2.074802e+002, 9.311316e+001
2.079623e+002, 9.384183e+001
2.084445e+002, 9.407160e+001
2.089266e+002, 9.382291e+001
2.094087e+002, 9.353927e+001
2.098908e+002, 9.318192e+001
2.103729e+002, 9.285139e+001
2.108550e+002, 9.265520e+001
2.113372e+002, 9.260521e+001
2.118193e+002, 9.265036e+001
2.123014e+002, 9.281232e+001
2.127835e+002, 9.308992e+001
2.132656e+002, 9.326579e+001
2.137477e+002, 9.328674e+001
2.142299e+002, 9.328118e+001
2.147120e+002, 9.344350e+001
2.151941e+002, 9.389965e+001
2.156762e+002, 9.417216e+001
2.161583e+002, 9.412265e+001
2.166404e+002, 9.373988e+001
2.171226e+002, 9.324790e+001
2.176047e+002, 9.252787e+001
2.180868e+002, 9.183653e+001
2.185689e+002, 9.150170e+001
2.190510e+002, 9.165163e+001
2.195331e+002, 9.186132e+001
2.200153e+002, 9.209025e+001
2.204974e+002, 9.236998e+001
2.209795e+002, 9.230663e+001
2.214616e+002, 9.173634e+001
2.219437e+002, 9.100052e+001
2.224258e+002, 9.047960e+001
2.229080e+002, 9.013376e+001
2.233901e+002, 9.011050e+001
2.238722e+002, 9.058912e+001
2.243543e+002, 9.169237e+001
2.248364e+002, 9.221215e+001
2.253185e+002, 9.179552e+001
2.258007e+002, 9.111817e+001
2.262828e+002, 9.112497e+001
2.267649e+002, 9.235713e+001
2.272470e+002, 9.318114e+001
2.277291e+002, 9.296358e+001
2.282112e+002, 9.147198e+001
2.286934e+002, 9.078118e+001
2.291755e+002, 9.138251e+001
2.296576e+002, 9.235053e+001
2.301397e+002, 9.242204e+001
2.306218e+002, 9.106985e+001
2.311039e+002, 8.979051e+001
2.315861e+002, 8.898576e+001
2.320682e+002, 8.870456e+001
2.325503e+002, 8.846439e+001
2.330324e+002, 8.818810e+001
2.335145e+002, 8.801955e+001
2.339966e+002, 8.818587e+001
2.344788e+002, 8.895224e+001
2.349609e+002, 8.958311e+001
2.354430e+002, 8.988503e+001
2.359251e+002, 8.982726e+001
2.364072e+002, 8.964471e+001
2.368893e+002, 8.922127e+001
2.373715e+002, 8.876688e+001
2.378536e+002, 8.854105e+001
2.383357e+002, 8.858813e+001
2.388178e+002, 8.878751e+001
2.392999e+002, 8.920557e+001
2.397820e+002, 8.992013e+001
2.402642e+002, 9.018757e+001
2.407463e+002, 8.972442e+001
2.412284e+002, 8.904934e+001
2.417105e+002, 8.883491e+001
2.421926e+002, 8.941550e+001
2.426747e+002, 8.984002e+001
2.431569e+002, 8.982593e+001
2.436390e+002, 8.930376e+001
2.441211e+002, 8.889296e+001
2.446032e+002, 8.855021e+001
2.450853e+002, 8.835103e+001
2.455674e+002, 8.841225e+001
2.460496e+002, 8.889690e+001
2.465317e+002, 8.934780e+001
2.470138e+002, 8.969641e+001
2.474959e+002, 8.995311e+001
2.479780e+002, 8.998572e+001
2.484601e+002, 8.965257e+001
2.489423e+002, 8.923995e+001
2.494244e+002, 8.909144e+001
2.499065e+002, 8.940370e+001
2.503886e+002, 8.959029e+001
2.508707e+002, 8.946458e+001
2.513528e+002, 8.900639e+001
2.518350e+002, 8.873157e+001
2.523171e+002, 8.862983e+001
2.527992e+002, 8.872266e+001
2.532813e+002, 8.911465e+001
2.537634e+002, 9.010352e+001
2.542455e+002, 9.071915e+001
2.547277e+002, 9.062537e+001
2.552098e+002, 8.980291e+001
2.556919e+002, 8.937910e+001
2.561740e+002, 8.950401e+001
2.566561e+002, 8.983481e+001
2.571382e+002, 9.005457e+001
2.576204e+002, 9.013314e+001
2.581025e+002, 9.016193e+001
2.585846e+002, 9.007570e+001
2.590667e+002, 8.989360e+001
2.595488e+002, 9.011990e+001
2.600309e+002, 9.093906e+001
2.605131e+002, 9.189040e+001
2.609952e+002, 9.259002e+001
2.614773e+002, 9.305177e+001
2.619594e+002, 9.322311e+001
2.624415e+002, 9.297726e+001
2.629236e+002, 9.237711e+001
2.634058e+002, 9.210362e+001
2.638879e+002, 9.225417e+001
2.643700e+002, 9.256294e+001
2.648521e+002, 9.283936e+001
2.653342e+002, 9.307870e+001
2.658163e+002, 9.328734e+001
2.662985e+002, 9.343111e+001
2.667806e+002, 9.353828e+001
2.672627e+002, 9.379895e+001
2.677448e+002, 9.426490e+001
2.682269e+002, 9.477096e+001
2.687090e+002, 9.519715e+001
2.691912e+002, 9.553328e+001
2.696733e+002, 9.583371e+001
2.701554e+002, 9.606200e+001
2.706375e+002, 9.626852e+001
2.711196e+002, 9.667625e+001
2.716017e+002, 9.734204e+001
2.720839e+002, 9.804678e+001
2.725660e+002, 9.859398e+001
2.730481e+002, 9.893877e+001
2.735302e+002, 9.944827e+001
2.740123e+002, 1.002071e+002
2.744944e+002, 1.011274e+002
2.749766e+002, 1.019372e+002
2.754587e+002, 1.025913e+002
2.759408e+002, 1.033079e+002
2.764229e+002, 1.042226e+002
2.769050e+002, 1.053540e+002
2.773871e+002, 1.064963e+002
2.778693e+002, 1.076249e+002
2.783514e+002, 1.087699e+002
2.788335e+002, 1.100281e+002
2.793156e+002, 1.114394e+002
2.797977e+002, 1.127983e+002
2.802798e+002, 1.139466e+002
2.807620e+002, 1.148728e+002
2.812441e+002, 1.159210e+002
2.817262e+002, 1.170982e+002
2.822083e+002, 1.184167e+002
2.826904e+002, 1.198727e+002
2.831725e+002, 1.214583e+002
2.836547e+002, 1.232744e+002
2.841368e+002, 1.254724e+002
2.846189e+002, 1.279975e+002
2.851010e+002, 1.303849e+002
2.855831e+002, 1.325647e+002
2.860652e+002, 1.347726e+002
2.865474e+002, 1.374323e+002
2.870295e+002, 1.405337e+002
2.875116e+002, 1.435963e+002
2.879937e+002, 1.462893e+002
2.884758e+002, 1.487437e+002
2.889579e+002, 1.515061e+002
2.894401e+002, 1.545948e+002
2.899222e+002, 1.580169e+002
2.904043e+002, 1.619509e+002
2.908864e+002, 1.663283e+002
2.913685e+002, 1.706034e+002
2.918506e+002, 1.743747e+002
2.923328e+002, 1.779029e+002
2.928149e+002, 1.818075e+002
2.932970e+002, 1.861096e+002
2.937791e+002, 1.907321e+002
2.942612e+002, 1.956404e+002
2.947433e+002, 2.007961e+002
2.952255e+002, 2.059834e+002
2.957076e+002, 2.110326e+002
2.961897e+002, 2.160921e+002
2.966718e+002, 2.212585e+002
2.971539e+002, 2.265133e+002
2.976360e+002, 2.320951e+002
2.981182e+002, 2.385104e+002
2.986003e+002, 2.453827e+002
2.990824e+002, 2.519091e+002
2.995645e+002, 2.577562e+002
3.000466e+002, 2.633002e+002
3.005287e+002, 2.692029e+002
3.010109e+002, 2.753699e+002
3.014930e+002, 2.813490e+002
3.019751e+002, 2.867895e+002
3.024572e+002, 2.917868e+002
3.029393e+002, 2.964693e+002
3.034214e+002, 3.011548e+002
3.039036e+002, 3.051170e+002
3.043857e+002, 3.073648e+002
3.048678e+002, 3.081627e+002
3.053499e+002, 3.085066e+002
3.058320e+002, 3.092285e+002
3.063141e+002, 3.097424e+002
3.067963e+002, 3.093715e+002
3.072784e+002, 3.080185e+002
3.077605e+002, 3.057202e+002
3.082426e+002, 3.023339e+002
3.087247e+002, 2.980065e+002
3.092068e+002, 2.930932e+002
3.096890e+002, 2.874149e+002
3.101711e+002, 2.814195e+002
3.106532e+002, 2.756504e+002
3.111353e+002, 2.702895e+002
3.116174e+002, 2.645747e+002
3.120995e+002, 2.575140e+002
3.125817e+002, 2.499195e+002
3.130638e+002, 2.430061e+002
3.135459e+002, 2.374804e+002
3.140280e+002, 2.325643e+002
3.145101e+002, 2.277885e+002
3.149922e+002, 2.231333e+002
3.154744e+002, 2.187578e+002
3.159565e+002, 2.145445e+002
3.164386e+002, 2.107507e+002
3.169207e+002, 2.077171e+002
3.174028e+002, 2.061236e+002
3.178849e+002, 2.047484e+002
3.183671e+002, 2.030411e+002
3.188492e+002, 2.010056e+002
3.193313e+002, 1.992424e+002
3.198134e+002, 1.979582e+002
3.202955e+002, 1.970156e+002
3.207776e+002, 1.963175e+002
3.212598e+002, 1.957961e+002
3.217419e+002, 1.955477e+002
3.222240e+002, 1.956098e+002
3.227061e+002, 1.959669e+002
3.231882e+002, 1.965477e+002
3.236703e+002, 1.971453e+002
3.241525e+002, 1.980962e+002
3.246346e+002, 1.995866e+002
3.251167e+002, 2.019827e+002
3.255988e+002, 2.044520e+002
3.260809e+002, 2.070217e+002
3.265630e+002, 2.096242e+002
3.270452e+002, 2.120828e+002
3.275273e+002, 2.141043e+002
3.280094e+002, 2.161990e+002
3.284915e+002, 2.186304e+002
3.289736e+002, 2.218024e+002
3.294557e+002, 2.243590e+002
3.299379e+002, 2.261443e+002
3.304200e+002, 2.273682e+002
3.309021e+002, 2.283435e+002
3.313842e+002, 2.290934e+002
3.318663e+002, 2.295789e+002
3.323484e+002, 2.298972e+002
3.328306e+002, 2.301568e+002
3.333127e+002, 2.295121e+002
3.337948e+002, 2.278707e+002
3.342769e+002, 2.253936e+002
3.347590e+002, 2.222526e+002
3.352411e+002, 2.183165e+002
3.357233e+002, 2.139430e+002
3.362054e+002, 2.091396e+002
3.366875e+002, 2.039006e+002
3.371696e+002, 1.988085e+002
3.376517e+002, 1.939642e+002
3.381339e+002, 1.890996e+002
3.386160e+002, 1.840235e+002
3.390981e+002, 1.786369e+002
3.395802e+002, 1.733744e+002
3.400623e+002, 1.683143e+002
3.405444e+002, 1.634147e+002
3.410266e+002, 1.588145e+002
3.415087e+002, 1.544444e+002
3.419908e+002, 1.503830e+002
3.424729e+002, 1.466359e+002
3.429550e+002, 1.432318e+002
3.434371e+002, 1.400644e+002
3.439193e+002, 1.371625e+002
3.444014e+002, 1.344776e+002
3.448835e+002, 1.319509e+002
3.453656e+002, 1.295837e+002
3.458477e+002, 1.275040e+002
3.463298e+002, 1.259823e+002
3.468120e+002, 1.248420e+002
3.472941e+002, 1.232532e+002
3.477762e+002, 1.210892e+002
3.482583e+002, 1.189930e+002
3.487404e+002, 1.178792e+002
3.492225e+002, 1.175449e+002
3.497047e+002, 1.171222e+002
3.501868e+002, 1.161738e+002
3.506689e+002, 1.149806e+002
3.511510e+002, 1.140253e+002
3.516331e+002, 1.133085e+002
3.521152e+002, 1.126625e+002
3.525974e+002, 1.119579e+002
3.530795e+002, 1.112232e+002
3.535616e+002, 1.105207e+002
3.540437e+002, 1.099142e+002
3.545258e+002, 1.092886e+002
3.550079e+002, 1.085269e+002
3.554901e+002, 1.076406e+002
3.559722e+002, 1.066682e+002
3.564543e+002, 1.055427e+002
3.569364e+002, 1.043894e+002
3.574185e+002, 1.033319e+002
3.579006e+002, 1.024213e+002
3.583828e+002, 1.015377e+002
3.588649e+002, 1.006428e+002
3.593470e+002, 9.971389e+001
3.598291e+002, 9.869801e+001
3.603112e+002, 9.731138e+001
3.607933e+002, 9.602685e+001
3.612755e+002, 9.524226e+001
3.617576e+002, 9.509354e+001
3.622397e+002, 9.469290e+001
3.627218e+002, 9.347330e+001
3.632039e+002, 9.190453e+001
3.636860e+002, 9.051109e+001
3.641682e+002, 8.942700e+001
3.646503e+002, 8.853178e+001
3.651324e+002, 8.786104e+001
3.656145e+002, 8.739786e+001
3.660966e+002, 8.695434e+001
3.665787e+002, 8.675907e+001
3.670609e+002, 8.641223e+001
3.675430e+002, 8.565781e+001
3.680251e+002, 8.374247e+001
3.685072e+002, 8.227973e+001
3.689893e+002, 8.160714e+001
3.694714e+002, 8.150542e+001
3.699536e+002, 8.129763e+001
3.704357e+002, 8.102779e+001
3.709178e+002, 8.060249e+001
3.713999e+002, 7.995620e+001
3.718820e+002, 7.893632e+001
3.723641e+002, 7.806668e+001
3.728463e+002, 7.731359e+001
3.733284e+002, 7.674098e+001
3.738105e+002, 7.651500e+001
3.742926e+002, 7.688985e+001
3.747747e+002, 7.703386e+001
3.752568e+002, 7.667149e+001
3.757390e+002, 7.579436e+001
3.762211e+002, 7.487939e+001
3.767032e+002, 7.388449e+001
3.771853e+002, 7.291764e+001
3.776674e+002, 7.203521e+001
3.781495e+002, 7.122569e+001
3.786317e+002, 7.059302e+001
3.791138e+002, 7.019437e+001
3.795959e+002, 6.995774e+001
3.800780e+002, 6.967760e+001
3.805601e+002, 6.935970e+001
3.810422e+002, 6.894980e+001
3.815244e+002, 6.829366e+001
3.820065e+002, 6.746666e+001
3.824886e+002, 6.696914e+001
3.829707e+002, 6.691637e+001
3.834528e+002, 6.700197e+001
3.839349e+002, 6.673124e+001
3.844171e+002, 6.617529e+001
3.848992e+002, 6.572250e+001
3.853813e+002, 6.564347e+001
3.858634e+002, 6.575931e+001
3.863455e+002, 6.574078e+001
3.868276e+002, 6.557212e+001
3.873098e+002, 6.542137e+001
3.877919e+002, 6.552486e+001
3.882740e+002, 6.573320e+001
3.887561e+002, 6.578220e+001
3.892382e+002, 6.557212e+001
3.897203e+002, 6.518074e+001
3.902025e+002, 6.451830e+001
3.906846e+002, 6.367049e+001
3.911667e+002, 6.302937e+001
3.916488e+002, 6.308447e+001
3.921309e+002, 6.330001e+001
3.926130e+002, 6.319459e+001
3.930952e+002, 6.252422e+001
3.935773e+002, 6.186551e+001
3.940594e+002, 6.150608e+001
3.945415e+002, 6.132568e+001
3.950236e+002, 6.110089e+001
3.955057e+002, 6.068105e+001
3.959879e+002, 6.027803e+001
3.964700e+002, 6.001651e+001
3.969521e+002, 5.994556e+001
3.974342e+002, 5.975148e+001
3.979163e+002, 5.925986e+001
3.983984e+002, 5.868487e+001
3.988806e+002, 5.822189e+001
3.993627e+002, 5.808255e+001
3.998448e+002, 5.782347e+001
4.003269e+002, 5.724409e+001
4.008090e+002, 5.642761e+001
4.012911e+002, 5.604982e+001
4.017733e+002, 5.649833e+001
4.022554e+002, 5.692286e+001
4.027375e+002, 5.681890e+001
4.032196e+002, 5.580151e+001
4.037017e+002, 5.526438e+001
4.041838e+002, 5.545677e+001
4.046660e+002, 5.595998e+001
4.051481e+002, 5.590725e+001
4.056302e+002, 5.511856e+001
4.061123e+002, 5.443953e+001
4.065944e+002, 5.420280e+001
4.070765e+002, 5.438693e+001
4.075587e+002, 5.454353e+001
4.080408e+002, 5.467607e+001
4.085229e+002, 5.477079e+001
4.090050e+002, 5.480453e+001
4.094871e+002, 5.477958e+001
4.099692e+002, 5.472755e+001
4.104514e+002, 5.462189e+001
4.109335e+002, 5.452872e+001
4.114156e+002, 5.463819e+001
4.118977e+002, 5.492991e+001
4.123798e+002, 5.518060e+001
4.128619e+002, 5.522193e+001
4.133441e+002, 5.511943e+001
4.138262e+002, 5.498765e+001
4.143083e+002, 5.483270e+001
4.147904e+002, 5.468125e+001
4.152725e+002, 5.456207e+001
4.157546e+002, 5.446504e+001
4.162368e+002, 5.436578e+001
4.167189e+002, 5.425660e+001
4.172010e+002, 5.414074e+001
4.176831e+002, 5.401410e+001
4.181652e+002, 5.387898e+001
4.186473e+002, 5.375164e+001
4.191295e+002, 5.362788e+001
4.196116e+002, 5.352330e+001
4.200937e+002, 5.345723e+001
4.205758e+002, 5.347396e+001
4.210579e+002, 5.347030e+001
4.215400e+002, 5.316991e+001
4.220222e+002, 5.281408e+001
4.225043e+002, 5.298980e+001
4.229864e+002, 5.470664e+001
4.234685e+002, 5.621484e+001
4.239506e+002, 5.679078e+001
4.244327e+002, 5.610441e+001
4.249149e+002, 5.543243e+001
4.253970e+002, 5.473226e+001
4.258791e+002, 5.411945e+001
4.263612e+002, 5.370526e+001
4.268433e+002, 5.355334e+001
4.273254e+002, 5.350454e+001
4.278076e+002, 5.353993e+001
4.282897e+002, 5.365959e+001
4.287718e+002, 5.389406e+001
4.292539e+002, 5.432528e+001
4.297360e+002, 5.469734e+001
4.302181e+002, 5.478688e+001
4.307003e+002, 5.451558e+001
4.311824e+002, 5.450855e+001
4.316645e+002, 5.485865e+001
4.321466e+002, 5.536568e+001
4.326287e+002, 5.568715e+001
4.331108e+002, 5.581778e+001
4.335930e+002, 5.592273e+001
4.340751e+002, 5.599724e+001
4.345572e+002, 5.610361e+001
4.350393e+002, 5.651177e+001
4.355214e+002, 5.722730e+001
4.360035e+002, 5.797179e+001
4.364857e+002, 5.852665e+001
4.369678e+002, 5.891268e+001
4.374499e+002, 5.916039e+001
4.379320e+002, 5.919846e+001
4.384141e+002, 5.925714e+001
4.388962e+002, 5.957128e+001
4.393784e+002, 6.011052e+001
4.398605e+002, 6.078660e+001
4.403426e+002, 6.170969e+001
4.408247e+002, 6.264707e+001
4.413068e+002, 6.337645e+001
4.417889e+002, 6.385285e+001
4.422711e+002, 6.436663e+001
4.427532e+002, 6.508790e+001
4.432353e+002, 6.591037e+001
4.437174e+002, 6.672368e+001
4.441995e+002, 6.734957e+001
4.446816e+002, 6.811722e+001
4.451638e+002, 6.922417e+001
4.456459e+002, 7.058218e+001
4.461280e+002, 7.183088e+001
4.466101e+002, 7.262104e+001
4.470922e+002, 7.353545e+001
4.475743e+002, 7.488127e+001
4.480565e+002, 7.690097e+001
4.485386e+002, 7.870902e+001
4.490207e+002, 8.022034e+001
4.495028e+002, 8.156345e+001
4.499849e+002, 8.284441e+001
4.504670e+002, 8.396925e+001
4.509492e+002, 8.527497e+001
4.514313e+002, 8.687489e+001
4.519134e+002, 8.872598e+001
4.523955e+002, 9.043694e+001
4.528776e+002, 9.190852e+001
4.533597e+002, 9.347461e+001
4.538419e+002, 9.542908e+001
4.543240e+002, 9.774506e+001
4.548061e+002, 9.999019e+001
4.552882e+002, 1.021122e+002
4.557703e+002, 1.041452e+002
4.562524e+002, 1.059954e+002
4.567346e+002, 1.077336e+002
4.572167e+002, 1.096430e+002
4.576988e+002, 1.119906e+002
4.581809e+002, 1.145501e+002
4.586630e+002, 1.170480e+002
4.591451e+002, 1.194568e+002
4.596273e+002, 1.217076e+002
4.601094e+002, 1.236844e+002
4.605915e+002, 1.254646e+002
4.610736e+002, 1.271325e+002
4.615557e+002, 1.287020e+002
4.620378e+002, 1.302149e+002
4.625200e+002, 1.317656e+002
4.630021e+002, 1.332862e+002
4.634842e+002, 1.346116e+002
4.639663e+002, 1.358439e+002
4.644484e+002, 1.367343e+002
4.649305e+002, 1.371243e+002
4.654127e+002, 1.370025e+002
4.658948e+002, 1.365741e+002
4.663769e+002, 1.356260e+002
4.668590e+002, 1.345396e+002
4.673411e+002, 1.335965e+002
4.678232e+002, 1.331935e+002
4.683054e+002, 1.324145e+002
4.687875e+002, 1.312156e+002
4.692696e+002, 1.296370e+002
4.697517e+002, 1.277198e+002
4.702338e+002, 1.253232e+002
4.707159e+002, 1.228659e+002
4.711981e+002, 1.204940e+002
4.716802e+002, 1.182121e+002
4.721623e+002, 1.158390e+002
4.726444e+002, 1.133503e+002
4.731265e+002, 1.109142e+002
4.736086e+002, 1.087950e+002
4.740908e+002, 1.069863e+002
4.745729e+002, 1.050916e+002
4.750550e+002, 1.030096e+002
4.755371e+002, 1.008522e+002
4.760192e+002, 9.880521e+001
4.765013e+002, 9.685799e+001
4.769835e+002, 9.501025e+001
4.774656e+002, 9.334435e+001
4.779477e+002, 9.172934e+001
4.784298e+002, 8.988412e+001
4.789119e+002, 8.778878e+001
4.793940e+002, 8.578265e+001
4.798762e+002, 8.416870e+001
4.803583e+002, 8.279247e+001
4.808404e+002, 8.145130e+001
4.813225e+002, 8.011156e+001
4.818046e+002, 7.874583e+001
4.822867e+002, 7.727534e+001
4.827689e+002, 7.576488e+001
4.832510e+002, 7.437950e+001
4.837331e+002, 7.327128e+001
4.842152e+002, 7.221426e+001
4.846973e+002, 7.108424e+001
4.851794e+002, 6.982348e+001
4.856616e+002, 6.871603e+001
4.861437e+002, 6.791232e+001
4.866258e+002, 6.719640e+001
4.871079e+002, 6.638237e+001
4.875900e+002, 6.528869e+001
4.880721e+002, 6.442116e+001
4.885543e+002, 6.390936e+001
4.890364e+002, 6.362371e+001
4.895185e+002, 6.317809e+001
4.900006e+002, 6.250898e+001
4.904827e+002, 6.189043e+001
4.909648e+002, 6.148460e+001
4.914470e+002, 6.127458e+001
4.919291e+002, 6.092786e+001
4.924112e+002, 6.041754e+001
4.928933e+002, 5.990923e+001
4.933754e+002, 5.961670e+001
4.938575e+002, 5.948565e+001
4.943397e+002, 5.927355e+001
4.948218e+002, 5.891117e+001
4.953039e+002, 5.848303e+001
4.957860e+002, 5.804936e+001
4.962681e+002, 5.763871e+001
4.967502e+002, 5.734853e+001
4.972324e+002, 5.729101e+001
4.977145e+002, 5.733731e+001
4.981966e+002, 5.741722e+001
4.986787e+002, 5.752616e+001
4.991608e+002, 5.751591e+001
4.996429e+002, 5.708900e+001
5.001251e+002, 5.662235e+001
5.006072e+002, 5.644948e+001
5.010893e+002, 5.689079e+001
5.015714e+002, 5.729317e+001
5.020535e+002, 5.740547e+001
5.025356e+002, 5.738539e+001
5.030178e+002, 5.759541e+001
5.034999e+002, 5.838168e+001
5.039820e+002, 5.905920e+001
5.044641e+002, 5.943309e+001
5.049462e+002, 5.949410e+001
5.054283e+002, 5.956056e+001
5.059105e+002, 5.966625e+001
5.063926e+002, 5.972638e+001
5.068747e+002, 5.960145e+001
5.073568e+002, 5.921754e+001
5.078389e+002, 5.922578e+001
5.083210e+002, 5.982888e+001
5.088032e+002, 6.059797e+001
5.092853e+002, 6.067574e+001
5.097674e+002, 6.010765e+001
5.102495e+002, 5.965974e+001
5.107316e+002, 5.973964e+001
5.112137e+002, 6.010543e+001
5.116959e+002, 6.026635e+001
5.121780e+002, 6.022632e+001
5.126601e+002, 6.006404e+001
5.131422e+002, 5.972673e+001
5.136243e+002, 5.934387e+001
5.141064e+002, 5.912734e+001
5.145886e+002, 5.918849e+001
5.150707e+002, 5.914323e+001
5.155528e+002, 5.869426e+001
5.160349e+002, 5.800554e+001
5.165170e+002, 5.730744e+001
5.169991e+002, 5.665615e+001
5.174813e+002, 5.602624e+001
5.179634e+002, 5.536230e+001
5.184455e+002, 5.468670e+001
5.189276e+002, 5.417322e+001
5.194097e+002, 5.412528e+001
5.198918e+002, 5.399710e+001
5.203740e+002, 5.352384e+001
5.208561e+002, 5.250581e+001
5.213382e+002, 5.179948e+001
5.218203e+002, 5.150331e+001
5.223024e+002, 5.140319e+001
5.227845e+002, 5.128761e+001
5.232667e+002, 5.117664e+001
5.237488e+002, 5.090793e+001
5.242309e+002, 5.038032e+001
5.247130e+002, 4.974207e+001
5.251951e+002, 4.938404e+001
5.256772e+002, 4.930058e+001
5.261594e+002, 4.926490e+001
5.266415e+002, 4.918173e+001
5.271236e+002, 4.904719e+001
5.276057e+002, 4.883070e+001
5.280878e+002, 4.853178e+001
5.285699e+002, 4.823980e+001
5.290521e+002, 4.802659e+001
5.295342e+002, 4.786963e+001
5.300163e+002, 4.775402e+001
5.304984e+002, 4.773703e+001
5.309805e+002, 4.765004e+001
5.314626e+002, 4.729544e+001
5.319448e+002, 4.681479e+001
5.324269e+002, 4.648357e+001
5.329090e+002, 4.647975e+001
5.333911e+002, 4.653776e+001
5.338732e+002, 4.662917e+001
5.343553e+002, 4.675474e+001
5.348375e+002, 4.667295e+001
5.353196e+002, 4.613626e+001
5.358017e+002, 4.563352e+001
5.362838e+002, 4.541558e+001
5.367659e+002, 4.548503e+001
5.372480e+002, 4.587805e+001
5.377302e+002, 4.673803e+001
5.382123e+002, 4.772284e+001
5.386944e+002, 4.843029e+001
5.391765e+002, 4.888826e+001
5.396586e+002, 4.867762e+001
5.401407e+002, 4.742238e+001
5.406229e+002, 4.566416e+001
5.411050e+002, 4.472936e+001
5.415871e+002, 4.456589e+001
5.420692e+002, 4.464947e+001
5.425513e+002, 4.478735e+001
5.430334e+002, 4.491420e+001
5.435156e+002, 4.491589e+001
5.439977e+002, 4.478282e+001
5.444798e+002, 4.461398e+001
5.449619e+002, 4.437909e+001
5.454440e+002, 4.418900e+001
5.459261e+002, 4.418174e+001
5.464083e+002, 4.461330e+001
5.468904e+002, 4.491470e+001
5.473725e+002, 4.480986e+001
5.478546e+002, 4.444303e+001
5.483367e+002, 4.412220e+001
5.488188e+002, 4.385006e+001
5.493010e+002, 4.367299e+001
5.497831e+002, 4.360360e+001
5.502652e+002, 4.364124e+001
5.507473e+002, 4.378904e+001
5.512294e+002, 4.417163e+001
5.517115e+002, 4.445370e+001
5.521937e+002, 4.431930e+001
5.526758e+002, 4.368299e+001
5.531579e+002, 4.353234e+001
5.536400e+002, 4.403539e+001
5.541221e+002, 4.467818e+001
5.546042e+002, 4.468852e+001
5.550864e+002, 4.417218e+001
5.555685e+002, 4.379784e+001
5.560506e+002, 4.383393e+001
5.565327e+002, 4.402539e+001
5.570148e+002, 4.400671e+001
5.574969e+002, 4.382684e+001
5.579791e+002, 4.367057e+001
5.584612e+002, 4.368900e+001
5.589433e+002, 4.374327e+001
5.594254e+002, 4.369945e+001
5.599075e+002, 4.354599e+001
5.603896e+002, 4.344068e+001
5.608718e+002, 4.354382e+001
5.613539e+002, 4.366185e+001
5.618360e+002, 4.364579e+001
5.623181e+002, 4.331734e+001
5.628002e+002, 4.309292e+001
5.632823e+002, 4.300362e+001
5.637645e+002, 4.302523e+001
5.642466e+002, 4.316808e+001
5.647287e+002, 4.361245e+001
5.652108e+002, 4.374447e+001
5.656929e+002, 4.327835e+001
5.661750e+002, 4.241121e+001
5.666572e+002, 4.207506e+001
5.671393e+002, 4.233639e+001
5.676214e+002, 4.266162e+001
5.681035e+002, 4.276281e+001
5.685856e+002, 4.266965e+001
5.690677e+002, 4.245560e+001
5.695499e+002, 4.211532e+001
5.700320e+002, 4.179919e+001
5.705141e+002, 4.166871e+001
5.709962e+002, 4.165453e+001
5.714783e+002, 4.163819e+001
5.719604e+002, 4.156289e+001
5.724426e+002, 4.153637e+001
5.729247e+002, 4.172026e+001
5.734068e+002, 4.198750e+001
5.738889e+002, 4.211459e+001
5.743710e+002, 4.187225e+001
5.748531e+002, 4.163425e+001
5.753353e+002, 4.156619e+001
5.758174e+002, 4.165266e+001
5.762995e+002, 4.160889e+001
5.767816e+002, 4.125291e+001
5.772637e+002, 4.097498e+001
5.777458e+002, 4.098421e+001
5.782280e+002, 4.136640e+001
5.787101e+002, 4.156031e+001
5.791922e+002, 4.150807e+001
5.796743e+002, 4.139456e+001
5.801564e+002, 4.143611e+001
5.806385e+002, 4.162104e+001
5.811207e+002, 4.173663e+001
5.816028e+002, 4.173438e+001
5.820849e+002, 4.167119e+001
5.825670e+002, 4.163041e+001
5.830491e+002, 4.160111e+001
5.835313e+002, 4.154559e+001
5.840134e+002, 4.139581e+001
5.844955e+002, 4.124833e+001
5.849776e+002, 4.119197e+001
5.854597e+002, 4.121882e+001
5.859418e+002, 4.128097e+001
5.864240e+002, 4.145673e+001
5.869061e+002, 4.158319e+001
5.873882e+002, 4.153777e+001
5.878703e+002, 4.124471e+001
5.883524e+002, 4.102591e+001
5.888345e+002, 4.092445e+001
5.893167e+002, 4.090895e+001
5.897988e+002, 4.097520e+001
5.902809e+002, 4.121288e+001
5.907630e+002, 4.131884e+001
5.912451e+002, 4.123668e+001
5.917272e+002, 4.104929e+001
5.922094e+002, 4.088528e+001
5.926915e+002, 4.074187e+001
5.931736e+002, 4.069966e+001
5.936557e+002, 4.085651e+001
5.941378e+002, 4.108568e+001
5.946199e+002, 4.100885e+001
5.951021e+002, 4.066955e+001
5.955842e+002, 4.041794e+001
5.960663e+002, 4.063017e+001
5.965484e+002, 4.097729e+001
5.970305e+002, 4.102663e+001
5.975126e+002, 4.073235e+001
5.979948e+002, 4.049938e+001
5.984769e+002, 4.064727e+001
5.989590e+002, 4.090556e+001
5.994411e+002, 4.103749e+001
5.999232e+002, 4.088745e+001
6.004053e+002, 4.079218e+001
6.008875e+002, 4.090483e+001
6.013696e+002, 4.106326e+001
6.018517e+002, 4.101204e+001
6.023338e+002, 4.053410e+001
6.028159e+002, 4.029542e+001
6.032980e+002, 4.051928e+001
6.037802e+002, 4.103733e+001
6.042623e+002, 4.119871e+001
6.047444e+002, 4.095769e+001
6.052265e+002, 4.073822e+001
6.057086e+002, 4.082146e+001
6.061907e+002, 4.110051e+001
6.066729e+002, 4.116998e+001
6.071550e+002, 4.103387e+001
6.076371e+002, 4.091554e+001
6.081192e+002, 4.103988e+001
6.086013e+002, 4.127037e+001
6.090834e+002, 4.144604e+001
6.095656e+002, 4.155500e+001
6.100477e+002, 4.155078e+001
6.105298e+002, 4.125916e+001
6.110119e+002, 4.090362e+001
6.114940e+002, 4.073231e+001
6.119761e+002, 4.103876e+001
6.124583e+002, 4.125518e+001
6.129404e+002, 4.125900e+001
6.134225e+002, 4.112636e+001
6.139046e+002, 4.100234e+001
6.143867e+002, 4.083351e+001
6.148688e+002, 4.079920e+001
6.153510e+002, 4.100436e+001
6.158331e+002, 4.139423e+001
6.163152e+002, 4.161525e+001
6.167973e+002, 4.165366e+001
6.172794e+002, 4.164791e+001
6.177615e+002, 4.167454e+001
6.182437e+002, 4.172752e+001
6.187258e+002, 4.180683e+001
6.192079e+002, 4.191441e+001
6.196900e+002, 4.199251e+001
6.201721e+002, 4.195226e+001
6.206542e+002, 4.186932e+001
6.211364e+002, 4.184754e+001
6.216185e+002, 4.194860e+001
6.221006e+002, 4.202664e+001
6.225827e+002, 4.202723e+001
6.230648e+002, 4.196507e+001
6.235469e+002, 4.186050e+001
6.240291e+002, 4.151548e+001
6.245112e+002, 4.138407e+001
6.249933e+002, 4.166422e+001
6.254754e+002, 4.219649e+001
6.259575e+002, 4.242071e+001
6.264396e+002, 4.225973e+001
6.269218e+002, 4.201667e+001
6.274039e+002, 4.173831e+001
6.278860e+002, 4.146598e+001
6.283681e+002, 4.152460e+001
6.288502e+002, 4.192677e+001
6.293323e+002, 4.232035e+001
6.298145e+002, 4.244086e+001
6.302966e+002, 4.236681e+001
6.307787e+002, 4.221738e+001
6.312608e+002, 4.199533e+001
6.317429e+002, 4.180885e+001
6.322250e+002, 4.175234e+001
6.327072e+002, 4.176747e+001
6.331893e+002, 4.178503e+001
6.336714e+002, 4.173529e+001
6.341535e+002, 4.177595e+001
6.346356e+002, 4.204234e+001
6.351177e+002, 4.239750e+001
6.355999e+002, 4.262474e+001
6.360820e+002, 4.264298e+001
6.365641e+002, 4.265966e+001
6.370462e+002, 4.271734e+001
6.375283e+002, 4.279387e+001
6.380104e+002, 4.280817e+001
6.384926e+002, 4.275097e+001
6.389747e+002, 4.269242e+001
6.394568e+002, 4.265387e+001
6.399389e+002, 4.264008e+001
6.404210e+002, 4.268943e+001
6.409031e+002, 4.279778e+001
6.413853e+002, 4.287877e+001
6.418674e+002, 4.284689e+001
6.423495e+002, 4.276444e+001
6.428316e+002, 4.269131e+001
6.433137e+002, 4.262962e+001
6.437958e+002, 4.262183e+001
6.442780e+002, 4.271172e+001
6.447601e+002, 4.285188e+001
6.452422e+002, 4.300247e+001
6.457243e+002, 4.319038e+001
6.462064e+002, 4.333222e+001
6.466885e+002, 4.337949e+001
6.471707e+002, 4.340587e+001
6.476528e+002, 4.352787e+001
6.481349e+002, 4.380788e+001
6.486170e+002, 4.396942e+001
6.490991e+002, 4.391697e+001
6.495812e+002, 4.376409e+001
6.500634e+002, 4.382056e+001
6.505455e+002, 4.406819e+001
6.510276e+002, 4.423391e+001
6.515097e+002, 4.410919e+001
6.519918e+002, 4.387817e+001
6.524739e+002, 4.383872e+001
6.529561e+002, 4.396248e+001
6.534382e+002, 4.409810e+001
6.539203e+002, 4.420531e+001
6.544024e+002, 4.425634e+001
6.548845e+002, 4.416154e+001
6.553666e+002, 4.388403e+001
6.558488e+002, 4.383026e+001
6.563309e+002, 4.443370e+001
6.568130e+002, 4.502519e+001
6.572951e+002, 4.518046e+001
6.577772e+002, 4.468924e+001
6.582593e+002, 4.430072e+001
6.587415e+002, 4.396153e+001
6.592236e+002, 4.381111e+001
6.597057e+002, 4.413518e+001
6.601878e+002, 4.491796e+001
6.606699e+002, 4.545552e+001
6.611520e+002, 4.556857e+001
6.616342e+002, 4.550414e+001
6.621163e+002, 4.561908e+001
6.625984e+002, 4.583671e+001
6.630805e+002, 4.595254e+001
6.635626e+002, 4.580511e+001
6.640447e+002, 4.560808e+001
6.645269e+002, 4.543893e+001
6.650090e+002, 4.533367e+001
6.654911e+002, 4.539235e+001
6.659732e+002, 4.589012e+001
6.664553e+002, 4.631712e+001
6.669374e+002, 4.639492e+001
6.674196e+002, 4.616075e+001
6.679017e+002, 4.619202e+001
6.683838e+002, 4.660464e+001
6.688659e+002, 4.706889e+001
6.693480e+002, 4.744897e+001
6.698301e+002, 4.774492e+001
6.703123e+002, 4.790781e+001
6.707944e+002, 4.792432e+001
6.712765e+002, 4.791304e+001
6.717586e+002, 4.797312e+001
6.722407e+002, 4.808484e+001
6.727228e+002, 4.819214e+001
6.732050e+002, 4.827940e+001
6.736871e+002, 4.841729e+001
6.741692e+002, 4.873024e+001
6.746513e+002, 4.909475e+001
6.751334e+002, 4.935531e+001
6.756155e+002, 4.933379e+001
6.760977e+002, 4.941967e+001
6.765798e+002, 4.984695e+001
6.770619e+002, 5.038081e+001
6.775440e+002, 5.064334e+001
6.780261e+002, 5.041228e+001
6.785082e+002, 5.039187e+001
6.789904e+002, 5.077753e+001
6.794725e+002, 5.139405e+001
6.799546e+002, 5.179997e+001
6.804367e+002, 5.198815e+001
6.809188e+002, 5.210447e+001
6.814009e+002, 5.206328e+001
6.818831e+002, 5.208491e+001
6.823652e+002, 5.278816e+001
6.828473e+002, 5.401734e+001
6.833294e+002, 5.496115e+001
6.838115e+002, 5.494740e+001
6.842936e+002, 5.463179e+001
6.847758e+002, 5.445200e+001
6.852579e+002, 5.444033e+001
6.857400e+002, 5.448364e+001
6.862221e+002, 5.468163e+001
6.867042e+002, 5.481477e+001
6.871863e+002, 5.471751e+001
6.876685e+002, 5.425823e+001
6.881506e+002, 5.415959e+001
6.886327e+002, 5.449115e+001
6.891148e+002, 5.503687e+001
6.895969e+002, 5.575483e+001
6.900790e+002, 5.661143e+001
6.905612e+002, 5.692383e+001
6.910433e+002, 5.654465e+001
6.915254e+002, 5.601397e+001
6.920075e+002, 5.595389e+001
6.924896e+002, 5.619312e+001
6.929717e+002, 5.643361e+001
6.934539e+002, 5.663320e+001
6.939360e+002, 5.673441e+001
6.944181e+002, 5.658783e+001
6.949002e+002, 5.634905e+001
6.953823e+002, 5.625945e+001
6.958644e+002, 5.663871e+001
6.963466e+002, 5.683480e+001
6.968287e+002, 5.661298e+001
6.973108e+002, 5.618854e+001
6.977929e+002, 5.618854e+001
6.982750e+002, 5.677027e+001
6.987571e+002, 5.718075e+001
6.992393e+002, 5.710971e+001
6.997214e+002, 5.673822e+001
7.002035e+002, 5.659850e+001
7.006856e+002, 5.667448e+001
7.011677e+002, 5.683659e+001
7.016498e+002, 5.708702e+001
7.021320e+002, 5.733442e+001
7.026141e+002, 5.742271e+001
7.030962e+002, 5.737571e+001
7.035783e+002, 5.742089e+001
7.040604e+002, 5.773594e+001
7.045425e+002, 5.811367e+001
7.050247e+002, 5.844737e+001
7.055068e+002, 5.872966e+001
7.059889e+002, 5.894639e+001
7.064710e+002, 5.903808e+001
7.069531e+002, 5.914079e+001
7.074352e+002, 5.937828e+001
7.079174e+002, 5.977635e+001
7.083995e+002, 5.997265e+001
7.088816e+002, 5.992650e+001
7.093637e+002, 5.984809e+001
7.098458e+002, 5.991522e+001
7.103279e+002, 6.012396e+001
7.108101e+002, 6.051465e+001
7.112922e+002, 6.114610e+001
7.117743e+002, 6.171978e+001
7.122564e+002, 6.199245e+001
7.127385e+002, 6.209007e+001
7.132206e+002, 6.215903e+001
7.137028e+002, 6.216167e+001
7.141849e+002, 6.224461e+001
7.146670e+002, 6.246769e+001
7.151491e+002, 6.277282e+001
7.156312e+002, 6.309643e+001
7.161133e+002, 6.345204e+001
7.165955e+002, 6.376685e+001
7.170776e+002, 6.398486e+001
7.175597e+002, 6.420269e+001
7.180418e+002, 6.464991e+001
7.185239e+002, 6.530921e+001
7.190060e+002, 6.597702e+001
7.194882e+002, 6.655964e+001
7.199703e+002, 6.712263e+001
7.204524e+002, 6.774802e+001
7.209345e+002, 6.842239e+001
7.214166e+002, 6.912782e+001
7.218987e+002, 6.981140e+001
7.223809e+002, 7.056048e+001
7.228630e+002, 7.150523e+001
7.233451e+002, 7.259459e+001
7.238272e+002, 7.338573e+001
7.243093e+002, 7.353735e+001
7.247914e+002, 7.387261e+001
7.252736e+002, 7.476134e+001
7.257557e+002, 7.614558e+001
7.262378e+002, 7.723653e+001
7.267199e+002, 7.800469e+001
7.272020e+002, 7.885440e+001
7.276841e+002, 8.017419e+001
7.281663e+002, 8.175766e+001
7.286484e+002, 8.308295e+001
7.291305e+002, 8.414391e+001
7.296126e+002, 8.524032e+001
7.300947e+002, 8.655614e+001
7.305768e+002, 8.800465e+001
7.310590e+002, 8.954830e+001
7.315411e+002, 9.121267e+001
7.320232e+002, 9.280176e+001
7.325053e+002, 9.403419e+001
7.329874e+002, 9.537666e+001
7.334695e+002, 9.714810e+001
7.339517e+002, 9.945304e+001
7.344338e+002, 1.018258e+002
7.349159e+002, 1.042896e+002
7.353980e+002, 1.067859e+002
7.358801e+002, 1.091906e+002
7.363622e+002, 1.115616e+002
7.368444e+002, 1.141634e+002
7.373265e+002, 1.170612e+002
7.378086e+002, 1.200846e+002
7.382907e+002, 1.231501e+002
7.387728e+002, 1.261872e+002
7.392549e+002, 1.290509e+002
7.397371e+002, 1.313924e+002
7.402192e+002, 1.341006e+002
7.407013e+002, 1.376828e+002
7.411834e+002, 1.416633e+002
7.416655e+002, 1.454585e+002
7.421476e+002, 1.489558e+002
7.426298e+002, 1.524627e+002
7.431119e+002, 1.560541e+002
7.435940e+002, 1.596126e+002
7.440761e+002, 1.629871e+002
7.445582e+002, 1.661392e+002
7.450403e+002, 1.689505e+002
7.455225e+002, 1.712541e+002
7.460046e+002, 1.734305e+002
7.464867e+002, 1.761682e+002
7.469688e+002, 1.791332e+002
7.474509e+002, 1.815832e+002
7.479330e+002, 1.831529e+002
7.484152e+002, 1.842083e+002
7.488973e+002, 1.848870e+002
7.493794e+002, 1.851660e+002
7.498615e+002, 1.849859e+002
7.503436e+002, 1.842989e+002
7.508257e+002, 1.832950e+002
7.513079e+002, 1.821238e+002
7.517900e+002, 1.806385e+002
7.522721e+002, 1.781072e+002
7.527542e+002, 1.745240e+002
7.532363e+002, 1.711508e+002
7.537184e+002, 1.690381e+002
7.542006e+002, 1.672507e+002
7.546827e+002, 1.641629e+002
7.551648e+002, 1.600170e+002
7.556469e+002, 1.559500e+002
7.561290e+002, 1.524221e+002
7.566111e+002, 1.491972e+002
7.570933e+002, 1.461731e+002
7.575754e+002, 1.433799e+002
7.580575e+002, 1.405236e+002
7.585396e+002, 1.373962e+002
7.590217e+002, 1.345368e+002
7.595038e+002, 1.322238e+002
7.599860e+002, 1.304084e+002
7.604681e+002, 1.282448e+002
7.609502e+002, 1.257090e+002
7.614323e+002, 1.232142e+002
7.619144e+002, 1.209247e+002
7.623965e+002, 1.189016e+002
7.628787e+002, 1.173745e+002
7.633608e+002, 1.163127e+002
7.638429e+002, 1.152425e+002
7.643250e+002, 1.138904e+002
7.648071e+002, 1.124348e+002
7.652892e+002, 1.109551e+002
7.657714e+002, 1.094081e+002
7.662535e+002, 1.081341e+002
7.667356e+002, 1.072589e+002
7.672177e+002, 1.065078e+002
7.676998e+002, 1.057350e+002
7.681819e+002, 1.049285e+002
7.686641e+002, 1.041864e+002
7.691462e+002, 1.035076e+002
7.696283e+002, 1.029523e+002
7.701104e+002, 1.027154e+002
7.705925e+002, 1.025999e+002
7.710746e+002, 1.021468e+002
7.715568e+002, 1.012977e+002
7.720389e+002, 1.005638e+002
7.725210e+002, 1.003145e+002
7.730031e+002, 1.002740e+002
7.734852e+002, 1.002227e+002
7.739673e+002, 1.000996e+002
7.744495e+002, 1.000846e+002
7.749316e+002, 1.002858e+002
7.754137e+002, 1.004684e+002
7.758958e+002, 1.003983e+002
7.763779e+002, 1.000376e+002
7.768600e+002, 9.990923e+001
7.773422e+002, 1.000298e+002
7.778243e+002, 1.003858e+002
7.783064e+002, 1.011873e+002
7.787885e+002, 1.021593e+002
7.792706e+002, 1.027432e+002
7.797527e+002, 1.027980e+002
7.802349e+002, 1.027760e+002
7.807170e+002, 1.028368e+002
7.811991e+002, 1.030046e+002
7.816812e+002, 1.033059e+002
7.821633e+002, 1.037853e+002
7.826454e+002, 1.043354e+002
7.831276e+002, 1.050168e+002
7.836097e+002, 1.056988e+002
7.840918e+002, 1.061812e+002
7.845739e+002, 1.064538e+002
7.850560e+002, 1.070251e+002
7.855381e+002, 1.079786e+002
7.860203e+002, 1.090150e+002
7.865024e+002, 1.098227e+002
7.869845e+002, 1.104729e+002
7.874666e+002, 1.110509e+002
7.879487e+002, 1.114829e+002
7.884308e+002, 1.121609e+002
7.889130e+002, 1.134553e+002
7.893951e+002, 1.150072e+002
7.898772e+002, 1.164507e+002
7.903593e+002, 1.173386e+002
7.908414e+002, 1.189157e+002
7.913235e+002, 1.215068e+002
7.918057e+002, 1.243361e+002
7.922878e+002, 1.264048e+002
7.927699e+002, 1.277740e+002
7.932520e+002, 1.288796e+002
7.937341e+002, 1.296934e+002
7.942162e+002, 1.307330e+002
7.946984e+002, 1.328532e+002
7.951805e+002, 1.355092e+002
7.956626e+002, 1.377407e+002
7.961447e+002, 1.389670e+002
7.966268e+002, 1.406438e+002
7.971089e+002, 1.435820e+002
7.975911e+002, 1.471198e+002
7.980732e+002, 1.504823e+002
7.985553e+002, 1.534525e+002
7.990374e+002, 1.568117e+002
7.995195e+002, 1.606566e+002
8.000016e+002, 1.647964e+002
8.004838e+002, 1.690755e+002
8.009659e+002, 1.735091e+002
8.014480e+002, 1.782581e+002
8.019301e+002, 1.833262e+002
8.024122e+002, 1.887664e+002
8.028943e+002, 1.945174e+002
8.033765e+002, 2.006382e+002
8.038586e+002, 2.072788e+002
8.043407e+002, 2.144268e+002
8.048228e+002, 2.221485e+002
8.053049e+002, 2.306012e+002
8.057870e+002, 2.396433e+002
8.062692e+002, 2.491710e+002
8.067513e+002, 2.591569e+002
8.072334e+002, 2.697489e+002
8.077155e+002, 2.808340e+002
8.081976e+002, 2.925734e+002
8.086797e+002, 3.051685e+002
8.091619e+002, 3.185414e+002
8.096440e+002, 3.323818e+002
8.101261e+002, 3.464889e+002
8.106082e+002, 3.616329e+002
8.110903e+002, 3.786348e+002
8.115724e+002, 3.966945e+002
8.120546e+002, 4.148501e+002
8.125367e+002, 4.323181e+002
8.130188e+002, 4.509360e+002
8.135009e+002, 4.711153e+002
8.139830e+002, 4.921767e+002
8.144651e+002, 5.131452e+002
8.149473e+002, 5.341731e+002
8.154294e+002, 5.556448e+002
8.159115e+002, 5.778343e+002
8.163936e+002, 5.999800e+002
8.168757e+002, 6.214190e+002
8.173578e+002, 6.420846e+002
8.178400e+002, 6.623785e+002
8.183221e+002, 6.827026e+002
8.188042e+002, 7.017186e+002
8.192863e+002, 7.194644e+002
8.197684e+002, 7.351952e+002
8.202505e+002, 7.480908e+002
8.207327e+002, 7.582250e+002
8.212148e+002, 7.654266e+002
8.216969e+002, 7.697990e+002
8.221790e+002, 7.709811e+002
8.226611e+002, 7.686072e+002
8.231432e+002, 7.626783e+002
8.236254e+002, 7.530091e+002
8.241075e+002, 7.393663e+002
8.245896e+002, 7.235711e+002
8.250717e+002, 7.073583e+002
8.255538e+002, 6.900085e+002
8.260359e+002, 6.707399e+002
8.265181e+002, 6.489991e+002
8.270002e+002, 6.269575e+002
8.274823e+002, 6.044745e+002
8.279644e+002, 5.822360e+002
8.284465e+002, 5.603005e+002
8.289286e+002, 5.386755e+002
8.294108e+002, 5.183112e+002
8.298929e+002, 4.994053e+002
8.303750e+002, 4.813903e+002
8.308571e+002, 4.636831e+002
8.313392e+002, 4.465532e+002
8.318214e+002, 4.301567e+002
8.323035e+002, 4.146347e+002
8.327856e+002, 4.003680e+002
8.332677e+002, 3.881541e+002
8.337498e+002, 3.770709e+002
8.342319e+002, 3.663871e+002
8.347141e+002, 3.559034e+002
8.351962e+002, 3.465005e+002
8.356783e+002, 3.382220e+002
8.361604e+002, 3.309637e+002
8.366425e+002, 3.248806e+002
8.371246e+002, 3.199218e+002
8.376068e+002, 3.152383e+002
8.380889e+002, 3.108224e+002
8.385710e+002, 3.072309e+002
8.390531e+002, 3.049931e+002
8.395352e+002, 3.037467e+002
8.400173e+002, 3.029895e+002
8.404995e+002, 3.026968e+002
8.409816e+002, 3.035891e+002
8.414637e+002, 3.062877e+002
8.419458e+002, 3.099030e+002
8.424279e+002, 3.138597e+002
8.429100e+002, 3.181789e+002
8.433922e+002, 3.241095e+002
8.438743e+002, 3.316970e+002
8.443564e+002, 3.406304e+002
8.448385e+002, 3.510964e+002
8.453206e+002, 3.627106e+002
8.458027e+002, 3.741768e+002
8.462849e+002, 3.857157e+002
8.467670e+002, 3.983523e+002
8.472491e+002, 4.123781e+002
8.477312e+002, 4.279241e+002
8.482133e+002, 4.449328e+002
8.486954e+002, 4.636027e+002
8.491776e+002, 4.842688e+002
8.496597e+002, 5.070921e+002
8.501418e+002, 5.318073e+002
8.506239e+002, 5.580626e+002
8.511060e+002, 5.860508e+002
8.515881e+002, 6.163402e+002
8.520703e+002, 6.488152e+002
8.525524e+002, 6.825979e+002
8.530345e+002, 7.180665e+002
8.535166e+002, 7.534200e+002
8.539987e+002, 7.884276e+002
8.544808e+002, 8.222511e+002
8.549630e+002, 8.528848e+002
8.554451e+002, 8.816729e+002
8.559272e+002, 9.041448e+002
8.564093e+002, 9.208251e+002
8.568914e+002, 9.302279e+002
8.573735e+002, 9.293069e+002
8.578557e+002, 9.177619e+002
8.583378e+002, 8.985403e+002
8.588199e+002, 8.719852e+002
8.593020e+002, 8.387109e+002
8.597841e+002, 7.973897e+002
8.602662e+002, 7.505094e+002
8.607484e+002, 7.039405e+002
8.612305e+002, 6.594407e+002
8.617126e+002, 6.160045e+002
8.621947e+002, 5.728046e+002
8.626768e+002, 5.310900e+002
8.631589e+002, 4.929200e+002
8.636411e+002, 4.579799e+002
8.641232e+002, 4.267331e+002
8.646053e+002, 3.995170e+002
8.650874e+002, 3.753369e+002
8.655695e+002, 3.527107e+002
8.660516e+002, 3.318403e+002
8.665338e+002, 3.132053e+002
8.670159e+002, 2.968224e+002
8.674980e+002, 2.821845e+002
8.679801e+002, 2.689229e+002
8.684622e+002, 2.570324e+002
8.689443e+002, 2.463714e+002
8.694265e+002, 2.370953e+002
8.699086e+002, 2.285426e+002
8.703907e+002, 2.208174e+002
8.708728e+002, 2.136655e+002
8.713549e+002, 2.070023e+002
8.718370e+002, 2.007959e+002
8.723192e+002, 1.950056e+002
8.728013e+002, 1.895542e+002
8.732834e+002, 1.845329e+002
8.737655e+002, 1.800089e+002
8.742476e+002, 1.759329e+002
8.747297e+002, 1.723120e+002
8.752119e+002, 1.691171e+002
8.756940e+002, 1.661708e+002
8.761761e+002, 1.637503e+002
8.766582e+002, 1.612566e+002
8.771403e+002, 1.583617e+002
8.776224e+002, 1.551243e+002
8.781046e+002, 1.523282e+002
8.785867e+002, 1.499849e+002
8.790688e+002, 1.480156e+002
8.795509e+002, 1.465441e+002
8.800330e+002, 1.453708e+002
8.805151e+002, 1.444109e+002
8.809973e+002, 1.435518e+002
8.814794e+002, 1.423641e+002
8.819615e+002, 1.400905e+002
8.824436e+002, 1.380848e+002
8.829257e+002, 1.369927e+002
8.834078e+002, 1.365379e+002
8.838900e+002, 1.358705e+002
8.843721e+002, 1.349024e+002
8.848542e+002, 1.342056e+002
8.853363e+002, 1.340191e+002
8.858184e+002, 1.340639e+002
8.863005e+002, 1.339316e+002
8.867827e+002, 1.336316e+002
8.872648e+002, 1.331800e+002
8.877469e+002, 1.324261e+002
8.882290e+002, 1.317599e+002
8.887111e+002, 1.313593e+002
8.891932e+002, 1.311506e+002
8.896754e+002, 1.310734e+002
8.901575e+002, 1.313879e+002
8.906396e+002, 1.310710e+002
8.911217e+002, 1.298856e+002
8.916038e+002, 1.284365e+002
8.920859e+002, 1.275951e+002
8.925681e+002, 1.271018e+002
8.930502e+002, 1.261071e+002
8.935323e+002, 1.244370e+002
8.940144e+002, 1.226153e+002
8.944965e+002, 1.208033e+002
8.949786e+002, 1.191558e+002
8.954608e+002, 1.178410e+002
8.959429e+002, 1.170247e+002
8.964250e+002, 1.160197e+002
8.969071e+002, 1.148068e+002
8.973892e+002, 1.134570e+002
8.978713e+002, 1.119461e+002
8.983535e+002, 1.103215e+002
8.988356e+002, 1.089029e+002
8.993177e+002, 1.076959e+002
8.997998e+002, 1.067499e+002
9.002819e+002, 1.062688e+002
9.007640e+002, 1.059105e+002
9.012462e+002, 1.054585e+002
9.017283e+002, 1.048996e+002
9.022104e+002, 1.041751e+002
9.026925e+002, 1.030324e+002
9.031746e+002, 1.021952e+002
9.036567e+002, 1.020255e+002
9.041389e+002, 1.022255e+002
9.046210e+002, 1.017765e+002
9.051031e+002, 1.007407e+002
9.055852e+002, 9.965679e+001
9.060673e+002, 9.867825e+001
9.065494e+002, 9.783420e+001
9.070316e+002, 9.734049e+001
9.075137e+002, 9.696061e+001
9.079958e+002, 9.626833e+001
9.084779e+002, 9.514491e+001
9.089600e+002, 9.364883e+001
9.094421e+002, 9.146449e+001
9.099243e+002, 8.927366e+001
9.104064e+002, 8.817125e+001
9.108885e+002, 8.807776e+001
9.113706e+002, 8.739021e+001
9.118527e+002, 8.580583e+001
9.123348e+002, 8.403912e+001
9.128170e+002, 8.259421e+001
9.132991e+002, 8.144856e+001
9.137812e+002, 8.063442e+001
9.142633e+002, 8.025218e+001
9.147454e+002, 7.979226e+001
9.152275e+002, 7.913923e+001
9.157097e+002, 7.843443e+001
9.161918e+002, 7.772535e+001
9.166739e+002, 7.701434e+001
9.171560e+002, 7.648872e+001
9.176381e+002, 7.615409e+001
9.181202e+002, 7.580911e+001
9.186024e+002, 7.520679e+001
9.190845e+002, 7.459720e+001
9.195666e+002, 7.431539e+001
9.200487e+002, 7.430565e+001
9.205308e+002, 7.419315e+001
9.210129e+002, 7.371694e+001
9.214951e+002, 7.331623e+001
9.219772e+002, 7.316900e+001
9.224593e+002, 7.314211e+001
9.229414e+002, 7.277438e+001
9.234235e+002, 7.207628e+001
9.239056e+002, 7.148466e+001
9.243878e+002, 7.117235e+001
9.248699e+002, 7.096381e+001
9.253520e+002, 7.065865e+001
9.258341e+002, 7.031631e+001
9.263162e+002, 7.002619e+001
9.267983e+002, 6.982145e+001
9.272805e+002, 6.966483e+001
9.277626e+002, 6.957778e+001
9.282447e+002, 6.950626e+001
9.287268e+002, 6.941194e+001
9.292089e+002, 6.929707e+001
9.296910e+002, 6.906625e+001
9.301732e+002, 6.870166e+001
9.306553e+002, 6.838347e+001
9.311374e+002, 6.828223e+001
9.316195e+002, 6.831570e+001
9.321016e+002, 6.842398e+001
9.325837e+002, 6.860300e+001
9.330659e+002, 6.872518e+001
9.335480e+002, 6.883002e+001
9.340301e+002, 6.877914e+001
9.345122e+002, 6.846812e+001
9.349943e+002, 6.794115e+001
9.354764e+002, 6.753913e+001
9.359586e+002, 6.725233e+001
9.364407e+002, 6.694960e+001
9.369228e+002, 6.658672e+001
9.374049e+002, 6.614309e+001
9.378870e+002, 6.550481e+001
9.383691e+002, 6.477275e+001
9.388513e+002, 6.419640e+001
9.393334e+002, 6.408494e+001
9.398155e+002, 6.379878e+001
9.402976e+002, 6.323151e+001
9.407797e+002, 6.248807e+001
9.412618e+002, 6.167998e+001
9.417440e+002, 6.082338e+001
9.422261e+002, 6.013688e+001
9.427082e+002, 5.966277e+001
9.431903e+002, 5.929916e+001
9.436724e+002, 5.902505e+001
9.441545e+002, 5.876830e+001
9.446367e+002, 5.844338e+001
9.451188e+002, 5.801526e+001
9.456009e+002, 5.760672e+001
9.460830e+002, 5.721695e+001
9.465651e+002, 5.686305e+001
9.470472e+002, 5.662797e+001
9.475294e+002, 5.645906e+001
9.480115e+002, 5.583136e+001
9.484936e+002, 5.479209e+001
9.489757e+002, 5.391851e+001
9.494578e+002, 5.373235e+001
9.499399e+002, 5.371571e+001
9.504221e+002, 5.344722e+001
9.509042e+002, 5.300151e+001
9.513863e+002, 5.271741e+001
9.518684e+002, 5.273236e+001
9.523505e+002, 5.270739e+001
9.528326e+002, 5.257211e+001
9.533148e+002, 5.238486e+001
9.537969e+002, 5.226112e+001
9.542790e+002, 5.218402e+001
9.547611e+002, 5.208659e+001
9.552432e+002, 5.196688e+001
9.557253e+002, 5.177456e+001
9.562075e+002, 5.138707e+001
9.566896e+002, 5.095876e+001
9.571717e+002, 5.064740e+001
9.576538e+002, 5.050581e+001
9.581359e+002, 5.033925e+001
9.586180e+002, 5.012146e+001
9.591002e+002, 4.993940e+001
9.595823e+002, 4.989805e+001
9.600644e+002, 4.993649e+001
9.605465e+002, 4.985653e+001
9.610286e+002, 4.966792e+001
9.615107e+002, 4.948083e+001
9.619929e+002, 4.940172e+001
9.624750e+002, 4.929519e+001
9.629571e+002, 4.902016e+001
9.634392e+002, 4.865467e+001
9.639213e+002, 4.850527e+001
9.644034e+002, 4.865846e+001
9.648856e+002, 4.866319e+001
9.653677e+002, 4.834652e+001
9.658498e+002, 4.796489e+001
9.663319e+002, 4.795135e+001
9.668140e+002, 4.817699e+001
9.672961e+002, 4.839730e+001
9.677783e+002, 4.860557e+001
9.682604e+002, 4.864650e+001
9.687425e+002, 4.829485e+001
9.692246e+002, 4.787841e+001
9.697067e+002, 4.766608e+001
9.701888e+002, 4.770236e+001
9.706710e+002, 4.766728e+001
9.711531e+002, 4.756741e+001
9.716352e+002, 4.733327e+001
9.721173e+002, 4.667522e+001
9.725994e+002, 4.599843e+001
9.730815e+002, 4.593625e+001
9.735637e+002, 4.639909e+001
9.740458e+002, 4.675909e+001
9.745279e+002, 4.684356e+001
9.750100e+002, 4.673003e+001
9.754921e+002, 4.632997e+001
9.759742e+002, 4.581776e+001
9.764564e+002, 4.570136e+001
9.769385e+002, 4.595089e+001
9.774206e+002, 4.597956e+001
9.779027e+002, 4.556475e+001
9.783848e+002, 4.511045e+001
9.788669e+002, 4.504210e+001
9.793491e+002, 4.513767e+001
9.798312e+002, 4.511856e+001
9.803133e+002, 4.484612e+001
9.807954e+002, 4.470210e+001
9.812775e+002, 4.476466e+001
9.817596e+002, 4.483820e+001
9.822418e+002, 4.473233e+001
9.827239e+002, 4.450636e+001
9.832060e+002, 4.455012e+001
9.836881e+002, 4.482561e+001
9.841702e+002, 4.498961e+001
9.846523e+002, 4.470661e+001
9.851345e+002, 4.436755e+001
9.856166e+002, 4.421323e+001
9.860987e+002, 4.419799e+001
9.865808e+002, 4.411791e+001
9.870629e+002, 4.394660e+001
9.875450e+002, 4.379287e+001
9.880272e+002, 4.368089e+001
9.885093e+002, 4.358800e+001
9.889914e+002, 4.347115e+001
9.894735e+002, 4.335118e+001
9.899556e+002, 4.327680e+001
9.904377e+002, 4.326903e+001
9.909199e+002, 4.326373e+001
9.914020e+002, 4.322079e+001
9.918841e+002, 4.318452e+001
9.923662e+002, 4.318818e+001
9.928483e+002, 4.323339e+001
9.933304e+002, 4.325343e+001
9.938126e+002, 4.324514e+001
9.942947e+002, 4.326610e+001
9.947768e+002, 4.339919e+001
9.952589e+002, 4.354692e+001
9.957410e+002, 4.358800e+001
9.962231e+002, 4.354643e+001
9.967053e+002, 4.349543e+001
9.971874e+002, 4.343815e+001
9.976695e+002, 4.339612e+001
9.981516e+002, 4.336944e+001
9.986337e+002, 4.336143e+001
9.991158e+002, 4.338672e+001
9.995980e+002, 4.343925e+001
1.000080e+003, 4.348194e+001
1.000562e+003, 4.351281e+001
1.001044e+003, 4.350686e+001
1.001526e+003, 4.341726e+001
1.002009e+003, 4.330343e+001
1.002491e+003, 4.321582e+001
1.002973e+003, 4.316117e+001
1.003455e+003, 4.308520e+001
1.003937e+003, 4.294387e+001
1.004419e+003, 4.292798e+001
1.004901e+003, 4.317639e+001
1.005383e+003, 4.356189e+001
1.005865e+003, 4.388727e+001
1.006348e+003, 4.412084e+001
1.006830e+003, 4.418066e+001
1.007312e+003, 4.382019e+001
1.007794e+003, 4.353781e+001
1.008276e+003, 4.352728e+001
1.008758e+003, 4.364382e+001
1.009240e+003, 4.376466e+001
1.009722e+003, 4.389771e+001
1.010205e+003, 4.391624e+001
1.010687e+003, 4.379968e+001
1.011169e+003, 4.368951e+001
1.011651e+003, 4.368606e+001
1.012133e+003, 4.377171e+001
1.012615e+003, 4.401973e+001
1.013097e+003, 4.440836e+001
1.013579e+003, 4.451812e+001
1.014061e+003, 4.407112e+001
1.014544e+003, 4.369841e+001
1.015026e+003, 4.358676e+001
1.015508e+003, 4.365948e+001
1.015990e+003, 4.379337e+001
1.016472e+003, 4.395379e+001
1.016954e+003, 4.398928e+001
1.017436e+003, 4.381839e+001
1.017918e+003, 4.360283e+001
1.018401e+003, 4.342091e+001
1.018883e+003, 4.325844e+001
1.019365e+003, 4.308527e+001
1.019847e+003, 4.287185e+001
1.020329e+003, 4.280750e+001
1.020811e+003, 4.291773e+001
1.021293e+003, 4.303912e+001
1.021775e+003, 4.301291e+001
1.022257e+003, 4.294701e+001
1.022740e+003, 4.310062e+001
1.023222e+003, 4.338383e+001
1.023704e+003, 4.344881e+001
1.024186e+003, 4.277628e+001
1.024668e+003, 4.240117e+001
1.025150e+003, 4.265915e+001
1.025632e+003, 4.319385e+001
1.026114e+003, 4.343951e+001
1.026596e+003, 4.341152e+001
1.027079e+003, 4.323853e+001
1.027561e+003, 4.291443e+001
1.028043e+003, 4.266639e+001
1.028525e+003, 4.275155e+001
1.029007e+003, 4.294114e+001
1.029489e+003, 4.304575e+001
1.029971e+003, 4.304436e+001
1.030453e+003, 4.303265e+001
1.030936e+003, 4.301640e+001
1.031418e+003, 4.296613e+001
1.031900e+003, 4.284073e+001
1.032382e+003, 4.270498e+001
1.032864e+003, 4.266643e+001
1.033346e+003, 4.272261e+001
1.033828e+003, 4.287805e+001
1.034310e+003, 4.332455e+001
1.034792e+003, 4.356983e+001
1.035275e+003, 4.329728e+001
1.035757e+003, 4.295224e+001
1.036239e+003, 4.294623e+001
1.036721e+003, 4.327923e+001
1.037203e+003, 4.353882e+001
1.037685e+003, 4.370899e+001
1.038167e+003, 4.385724e+001
1.038649e+003, 4.407456e+001
1.039132e+003, 4.425355e+001
1.039614e+003, 4.422849e+001
1.040096e+003, 4.406886e+001
1.040578e+003, 4.415189e+001
1.041060e+003, 4.463839e+001
1.041542e+003, 4.496480e+001
1.042024e+003, 4.497808e+001
1.042506e+003, 4.490020e+001
1.042989e+003, 4.508526e+001
1.043471e+003, 4.542813e+001
1.043953e+003, 4.572544e+001
1.044435e+003, 4.594901e+001
1.044917e+003, 4.607506e+001
1.045399e+003, 4.597300e+001
1.045881e+003, 4.589924e+001
1.046363e+003, 4.602256e+001
1.046845e+003, 4.629899e+001
1.047328e+003, 4.636806e+001
1.047810e+003, 4.623764e+001
1.048292e+003, 4.602174e+001
1.048774e+003, 4.566100e+001
1.049256e+003, 4.539063e+001
1.049738e+003, 4.554159e+001
1.050220e+003, 4.585878e+001
1.050702e+003, 4.591720e+001
1.051184e+003, 4.556483e+001
1.051667e+003, 4.523283e+001
1.052149e+003, 4.490826e+001
1.052631e+003, 4.467264e+001
1.053113e+003, 4.471631e+001
1.053595e+003, 4.484584e+001
1.054077e+003, 4.460412e+001
1.054559e+003, 4.403944e+001
1.055041e+003, 4.359587e+001
1.055523e+003, 4.359101e+001
1.056006e+003, 4.356846e+001
1.056488e+003, 4.340679e+001
1.056970e+003, 4.314905e+001
1.057452e+003, 4.285991e+001
1.057934e+003, 4.254609e+001
1.058416e+003, 4.227319e+001
1.058898e+003, 4.205983e+001
1.059380e+003, 4.184868e+001
1.059863e+003, 4.155199e+001
1.060345e+003, 4.127445e+001
1.060827e+003, 4.112934e+001
1.061309e+003, 4.112480e+001
1.061791e+003, 4.106519e+001
1.062273e+003, 4.094020e+001
1.062755e+003, 4.080186e+001
1.063237e+003, 4.065104e+001
1.063719e+003, 4.052959e+001
1.064202e+003, 4.056984e+001
1.064684e+003, 4.067222e+001
1.065166e+003, 4.063671e+001
1.065648e+003, 4.021930e+001
1.066130e+003, 4.000835e+001
1.066612e+003, 4.020308e+001
1.067094e+003, 4.040084e+001
1.067576e+003, 4.020623e+001
1.068059e+003, 3.970883e+001
1.068541e+003, 3.945350e+001
1.069023e+003, 3.942145e+001
1.069505e+003, 3.940041e+001
1.069987e+003, 3.921284e+001
1.070469e+003, 3.905927e+001
1.070951e+003, 3.909550e+001
1.071433e+003, 3.922260e+001
1.071916e+003, 3.927211e+001
1.072398e+003, 3.924638e+001
1.072880e+003, 3.908925e+001
1.073362e+003, 3.877286e+001
1.073844e+003, 3.846754e+001
1.074326e+003, 3.834241e+001
1.074808e+003, 3.832561e+001
1.075290e+003, 3.839603e+001
1.075772e+003, 3.854754e+001
1.076255e+003, 3.850226e+001
1.076737e+003, 3.810534e+001
1.077219e+003, 3.786086e+001
1.077701e+003, 3.798903e+001
1.078183e+003, 3.827924e+001
1.078665e+003, 3.829925e+001
1.079147e+003, 3.815660e+001
1.079629e+003, 3.811915e+001
1.080111e+003, 3.832322e+001
1.080594e+003, 3.843747e+001
1.081076e+003, 3.827629e+001
1.081558e+003, 3.805225e+001
1.082040e+003, 3.786027e+001
1.082522e+003, 3.770540e+001
1.083004e+003, 3.769959e+001
1.083486e+003, 3.782231e+001
1.083968e+003, 3.787974e+001
1.084450e+003, 3.771266e+001
1.084933e+003, 3.750481e+001
1.085415e+003, 3.733396e+001
1.085897e+003, 3.721558e+001
1.086379e+003, 3.716103e+001
1.086861e+003, 3.716739e+001
1.087343e+003, 3.727424e+001
1.087825e+003, 3.750325e+001
1.088307e+003, 3.770242e+001
1.088790e+003, 3.771830e+001
1.089272e+003, 3.764313e+001
1.089754e+003, 3.763104e+001
1.090236e+003, 3.764883e+001
1.090718e+003, 3.746566e+001
1.091200e+003, 3.678126e+001
1.091682e+003, 3.638449e+001
1.092164e+003, 3.647530e+001
1.092646e+003, 3.678568e+001
1.093129e+003, 3.695459e+001
1.093611e+003, 3.700872e+001
1.094093e+003, 3.699594e+001
1.094575e+003, 3.691735e+001
1.095057e+003, 3.687083e+001
1.095539e+003, 3.702856e+001
1.096021e+003, 3.707463e+001
1.096503e+003, 3.680499e+001
1.096986e+003, 3.634508e+001
1.097468e+003, 3.617076e+001
1.097950e+003, 3.625993e+001
1.098432e+003, 3.645817e+001
1.098914e+003, 3.680810e+001
1.099396e+003, 3.700632e+001
1.099878e+003, 3.662174e+001
1.100360e+003, 3.611886e+001
1.100843e+003, 3.600150e+001
1.101325e+003, 3.633511e+001
1.101807e+003, 3.640829e+001
1.102289e+003, 3.619111e+001
1.102771e+003, 3.604200e+001
1.103253e+003, 3.626714e+001
1.103735e+003, 3.656561e+001
1.104217e+003, 3.652150e+001
1.104699e+003, 3.630198e+001
1.105182e+003, 3.622945e+001
1.105664e+003, 3.652912e+001
1.106146e+003, 3.666399e+001
1.106628e+003, 3.658423e+001
1.107110e+003, 3.643921e+001
1.107592e+003, 3.631580e+001
1.108074e+003, 3.624157e+001
1.108556e+003, 3.631950e+001
1.109038e+003, 3.651460e+001
1.109521e+003, 3.663240e+001
1.110003e+003, 3.662103e+001
1.110485e+003, 3.647419e+001
1.110967e+003, 3.612046e+001
1.111449e+003, 3.572509e+001
1.111931e+003, 3.552164e+001
1.112413e+003, 3.549361e+001
1.112895e+003, 3.557931e+001
1.113377e+003, 3.577272e+001
1.113860e+003, 3.603003e+001
1.114342e+003, 3.657502e+001
1.114824e+003, 3.691199e+001
1.115306e+003, 3.662709e+001
1.115788e+003, 3.595555e+001
1.116270e+003, 3.568369e+001
1.116752e+003, 3.580191e+001
1.117234e+003, 3.589338e+001
1.117717e+003, 3.585547e+001
1.118199e+003, 3.575336e+001
1.118681e+003, 3.555915e+001
1.119163e+003, 3.538759e+001
1.119645e+003, 3.538908e+001
1.120127e+003, 3.557771e+001
1.120609e+003, 3.561261e+001
1.121091e+003, 3.546937e+001
1.121573e+003, 3.531963e+001
1.122056e+003, 3.521994e+001
1.122538e+003, 3.517524e+001
1.123020e+003, 3.524079e+001
1.123502e+003, 3.534563e+001
1.123984e+003, 3.538062e+001
1.124466e+003, 3.530914e+001
1.124948e+003, 3.517027e+001
1.125430e+003, 3.491327e+001
1.125913e+003, 3.472503e+001
1.126395e+003, 3.476031e+001
1.126877e+003, 3.493893e+001
1.127359e+003, 3.515532e+001
1.127841e+003, 3.536114e+001
1.128323e+003, 3.541734e+001
1.128805e+003, 3.505185e+001
1.129287e+003, 3.486318e+001
1.129770e+003, 3.502975e+001
1.130252e+003, 3.523400e+001
1.130734e+003, 3.511189e+001
1.131216e+003, 3.476160e+001
1.131698e+003, 3.455833e+001
1.132180e+003, 3.451220e+001
1.132662e+003, 3.458068e+001
1.133144e+003, 3.494406e+001
1.133626e+003, 3.516694e+001
1.134109e+003, 3.500246e+001
1.134591e+003, 3.468820e+001
1.135073e+003, 3.459919e+001
1.135555e+003, 3.471487e+001
1.136037e+003, 3.480306e+001
1.136519e+003, 3.483978e+001
1.137001e+003, 3.476765e+001
1.137483e+003, 3.439822e+001
1.137965e+003, 3.404875e+001
1.138448e+003, 3.394790e+001
1.138930e+003, 3.402958e+001
1.139412e+003, 3.412230e+001
1.139894e+003, 3.423162e+001
1.140376e+003, 3.423946e+001
1.140858e+003, 3.409423e+001
1.141340e+003, 3.399199e+001
1.141822e+003, 3.422398e+001
1.142304e+003, 3.450499e+001
1.142787e+003, 3.452920e+001
1.143269e+003, 3.428180e+001
1.143751e+003, 3.419501e+001
1.144233e+003, 3.429387e+001
1.144715e+003, 3.442853e+001
1.145197e+003, 3.457703e+001
1.145679e+003, 3.466511e+001
1.146161e+003, 3.449483e+001
1.146644e+003, 3.425244e+001
1.147126e+003, 3.421680e+001
1.147608e+003, 3.454144e+001
1.148090e+003, 3.460291e+001
1.148572e+003, 3.429109e+001
1.149054e+003, 3.403703e+001
1.149536e+003, 3.408862e+001
1.150018e+003, 3.428151e+001
1.150500e+003, 3.437870e+001
1.150983e+003, 3.438733e+001
1.151465e+003, 3.431391e+001
1.151947e+003, 3.407630e+001
1.152429e+003, 3.393796e+001
1.152911e+003, 3.392710e+001
1.153393e+003, 3.399054e+001
1.153875e+003, 3.416870e+001
1.154357e+003, 3.436505e+001
1.154840e+003, 3.424817e+001
1.155322e+003, 3.391360e+001
1.155804e+003, 3.367127e+001
1.156286e+003, 3.370920e+001
1.156768e+003, 3.375614e+001
1.157250e+003, 3.375713e+001
1.157732e+003, 3.377016e+001
1.158214e+003, 3.385904e+001
1.158697e+003, 3.400667e+001
1.159179e+003, 3.416864e+001
1.159661e+003, 3.432833e+001
1.160143e+003, 3.439791e+001
1.160625e+003, 3.426164e+001
1.161107e+003, 3.411525e+001
1.161589e+003, 3.399179e+001
1.162071e+003, 3.391268e+001
1.162553e+003, 3.387413e+001
1.163036e+003, 3.389543e+001
1.163518e+003, 3.422758e+001
1.164000e+003, 3.485728e+001
1.164482e+003, 3.524166e+001
1.164964e+003, 3.482643e+001
1.165446e+003, 3.432858e+001
1.165928e+003, 3.399724e+001
1.166410e+003, 3.386181e+001
1.166892e+003, 3.408096e+001
1.167375e+003, 3.462176e+001
1.167857e+003, 3.498311e+001
1.168339e+003, 3.510098e+001
1.168821e+003, 3.505094e+001
1.169303e+003, 3.468152e+001
1.169785e+003, 3.435791e+001
1.170267e+003, 3.438069e+001
1.170749e+003, 3.462519e+001
1.171231e+003, 3.475586e+001
1.171714e+003, 3.477365e+001
1.172196e+003, 3.476514e+001
1.172678e+003, 3.475225e+001
1.173160e+003, 3.468593e+001
1.173642e+003, 3.441038e+001
1.174124e+003, 3.415811e+001
1.174606e+003, 3.416416e+001
1.175088e+003, 3.438062e+001
1.175571e+003, 3.452781e+001
1.176053e+003, 3.460302e+001
1.176535e+003, 3.469062e+001
1.177017e+003, 3.481842e+001
1.177499e+003, 3.495648e+001
1.177981e+003, 3.513414e+001
1.178463e+003, 3.526735e+001
1.178945e+003, 3.522057e+001
1.179427e+003, 3.499288e+001
1.179910e+003, 3.499728e+001
1.180392e+003, 3.527098e+001
1.180874e+003, 3.538792e+001
1.181356e+003, 3.513878e+001
1.181838e+003, 3.478712e+001
1.182320e+003, 3.454848e+001
1.182802e+003, 3.440495e+001
1.183284e+003, 3.433464e+001
1.183767e+003, 3.433018e+001
1.184249e+003, 3.446343e+001
1.184731e+003, 3.476558e+001
1.185213e+003, 3.500466e+001
1.185695e+003, 3.508078e+001
1.186177e+003, 3.502486e+001
1.186659e+003, 3.480658e+001
1.187141e+003, 3.450782e+001
1.187624e+003, 3.421873e+001
1.188106e+003, 3.387130e+001
1.188588e+003, 3.391972e+001
1.189070e+003, 3.444680e+001
1.189552e+003, 3.489268e+001
1.190034e+003, 3.488858e+001
1.190516e+003, 3.468089e+001
1.190998e+003, 3.452120e+001
1.191480e+003, 3.439635e+001
1.191963e+003, 3.427651e+001
1.192445e+003, 3.411262e+001
1.192927e+003, 3.410453e+001
1.193409e+003, 3.429713e+001
1.193891e+003, 3.443670e+001
1.194373e+003, 3.422638e+001
1.194855e+003, 3.395468e+001
1.195337e+003, 3.407475e+001
1.195819e+003, 3.441576e+001
1.196302e+003, 3.459129e+001
1.196784e+003, 3.443058e+001
1.197266e+003, 3.437204e+001
1.197748e+003, 3.444494e+001
1.198230e+003, 3.452835e+001
1.198712e+003, 3.454118e+001
1.199194e+003, 3.449607e+001
1.199676e+003, 3.437150e+001
1.200158e+003, 3.420583e+001
1.200641e+003, 3.410695e+001
1.201123e+003, 3.413810e+001
1.201605e+003, 3.411039e+001
1.202087e+003, 3.398729e+001
1.202569e+003, 3.391559e+001
1.203051e+003, 3.412984e+001
1.203533e+003, 3.440485e+001
1.204015e+003, 3.438406e+001
1.204498e+003, 3.415603e+001
1.204980e+003, 3.408117e+001
1.205462e+003, 3.436042e+001
1.205944e+003, 3.440775e+001
1.206426e+003, 3.413373e+001
1.206908e+003, 3.377980e+001
1.207390e+003, 3.353397e+001
1.207872e+003, 3.338411e+001
1.208354e+003, 3.329770e+001
1.208837e+003, 3.328757e+001
1.209319e+003, 3.345092e+001
1.209801e+003, 3.397213e+001
1.210283e+003, 3.416377e+001
1.210765e+003, 3.388358e+001
1.211247e+003, 3.350036e+001
1.211729e+003, 3.338504e+001
1.212211e+003, 3.340124e+001
1.212694e+003, 3.345248e+001
1.213176e+003, 3.349513e+001
1.213658e+003, 3.329574e+001
1.214140e+003, 3.267097e+001
1.214622e+003, 3.235362e+001
1.215104e+003, 3.249750e+001
1.215586e+003, 3.276309e+001
1.216068e+003, 3.275787e+001
1.216551e+003, 3.268297e+001
1.217033e+003, 3.279345e+001
1.217515e+003, 3.308421e+001
1.217997e+003, 3.339283e+001
1.218479e+003, 3.381612e+001
1.218961e+003, 3.383053e+001
1.219443e+003, 3.325790e+001
1.219925e+003, 3.264032e+001
1.220407e+003, 3.262439e+001
1.220890e+003, 3.287223e+001
1.221372e+003, 3.305440e+001
1.221854e+003, 3.313287e+001
1.222336e+003, 3.310223e+001
1.222818e+003, 3.293634e+001
1.223300e+003, 3.277395e+001
1.223782e+003, 3.263967e+001
1.224264e+003, 3.252443e+001
1.224746e+003, 3.235757e+001
1.225229e+003, 3.224901e+001
1.225711e+003, 3.236958e+001
1.226193e+003, 3.269989e+001
1.226675e+003, 3.290054e+001
1.227157e+003, 3.297758e+001
1.227639e+003, 3.283479e+001
1.228121e+003, 3.239805e+001
1.228603e+003, 3.199972e+001
1.229085e+003, 3.210310e+001
1.229568e+003, 3.233445e+001
1.230050e+003, 3.228658e+001
1.230532e+003, 3.198365e+001
1.231014e+003, 3.191732e+001
1.231496e+003, 3.211948e+001
1.231978e+003, 3.227816e+001
1.232460e+003, 3.232672e+001
1.232942e+003, 3.229169e+001
1.233425e+003, 3.211242e+001
1.233907e+003, 3.193124e+001
1.234389e+003, 3.189575e+001
1.234871e+003, 3.198276e+001
1.235353e+003, 3.201763e+001
1.235835e+003, 3.199677e+001
1.236317e+003, 3.200898e+001
1.236799e+003, 3.208091e+001
1.237281e+003, 3.216048e+001
1.237764e+003, 3.223938e+001
1.238246e+003, 3.227791e+001
1.238728e+003, 3.222425e+001
1.239210e+003, 3.210225e+001
1.239692e+003, 3.196697e+001
1.240174e+003, 3.182550e+001
1.240656e+003, 3.185807e+001
1.241138e+003, 3.214954e+001
1.241621e+003, 3.236406e+001
1.242103e+003, 3.209680e+001
1.242585e+003, 3.181482e+001
1.243067e+003, 3.184464e+001
1.243549e+003, 3.210777e+001
1.244031e+003, 3.239720e+001
1.244513e+003, 3.268340e+001
1.244995e+003, 3.265261e+001
1.245478e+003, 3.216835e+001
1.245960e+003, 3.176900e+001
1.246442e+003, 3.189790e+001
1.246924e+003, 3.208049e+001
1.247406e+003, 3.204133e+001
1.247888e+003, 3.186524e+001
1.248370e+003, 3.179886e+001
1.248852e+003, 3.182831e+001
1.249334e+003, 3.192665e+001
1.249817e+003, 3.211430e+001
1.250299e+003, 3.218180e+001
1.250781e+003, 3.186365e+001
1.251263e+003, 3.160188e+001
1.251745e+003, 3.159455e+001
1.252227e+003, 3.173880e+001
1.252709e+003, 3.176799e+001
1.253191e+003, 3.173787e+001
1.253673e+003, 3.185863e+001
1.254156e+003, 3.221522e+001
1.254638e+003, 3.236657e+001
1.255120e+003, 3.200081e+001
1.255602e+003, 3.166713e+001
1.256084e+003, 3.154688e+001
1.256566e+003, 3.156045e+001
1.257048e+003, 3.157693e+001
1.257530e+003, 3.159748e+001
1.258012e+003, 3.165244e+001
1.258495e+003, 3.176330e+001
1.258977e+003, 3.169896e+001
1.259459e+003, 3.129035e+001
1.259941e+003, 3.104174e+001
1.260423e+003, 3.115338e+001
1.260905e+003, 3.141717e+001
1.261387e+003, 3.159855e+001
1.261869e+003, 3.166610e+001
1.262352e+003, 3.150848e+001
1.262834e+003, 3.109037e+001
1.263316e+003, 3.091939e+001
1.263798e+003, 3.107885e+001
1.264280e+003, 3.127138e+001
1.264762e+003, 3.143114e+001
1.265244e+003, 3.152306e+001
1.265726e+003, 3.146256e+001
1.266208e+003, 3.133994e+001
1.266691e+003, 3.123111e+001
1.267173e+003, 3.115105e+001
1.267655e+003, 3.121431e+001
1.268137e+003, 3.145604e+001
1.268619e+003, 3.153827e+001
1.269101e+003, 3.134717e+001
1.269583e+003, 3.108334e+001
1.270065e+003, 3.083677e+001
1.270548e+003, 3.068129e+001
1.271030e+003, 3.075697e+001
1.271512e+003, 3.099052e+001
1.271994e+003, 3.105684e+001
1.272476e+003, 3.096084e+001
1.272958e+003, 3.095326e+001
1.273440e+003, 3.110299e+001
1.273922e+003, 3.124578e+001
1.274405e+003, 3.133077e+001
1.274887e+003, 3.129156e+001
1.275369e+003, 3.101688e+001
1.275851e+003, 3.063879e+001
1.276333e+003, 3.055453e+001
1.276815e+003, 3.070757e+001
1.277297e+003, 3.082262e+001
1.277779e+003, 3.085010e+001
1.278261e+003, 3.080548e+001
1.278744e+003, 3.056021e+001
1.279226e+003, 3.042435e+001
1.279708e+003, 3.055784e+001
1.280190e+003, 3.079565e+001
1.280672e+003, 3.078936e+001
1.281154e+003, 3.063815e+001
1.281636e+003, 3.061666e+001
1.282118e+003, 3.076217e+001
1.282600e+003, 3.085995e+001
1.283083e+003, 3.082389e+001
1.283565e+003, 3.077222e+001
1.284047e+003, 3.072871e+001
1.284529e+003, 3.068577e+001
1.285011e+003, 3.060976e+001
1.285493e+003, 3.053951e+001
1.285975e+003, 3.053681e+001
1.286457e+003, 3.060631e+001
1.286939e+003, 3.073049e+001
1.287422e+003, 3.096928e+001
1.287904e+003, 3.102063e+001
1.288386e+003, 3.079640e+001
1.288868e+003, 3.051690e+001
1.289350e+003, 3.034754e+001
1.289832e+003, 3.030050e+001
1.290314e+003, 3.049732e+001
1.290796e+003, 3.084067e+001
1.291279e+003, 3.085169e+001
1.291761e+003, 3.048038e+001
1.292243e+003, 3.031417e+001
1.292725e+003, 3.044451e+001
1.293207e+003, 3.062020e+001
1.293689e+003, 3.065307e+001
1.294171e+003, 3.064852e+001
1.294653e+003, 3.073268e+001
1.295135e+003, 3.079744e+001
1.295618e+003, 3.053049e+001
1.296100e+003, 3.000257e+001
1.296582e+003, 3.002420e+001
1.297064e+003, 3.063737e+001
1.297546e+003, 3.110266e+001
1.298028e+003, 3.070346e+001
1.298510e+003, 3.046876e+001
1.298992e+003, 3.084939e+001
1.299475e+003, 3.135094e+001
1.299957e+003, 3.122302e+001
1.300439e+003, 3.071490e+001
1.300921e+003, 3.057523e+001
1.301403e+003, 3.078886e+001
1.301885e+003, 3.096208e+001
##END=



