##NAMES=Vesuvianite
##RRUFFID=R070226
##IDEAL CHEMISTRY=(Ca,Na)_19_(Al,Mg,Fe^3+^)_13_(SiO_4_)_10_(Si_2_O_7_)_4_(OH,F,O)_10_
##LOCALITY=Lupikko Mine, Pitkyaranta (Pitkäranta) District, Ladoga Region, Karelia Republic,  Northern Region, Russia
##OWNER=RRUFF
##SOURCE=Michael Scott
##DESCRIPTION=Aggregate of gray prismatic crystals associated with calcite
##STATUS=The identification of this mineral is confirmed by single-crystal X-ray diffraction and chemical analysis.
##URL=rruff.info/R070226
##MEASURED CHEMISTRY=(Ca_18.48_Mn_0.10_[box]_0.32_)_Σ=19_(Al_9.84_Mg_1.77_Fe^2+^_1.39_)_Σ=13_(Si_1.00_O_4_)_10_(Si_2.00_O_7_)_4_O((OH)_5.53_F_3.11_Cl_0.36_)_Σ=9_; 
177.4271, 3237.580
177.9092, 3232.769
178.3913, 3231.191
178.8734, 3237.118
179.3555, 3254.987
179.8376, 3279.616
180.3197, 3295.858
180.8019, 3301.145
181.2840, 3301.742
181.7661, 3296.962
182.2482, 3290.357
182.7303, 3286.154
183.2124, 3286.267
183.6946, 3290.268
184.1767, 3298.008
184.6588, 3314.642
185.1409, 3325.531
185.6230, 3322.387
186.1051, 3313.905
186.5873, 3310.350
187.0694, 3316.938
187.5515, 3329.888
188.0336, 3339.428
188.5157, 3344.149
188.9978, 3347.412
189.4800, 3353.559
189.9621, 3357.522
190.4442, 3352.336
190.9263, 3334.224
191.4084, 3309.705
191.8905, 3294.020
192.3727, 3287.454
192.8548, 3290.630
193.3369, 3311.158
193.8190, 3336.143
194.3011, 3353.333
194.7832, 3357.842
195.2654, 3353.639
195.7475, 3348.560
196.2296, 3340.533
196.7117, 3335.694
197.1938, 3334.148
197.6759, 3335.811
198.1581, 3342.963
198.6402, 3356.049
199.1223, 3369.089
199.6044, 3368.960
200.0865, 3342.794
200.5686, 3329.598
201.0508, 3341.011
201.5329, 3359.066
202.0150, 3369.502
202.4971, 3368.599
202.9792, 3363.344
203.4613, 3364.557
203.9435, 3373.127
204.4256, 3386.841
204.9077, 3413.256
205.3898, 3438.717
205.8719, 3452.756
206.3540, 3453.889
206.8362, 3449.449
207.3183, 3449.395
207.8004, 3455.823
208.2825, 3461.410
208.7646, 3459.133
209.2467, 3461.301
209.7289, 3479.279
210.2110, 3511.920
210.6931, 3546.124
211.1752, 3565.681
211.6573, 3565.445
212.1395, 3568.933
212.6216, 3577.706
213.1037, 3588.515
213.5858, 3597.490
214.0679, 3606.125
214.5500, 3620.918
215.0322, 3651.094
215.5143, 3701.109
215.9964, 3735.926
216.4785, 3737.798
216.9606, 3741.294
217.4427, 3763.372
217.9249, 3799.402
218.4070, 3832.766
218.8891, 3847.792
219.3712, 3843.637
219.8533, 3851.926
220.3354, 3883.469
220.8176, 3917.761
221.2997, 3956.451
221.7818, 3993.647
222.2639, 4018.854
222.7460, 4023.202
223.2281, 4008.876
223.7103, 3999.155
224.1924, 3999.528
224.6745, 3998.773
225.1566, 4001.832
225.6387, 4000.955
226.1208, 3982.369
226.6030, 3936.038
227.0851, 3871.035
227.5672, 3826.089
228.0493, 3817.530
228.5314, 3808.261
229.0135, 3788.890
229.4957, 3766.586
229.9778, 3752.066
230.4599, 3750.586
230.9420, 3753.691
231.4241, 3738.420
231.9062, 3686.502
232.3884, 3647.845
232.8705, 3629.986
233.3526, 3625.262
233.8347, 3630.111
234.3168, 3642.831
234.7989, 3657.235
235.2811, 3661.974
235.7632, 3652.311
236.2453, 3644.012
236.7274, 3638.610
237.2095, 3634.630
237.6916, 3630.832
238.1738, 3627.104
238.6559, 3624.538
239.1380, 3624.653
239.6201, 3627.992
240.1022, 3632.074
240.5843, 3638.264
241.0665, 3643.991
241.5486, 3646.492
242.0307, 3646.640
242.5128, 3648.825
242.9949, 3660.111
243.4770, 3682.242
243.9592, 3692.354
244.4413, 3678.227
244.9234, 3662.898
245.4055, 3655.016
245.8876, 3653.037
246.3697, 3650.967
246.8519, 3642.364
247.3340, 3629.054
247.8161, 3628.644
248.2982, 3651.668
248.7803, 3674.152
249.2624, 3687.788
249.7446, 3695.440
250.2267, 3701.409
250.7088, 3707.070
251.1909, 3713.636
251.6730, 3725.256
252.1551, 3744.883
252.6373, 3763.722
253.1194, 3779.689
253.6015, 3793.207
254.0836, 3804.413
254.5657, 3813.177
255.0478, 3820.316
255.5300, 3828.247
256.0121, 3838.664
256.4942, 3843.231
256.9763, 3834.047
257.4584, 3821.141
257.9406, 3812.143
258.4227, 3808.781
258.9048, 3805.465
259.3869, 3796.987
259.8690, 3783.273
260.3511, 3765.101
260.8333, 3738.974
261.3154, 3711.190
261.7975, 3686.016
262.2796, 3663.607
262.7617, 3641.971
263.2438, 3618.043
263.7260, 3592.910
264.2081, 3573.244
264.6902, 3560.286
265.1723, 3552.479
265.6544, 3551.807
266.1365, 3555.617
266.6187, 3554.828
267.1008, 3541.840
267.5829, 3521.955
268.0650, 3505.351
268.5471, 3491.635
269.0292, 3483.312
269.5114, 3487.762
269.9935, 3498.469
270.4756, 3503.929
270.9577, 3494.746
271.4398, 3484.389
271.9219, 3489.615
272.4041, 3510.858
272.8862, 3534.251
273.3683, 3556.614
273.8504, 3574.749
274.3325, 3583.071
274.8146, 3576.868
275.2968, 3568.912
275.7789, 3564.698
276.2610, 3565.018
276.7431, 3574.503
277.2252, 3597.981
277.7073, 3627.204
278.1895, 3648.104
278.6716, 3659.383
279.1537, 3670.583
279.6358, 3687.851
280.1179, 3706.620
280.6000, 3716.211
281.0822, 3712.748
281.5643, 3709.790
282.0464, 3726.953
282.5285, 3766.507
283.0106, 3795.882
283.4927, 3802.319
283.9749, 3802.804
284.4570, 3815.655
284.9391, 3841.183
285.4212, 3862.257
285.9033, 3862.295
286.3854, 3841.935
286.8676, 3836.972
287.3497, 3859.503
287.8318, 3884.161
288.3139, 3905.513
288.7960, 3919.738
289.2781, 3914.878
289.7603, 3880.904
290.2424, 3828.534
290.7245, 3804.153
291.2066, 3837.802
291.6887, 3860.259
292.1708, 3854.201
292.6530, 3833.842
293.1351, 3816.824
293.6172, 3809.342
294.0993, 3805.952
294.5814, 3797.065
295.0635, 3779.253
295.5457, 3761.943
296.0278, 3747.172
296.5099, 3731.529
296.9920, 3711.119
297.4741, 3686.430
297.9562, 3662.556
298.4384, 3644.652
298.9205, 3633.295
299.4026, 3623.988
299.8847, 3619.422
300.3668, 3614.164
300.8489, 3604.828
301.3311, 3593.308
301.8131, 3584.301
302.2953, 3581.560
302.7774, 3583.085
303.2595, 3578.049
303.7416, 3558.902
304.2237, 3544.368
304.7058, 3542.803
305.1880, 3545.359
305.6701, 3540.626
306.1522, 3524.064
306.6343, 3505.452
307.1164, 3503.262
307.5985, 3523.678
308.0807, 3537.465
308.5628, 3531.873
309.0449, 3523.292
309.5270, 3521.502
310.0091, 3527.245
310.4912, 3534.468
310.9734, 3537.779
311.4555, 3537.604
311.9376, 3538.929
312.4197, 3544.151
312.9018, 3547.782
313.3839, 3541.964
313.8661, 3531.584
314.3482, 3529.937
314.8303, 3549.997
315.3124, 3579.379
315.7945, 3596.257
316.2766, 3599.372
316.7588, 3597.111
317.2409, 3590.816
317.7230, 3582.827
318.2051, 3576.256
318.6872, 3568.845
319.1693, 3567.585
319.6515, 3582.484
320.1336, 3609.604
320.6157, 3630.856
321.0978, 3638.357
321.5799, 3639.980
322.0620, 3648.582
322.5442, 3664.784
323.0263, 3681.257
323.5084, 3697.853
323.9905, 3712.823
324.4726, 3723.157
324.9547, 3728.416
325.4369, 3731.986
325.9190, 3736.639
326.4011, 3742.465
326.8832, 3750.441
327.3653, 3762.907
327.8474, 3775.328
328.3296, 3786.781
328.8117, 3796.278
329.2938, 3800.839
329.7759, 3798.107
330.2580, 3790.227
330.7401, 3787.033
331.2223, 3793.027
331.7044, 3798.152
332.1865, 3802.224
332.6686, 3804.553
333.1507, 3803.199
333.6328, 3797.958
334.1150, 3792.518
334.5971, 3793.240
335.0792, 3804.936
335.5613, 3809.518
336.0434, 3802.798
336.5255, 3793.593
337.0077, 3782.908
337.4898, 3773.231
337.9719, 3770.035
338.4540, 3779.568
338.9361, 3799.784
339.4182, 3812.519
339.9004, 3817.422
340.3825, 3814.263
340.8646, 3796.979
341.3467, 3774.823
341.8288, 3758.903
342.3109, 3753.215
342.7931, 3755.558
343.2752, 3766.267
343.7573, 3787.739
344.2394, 3800.090
344.7215, 3790.114
345.2036, 3775.882
345.6858, 3773.085
346.1679, 3782.182
346.6500, 3790.358
347.1321, 3785.604
347.6142, 3773.805
348.0963, 3772.613
348.5785, 3786.350
349.0606, 3802.653
349.5427, 3812.491
350.0248, 3817.200
350.5069, 3820.116
350.9890, 3820.197
351.4712, 3819.984
351.9533, 3822.308
352.4354, 3826.526
352.9175, 3828.592
353.3996, 3823.406
353.8817, 3833.302
354.3639, 3840.305
354.8460, 3844.568
355.3281, 3837.888
355.8102, 3845.339
356.2923, 3847.127
356.7744, 3848.683
357.2566, 3858.122
357.7387, 3853.035
358.2208, 3862.349
358.7029, 3881.498
359.1850, 3894.799
359.6671, 3889.380
360.1493, 3883.781
360.6314, 3885.863
361.1135, 3894.303
361.5956, 3905.798
362.0777, 3919.025
362.5598, 3931.896
363.0420, 3935.674
363.5241, 3916.849
364.0062, 3911.205
364.4883, 3935.516
364.9704, 3965.358
365.4525, 3977.057
365.9347, 3966.965
366.4168, 3954.331
366.8989, 3966.267
367.3810, 4005.570
367.8631, 4022.266
368.3452, 3993.066
368.8274, 3966.426
369.3095, 3970.325
369.7916, 3995.501
370.2737, 4019.367
370.7558, 4032.995
371.2379, 4037.971
371.7201, 4032.500
372.2022, 4014.637
372.6843, 4006.271
373.1664, 4028.371
373.6485, 4057.816
374.1306, 4057.874
374.6128, 4019.630
375.0949, 3980.262
375.5770, 3961.913
376.0591, 3955.717
376.5412, 3944.026
377.0233, 3922.970
377.5055, 3898.457
377.9876, 3875.150
378.4697, 3853.174
378.9518, 3836.760
379.4339, 3829.367
379.9160, 3824.560
380.3982, 3822.625
380.8803, 3820.515
381.3624, 3809.421
381.8445, 3783.517
382.3266, 3749.188
382.8087, 3725.510
383.2909, 3727.008
383.7730, 3720.608
384.2551, 3692.441
384.7372, 3664.759
385.2193, 3659.847
385.7014, 3678.608
386.1836, 3701.135
386.6657, 3705.588
387.1478, 3690.711
387.6299, 3681.951
388.1120, 3688.739
388.5941, 3690.566
389.0763, 3674.291
389.5584, 3650.392
390.0405, 3636.490
390.5226, 3641.683
391.0047, 3654.933
391.4868, 3656.379
391.9690, 3643.847
392.4511, 3640.573
392.9332, 3657.358
393.4153, 3681.983
393.8974, 3702.590
394.3795, 3719.095
394.8617, 3736.124
395.3438, 3759.135
395.8259, 3783.019
396.3080, 3797.337
396.7901, 3800.592
397.2722, 3804.263
397.7544, 3815.303
398.2365, 3833.746
398.7186, 3856.922
399.2007, 3896.130
399.6828, 3927.179
400.1649, 3932.771
400.6471, 3925.833
401.1292, 3927.851
401.6113, 3945.956
402.0934, 3973.368
402.5755, 4000.495
403.0576, 4026.304
403.5398, 4054.897
404.0219, 4095.275
404.5040, 4130.038
404.9861, 4146.588
405.4682, 4149.970
405.9503, 4152.961
406.4325, 4163.252
406.9146, 4180.025
407.3967, 4201.016
407.8788, 4229.485
408.3609, 4255.387
408.8430, 4278.139
409.3252, 4297.079
409.8073, 4309.349
410.2894, 4315.236
410.7715, 4322.550
411.2536, 4344.672
411.7357, 4376.077
412.2179, 4383.414
412.7000, 4354.190
413.1821, 4325.763
413.6642, 4331.767
414.1463, 4356.542
414.6284, 4369.347
415.1106, 4360.917
415.5927, 4343.474
416.0748, 4320.415
416.5569, 4294.954
417.0390, 4279.602
417.5211, 4280.796
418.0033, 4285.944
418.4854, 4277.818
418.9675, 4256.702
419.4496, 4217.769
419.9317, 4137.828
420.4138, 4059.040
420.8960, 4014.466
421.3781, 3997.336
421.8602, 3978.598
422.3423, 3938.640
422.8244, 3883.870
423.3065, 3843.088
423.7887, 3834.423
424.2708, 3810.946
424.7529, 3756.156
425.2350, 3693.853
425.7171, 3643.182
426.1992, 3606.746
426.6814, 3575.540
427.1635, 3539.182
427.6456, 3498.657
428.1277, 3470.888
428.6098, 3463.210
429.0919, 3454.271
429.5741, 3427.650
430.0562, 3394.086
430.5383, 3370.840
431.0204, 3366.292
431.5025, 3363.416
431.9846, 3345.919
432.4668, 3318.003
432.9489, 3294.257
433.4310, 3278.140
433.9131, 3268.080
434.3952, 3263.150
434.8773, 3263.847
435.3595, 3265.719
435.8416, 3272.822
436.3237, 3277.191
436.8058, 3271.678
437.2879, 3259.373
437.7701, 3248.096
438.2522, 3241.781
438.7343, 3239.427
439.2164, 3238.590
439.6985, 3239.472
440.1806, 3241.667
440.6628, 3247.738
441.1449, 3252.864
441.6270, 3254.480
442.1091, 3252.291
442.5912, 3246.188
443.0733, 3233.136
443.5555, 3217.268
444.0376, 3217.426
444.5197, 3241.372
445.0018, 3259.541
445.4839, 3252.625
445.9660, 3238.512
446.4482, 3235.449
446.9303, 3246.919
447.4124, 3259.384
447.8945, 3265.222
448.3766, 3266.064
448.8587, 3265.699
449.3409, 3264.787
449.8230, 3259.874
450.3051, 3245.852
450.7872, 3224.475
451.2693, 3212.896
451.7514, 3215.987
452.2336, 3222.340
452.7157, 3231.716
453.1978, 3240.868
453.6799, 3243.777
454.1620, 3239.221
454.6441, 3234.319
455.1263, 3241.079
455.6084, 3265.690
456.0905, 3266.838
456.5726, 3212.575
457.0547, 3166.966
457.5368, 3156.143
458.0190, 3165.230
458.5011, 3167.123
458.9832, 3148.534
459.4653, 3128.025
459.9474, 3138.400
460.4295, 3180.303
460.9117, 3205.599
461.3938, 3198.725
461.8759, 3181.152
462.3580, 3172.632
462.8401, 3171.011
463.3222, 3164.433
463.8044, 3140.472
464.2865, 3117.387
464.7686, 3116.540
465.2507, 3132.167
465.7328, 3140.049
466.2149, 3128.923
466.6971, 3107.292
467.1792, 3091.791
467.6613, 3086.455
468.1434, 3078.946
468.6255, 3064.173
469.1076, 3051.645
469.5898, 3049.994
470.0719, 3056.091
470.5540, 3059.413
471.0361, 3052.427
471.5182, 3040.620
472.0003, 3042.103
472.4825, 3064.717
472.9646, 3079.166
473.4467, 3074.468
473.9288, 3062.710
474.4109, 3048.451
474.8930, 3033.051
475.3752, 3021.295
475.8573, 3019.488
476.3394, 3021.673
476.8215, 3015.025
477.3036, 2999.183
477.7857, 2989.640
478.2679, 2995.804
478.7500, 3011.802
479.2321, 3024.352
479.7142, 3035.049
480.1963, 3039.270
480.6784, 3030.847
481.1606, 3019.114
481.6427, 3012.692
482.1248, 3011.818
482.6069, 3012.148
483.0890, 3010.809
483.5711, 3007.517
484.0533, 2999.647
484.5354, 2976.761
485.0175, 2967.105
485.4996, 2983.822
485.9817, 3007.148
486.4638, 3021.406
486.9460, 3025.123
487.4281, 3026.771
487.9102, 3032.810
488.3923, 3041.883
488.8744, 3049.845
489.3565, 3056.477
489.8387, 3063.353
490.3208, 3073.813
490.8029, 3083.429
491.2850, 3081.345
491.7671, 3059.392
492.2492, 3049.313
492.7314, 3074.718
493.2135, 3110.409
493.6956, 3127.399
494.1777, 3123.582
494.6598, 3113.280
495.1419, 3106.739
495.6241, 3103.475
496.1062, 3100.039
496.5883, 3092.368
497.0704, 3090.622
497.5525, 3102.058
498.0346, 3115.208
498.5168, 3117.677
498.9989, 3109.999
499.4810, 3105.901
499.9631, 3119.499
500.4452, 3145.638
500.9273, 3164.843
501.4095, 3176.413
501.8916, 3183.858
502.3737, 3186.637
502.8558, 3187.288
503.3379, 3191.418
503.8200, 3201.674
504.3022, 3204.429
504.7843, 3184.129
505.2664, 3159.619
505.7485, 3155.631
506.2306, 3171.760
506.7127, 3188.661
507.1949, 3192.743
507.6770, 3188.332
508.1591, 3195.017
508.6412, 3237.095
509.1233, 3253.785
509.6054, 3220.747
510.0876, 3178.784
510.5697, 3158.701
511.0518, 3160.086
511.5339, 3162.701
512.0161, 3151.369
512.4982, 3131.273
512.9803, 3116.384
513.4624, 3107.436
513.9445, 3100.072
514.4266, 3094.532
514.9088, 3088.332
515.3909, 3077.040
515.8730, 3059.946
516.3551, 3046.719
516.8372, 3046.014
517.3193, 3046.199
517.8015, 3031.679
518.2836, 3006.812
518.7657, 2991.520
519.2478, 2997.174
519.7299, 3015.342
520.2120, 3026.471
520.6942, 3031.049
521.1763, 3027.090
521.6584, 3008.853
522.1405, 2988.577
522.6226, 2969.823
523.1047, 2954.481
523.5869, 2946.276
524.0690, 2948.808
524.5511, 2955.570
525.0332, 2956.142
525.5153, 2950.553
525.9974, 2943.734
526.4796, 2937.652
526.9617, 2929.314
527.4438, 2910.523
527.9259, 2883.314
528.4080, 2870.091
528.8901, 2881.335
529.3723, 2900.154
529.8544, 2924.601
530.3365, 2947.906
530.8186, 2956.506
531.3007, 2946.029
531.7828, 2925.069
532.2650, 2903.665
532.7471, 2879.881
533.2292, 2867.483
533.7113, 2878.264
534.1934, 2887.162
534.6755, 2882.822
535.1577, 2873.561
535.6398, 2872.490
536.1219, 2884.280
536.6040, 2895.609
537.0861, 2889.480
537.5682, 2872.747
538.0504, 2869.395
538.5325, 2883.600
539.0146, 2900.784
539.4967, 2912.338
539.9788, 2918.183
540.4609, 2918.219
540.9431, 2907.756
541.4252, 2898.599
541.9073, 2888.941
542.3894, 2884.321
542.8715, 2895.628
543.3536, 2919.769
543.8358, 2938.155
544.3179, 2934.735
544.8000, 2914.878
545.2821, 2901.712
545.7642, 2896.109
546.2463, 2894.917
546.7285, 2902.607
547.2106, 2910.584
547.6927, 2911.499
548.1748, 2905.655
548.6569, 2899.810
549.1390, 2895.988
549.6211, 2894.292
550.1032, 2898.152
550.5853, 2905.138
551.0674, 2902.785
551.5496, 2884.524
552.0317, 2862.897
552.5138, 2858.933
552.9959, 2879.717
553.4780, 2894.393
553.9601, 2906.344
554.4423, 2909.647
554.9244, 2895.396
555.4065, 2872.953
555.8886, 2856.149
556.3707, 2849.996
556.8528, 2850.271
557.3350, 2854.642
557.8171, 2862.082
558.2992, 2864.243
558.7813, 2860.198
559.2634, 2850.948
559.7455, 2831.896
560.2277, 2808.884
560.7098, 2800.202
561.1919, 2814.670
561.6740, 2828.169
562.1561, 2832.775
562.6382, 2832.940
563.1204, 2831.034
563.6025, 2828.880
564.0846, 2831.698
564.5667, 2844.394
565.0488, 2863.166
565.5309, 2872.885
566.0131, 2870.633
566.4952, 2866.674
566.9773, 2858.948
567.4594, 2853.138
567.9415, 2854.233
568.4236, 2860.965
568.9058, 2866.926
569.3879, 2868.389
569.8700, 2868.855
570.3521, 2872.835
570.8342, 2878.953
571.3163, 2882.665
571.7985, 2882.588
572.2806, 2879.301
572.7627, 2872.127
573.2448, 2859.534
573.7269, 2857.639
574.2090, 2876.290
574.6912, 2893.305
575.1733, 2899.267
575.6554, 2902.763
576.1375, 2915.711
576.6196, 2939.861
577.1017, 2963.146
577.5839, 2972.502
578.0660, 2972.283
578.5481, 2977.768
579.0302, 2989.872
579.5123, 3000.902
579.9944, 3005.333
580.4766, 3008.413
580.9587, 3021.227
581.4408, 3045.712
581.9229, 3069.530
582.4050, 3098.253
582.8871, 3119.078
583.3693, 3116.299
583.8514, 3099.669
584.3335, 3090.208
584.8156, 3097.581
585.2977, 3115.473
585.7798, 3138.078
586.2620, 3167.009
586.7441, 3179.562
587.2262, 3166.681
587.7083, 3150.565
588.1904, 3142.633
588.6725, 3140.104
589.1547, 3139.114
589.6368, 3139.734
590.1189, 3140.280
590.6010, 3139.570
591.0831, 3138.527
591.5652, 3140.962
592.0474, 3145.397
592.5295, 3141.985
593.0116, 3123.006
593.4937, 3095.034
593.9758, 3078.444
594.4579, 3077.487
594.9401, 3077.997
595.4222, 3075.997
595.9043, 3078.013
596.3864, 3088.101
596.8685, 3104.886
597.3506, 3126.069
597.8328, 3156.155
598.3149, 3179.697
598.7970, 3178.390
599.2791, 3160.048
599.7612, 3141.341
600.2433, 3125.375
600.7255, 3121.528
601.2076, 3140.904
601.6897, 3179.268
602.1718, 3201.815
602.6539, 3187.876
603.1360, 3186.243
603.6182, 3211.199
604.1003, 3241.144
604.5824, 3262.115
605.0645, 3272.907
605.5466, 3276.647
606.0287, 3271.829
606.5109, 3265.511
606.9930, 3269.651
607.4751, 3282.944
607.9572, 3294.691
608.4393, 3301.975
608.9214, 3308.439
609.4036, 3318.132
609.8857, 3331.076
610.3678, 3341.067
610.8499, 3344.939
611.3320, 3350.116
611.8141, 3365.394
612.2963, 3378.365
612.7784, 3371.939
613.2605, 3347.724
613.7426, 3326.345
614.2247, 3326.098
614.7068, 3337.466
615.1890, 3336.061
615.6711, 3321.290
616.1532, 3306.142
616.6353, 3291.890
617.1174, 3283.173
617.5995, 3288.989
618.0817, 3309.713
618.5638, 3319.671
619.0459, 3314.750
619.5280, 3302.562
620.0101, 3279.009
620.4922, 3253.292
620.9744, 3236.962
621.4565, 3231.795
621.9386, 3231.075
622.4207, 3229.398
622.9028, 3227.065
623.3849, 3227.131
623.8671, 3231.516
624.3492, 3225.625
624.8313, 3196.819
625.3134, 3165.230
625.7955, 3159.219
626.2776, 3177.042
626.7598, 3186.537
627.2419, 3172.550
627.7240, 3160.875
628.2061, 3169.949
628.6882, 3187.378
629.1703, 3192.691
629.6525, 3182.394
630.1346, 3171.261
630.6167, 3175.292
631.0988, 3190.682
631.5809, 3194.052
632.0630, 3180.680
632.5452, 3174.478
633.0273, 3189.579
633.5094, 3208.204
633.9915, 3210.429
634.4736, 3197.071
634.9557, 3180.610
635.4379, 3155.997
635.9200, 3136.852
636.4021, 3134.077
636.8842, 3140.608
637.3663, 3147.718
637.8484, 3152.159
638.3306, 3150.502
638.8127, 3138.009
639.2948, 3116.664
639.7769, 3097.997
640.2590, 3080.826
640.7411, 3070.561
641.2233, 3071.497
641.7054, 3077.567
642.1875, 3087.496
642.6696, 3099.995
643.1517, 3096.460
643.6339, 3053.531
644.1160, 3014.489
644.5981, 3009.502
645.0802, 3021.216
645.5623, 3022.379
646.0444, 3007.677
646.5266, 2990.797
647.0087, 2985.176
647.4908, 2987.636
647.9729, 2983.080
648.4550, 2970.561
648.9371, 2954.452
649.4193, 2932.188
649.9014, 2910.733
650.3835, 2893.163
650.8656, 2880.528
651.3477, 2881.919
651.8298, 2920.496
652.3120, 2948.824
652.7941, 2934.979
653.2762, 2902.418
653.7583, 2882.313
654.2404, 2879.310
654.7225, 2879.673
655.2047, 2872.885
655.6868, 2860.241
656.1689, 2844.395
656.6510, 2823.807
657.1331, 2809.441
657.6152, 2803.557
658.0974, 2804.631
658.5795, 2817.424
659.0616, 2837.757
659.5437, 2845.825
660.0258, 2830.710
660.5079, 2814.518
660.9901, 2802.677
661.4722, 2794.778
661.9543, 2791.637
662.4364, 2792.231
662.9185, 2792.893
663.4006, 2790.962
663.8828, 2788.297
664.3649, 2788.313
664.8470, 2790.971
665.3291, 2797.933
665.8112, 2810.345
666.2933, 2825.689
666.7755, 2848.872
667.2576, 2873.383
667.7397, 2872.170
668.2218, 2819.163
668.7039, 2783.019
669.1860, 2787.408
669.6682, 2804.879
670.1503, 2817.557
670.6324, 2823.928
671.1145, 2825.950
671.5966, 2823.737
672.0787, 2824.182
672.5609, 2843.135
673.0430, 2876.203
673.5251, 2888.545
674.0072, 2873.517
674.4893, 2857.026
674.9714, 2851.631
675.4536, 2857.338
675.9357, 2875.612
676.4178, 2917.481
676.8999, 2947.877
677.3820, 2959.754
677.8641, 2966.277
678.3463, 2969.874
678.8284, 2974.214
679.3105, 2984.364
679.7926, 3001.912
680.2747, 3023.186
680.7568, 3045.406
681.2390, 3068.467
681.7211, 3091.252
682.2032, 3113.844
682.6853, 3140.821
683.1674, 3175.346
683.6495, 3211.101
684.1317, 3236.924
684.6138, 3248.188
685.0959, 3273.739
685.5780, 3331.995
686.0601, 3382.872
686.5422, 3406.531
687.0244, 3424.394
687.5065, 3462.595
687.9886, 3522.526
688.4707, 3577.509
688.9528, 3611.247
689.4349, 3633.294
689.9171, 3649.809
690.3992, 3663.726
690.8813, 3683.758
691.3634, 3712.208
691.8455, 3745.017
692.3276, 3779.660
692.8098, 3814.616
693.2919, 3835.630
693.7740, 3840.792
694.2561, 3836.078
694.7382, 3816.726
695.2203, 3792.781
695.7025, 3774.571
696.1846, 3758.123
696.6667, 3727.793
697.1488, 3668.790
697.6309, 3611.584
698.1130, 3579.740
698.5952, 3554.888
699.0773, 3512.776
699.5594, 3453.344
700.0415, 3390.798
700.5236, 3333.070
701.0057, 3280.115
701.4879, 3234.036
701.9700, 3195.343
702.4521, 3150.010
702.9342, 3093.670
703.4163, 3038.580
703.8984, 2990.979
704.3806, 2950.091
704.8627, 2913.566
705.3448, 2882.090
705.8269, 2852.521
706.3090, 2823.100
706.7911, 2796.616
707.2733, 2778.304
707.7554, 2762.820
708.2375, 2740.419
708.7196, 2708.394
709.2017, 2675.717
709.6838, 2648.150
710.1660, 2626.998
710.6481, 2619.471
711.1302, 2624.575
711.6123, 2623.702
712.0944, 2609.584
712.5765, 2589.588
713.0587, 2571.386
713.5408, 2554.610
714.0229, 2547.864
714.5050, 2567.060
714.9871, 2574.395
715.4692, 2552.468
715.9514, 2525.732
716.4335, 2516.498
716.9156, 2521.930
717.3977, 2521.411
717.8798, 2502.474
718.3619, 2480.841
718.8441, 2469.110
719.3262, 2463.141
719.8083, 2456.963
720.2904, 2449.279
720.7725, 2439.105
721.2546, 2425.480
721.7368, 2410.387
722.2189, 2397.250
722.7010, 2384.987
723.1831, 2382.982
723.6652, 2395.670
724.1473, 2411.565
724.6295, 2427.727
725.1116, 2441.334
725.5937, 2446.631
726.0758, 2441.439
726.5579, 2435.327
727.0400, 2428.109
727.5222, 2422.366
728.0043, 2417.498
728.4864, 2415.920
728.9685, 2425.747
729.4506, 2447.159
729.9327, 2461.394
730.4149, 2444.041
730.8970, 2410.419
731.3791, 2396.299
731.8612, 2399.878
732.3433, 2405.024
732.8254, 2407.635
733.3076, 2406.419
733.7897, 2398.673
734.2718, 2385.424
734.7539, 2380.217
735.2360, 2388.384
735.7181, 2395.732
736.2003, 2402.514
736.6824, 2406.370
737.1645, 2402.804
737.6466, 2395.266
738.1287, 2393.219
738.6108, 2400.826
739.0930, 2410.197
739.5751, 2421.891
740.0572, 2429.665
740.5393, 2420.932
741.0214, 2401.050
741.5035, 2389.538
741.9857, 2395.677
742.4678, 2408.189
742.9499, 2409.547
743.4320, 2401.021
743.9141, 2402.979
744.3962, 2418.805
744.8784, 2427.243
745.3605, 2417.997
745.8426, 2400.553
746.3247, 2386.580
746.8068, 2375.993
747.2889, 2370.060
747.7711, 2372.201
748.2532, 2374.220
748.7353, 2373.896
749.2174, 2372.862
749.6995, 2371.996
750.1816, 2371.788
750.6638, 2373.326
751.1459, 2377.539
751.6280, 2382.879
752.1101, 2389.490
752.5922, 2395.664
753.0743, 2398.770
753.5565, 2398.192
754.0386, 2391.218
754.5207, 2375.361
755.0028, 2358.785
755.4849, 2360.464
755.9670, 2383.535
756.4492, 2394.483
756.9313, 2388.725
757.4134, 2380.653
757.8955, 2374.230
758.3776, 2370.549
758.8597, 2373.460
759.3419, 2384.266
759.8240, 2387.497
760.3061, 2369.591
760.7882, 2358.670
761.2703, 2373.180
761.7524, 2394.806
762.2346, 2405.067
762.7167, 2402.062
763.1988, 2392.810
763.6809, 2378.837
764.1630, 2364.750
764.6451, 2354.200
765.1273, 2347.946
765.6094, 2349.012
766.0915, 2357.225
766.5736, 2367.570
767.0557, 2377.153
767.5378, 2386.044
768.0200, 2395.454
768.5021, 2406.737
768.9842, 2409.498
769.4663, 2400.291
769.9484, 2389.381
770.4305, 2378.219
770.9127, 2369.797
771.3948, 2369.418
771.8769, 2377.701
772.3590, 2384.851
772.8411, 2393.000
773.3232, 2395.916
773.8054, 2385.985
774.2875, 2373.060
774.7696, 2368.356
775.2517, 2371.626
775.7338, 2374.148
776.2159, 2369.754
776.6981, 2365.626
777.1802, 2374.905
777.6623, 2389.370
778.1444, 2386.188
778.6265, 2365.308
779.1086, 2348.506
779.5908, 2348.073
780.0729, 2358.208
780.5550, 2370.575
781.0371, 2386.351
781.5192, 2390.204
782.0013, 2375.302
782.4835, 2366.877
782.9656, 2377.041
783.4477, 2395.937
783.9298, 2415.722
784.4119, 2436.919
784.8940, 2439.147
785.3762, 2398.656
785.8583, 2368.698
786.3404, 2369.457
786.8225, 2381.917
787.3046, 2391.846
787.7867, 2398.068
788.2689, 2404.504
788.7510, 2414.142
789.2331, 2420.091
789.7152, 2411.344
790.1973, 2397.854
790.6794, 2396.875
791.1616, 2406.993
791.6437, 2416.636
792.1258, 2420.874
792.6079, 2421.441
793.0900, 2420.212
793.5721, 2417.355
794.0543, 2413.005
794.5364, 2405.628
795.0185, 2408.262
795.5006, 2430.272
795.9827, 2451.086
796.4648, 2447.168
796.9470, 2421.902
797.4291, 2411.885
797.9112, 2430.306
798.3933, 2445.325
798.8754, 2454.840
799.3575, 2461.345
799.8397, 2462.390
800.3218, 2462.575
800.8039, 2472.213
801.2860, 2495.670
801.7681, 2513.791
802.2502, 2515.385
802.7324, 2508.812
803.2145, 2496.529
803.6966, 2483.427
804.1787, 2477.476
804.6608, 2480.578
805.1429, 2489.972
805.6251, 2506.258
806.1072, 2523.315
806.5893, 2524.784
807.0714, 2513.268
807.5535, 2509.088
808.0356, 2516.010
808.5178, 2525.024
808.9999, 2530.154
809.4820, 2533.413
809.9641, 2540.699
810.4462, 2555.580
810.9283, 2561.136
811.4105, 2552.553
811.8926, 2542.480
812.3747, 2534.976
812.8568, 2528.946
813.3389, 2522.423
813.8210, 2515.442
814.3032, 2512.539
814.7853, 2521.191
815.2674, 2525.364
815.7495, 2508.923
816.2316, 2493.959
816.7137, 2505.474
817.1959, 2536.868
817.6780, 2562.702
818.1601, 2571.748
818.6422, 2575.795
819.1243, 2582.733
819.6064, 2592.471
820.0886, 2610.125
820.5707, 2630.836
821.0528, 2635.419
821.5349, 2617.726
822.0170, 2595.017
822.4991, 2585.098
822.9813, 2586.591
823.4634, 2593.915
823.9455, 2607.187
824.4276, 2627.670
824.9097, 2659.229
825.3918, 2682.519
825.8740, 2678.461
826.3561, 2658.385
826.8382, 2662.279
827.3203, 2710.819
827.8024, 2735.279
828.2845, 2712.607
828.7667, 2694.009
829.2488, 2704.089
829.7309, 2724.356
830.2130, 2730.157
830.6951, 2720.235
831.1772, 2720.400
831.6594, 2745.515
832.1415, 2771.272
832.6236, 2785.407
833.1057, 2796.421
833.5878, 2810.768
834.0699, 2830.454
834.5521, 2860.665
835.0342, 2907.252
835.5163, 2944.821
835.9984, 2939.480
836.4805, 2915.512
836.9626, 2910.747
837.4448, 2924.556
837.9269, 2947.644
838.4090, 2976.083
838.8911, 3002.127
839.3732, 3015.672
839.8553, 3021.732
840.3375, 3040.157
840.8196, 3071.204
841.3017, 3102.062
841.7838, 3131.075
842.2659, 3156.963
842.7480, 3178.875
843.2302, 3197.222
843.7123, 3212.221
844.1944, 3219.633
844.6765, 3238.616
845.1586, 3279.460
845.6407, 3316.485
846.1229, 3335.587
846.6050, 3350.887
847.0871, 3380.446
847.5692, 3422.241
848.0513, 3449.085
848.5334, 3432.775
849.0156, 3434.470
849.4977, 3487.538
849.9798, 3549.730
850.4619, 3590.383
850.9440, 3613.671
851.4261, 3633.343
851.9083, 3653.499
852.3904, 3673.858
852.8725, 3692.534
853.3546, 3712.999
853.8367, 3741.874
854.3188, 3774.682
854.8010, 3803.858
855.2831, 3827.086
855.7652, 3841.257
856.2473, 3840.823
856.7294, 3839.423
857.2115, 3866.704
857.6937, 3914.850
858.1758, 3950.688
858.6579, 3970.881
859.1400, 3977.831
859.6221, 3971.614
860.1042, 3959.833
860.5864, 3950.564
861.0685, 3944.534
861.5506, 3966.223
862.0327, 4029.413
862.5148, 4064.948
862.9969, 4050.130
863.4791, 4018.453
863.9612, 3989.374
864.4433, 3966.010
864.9254, 3961.427
865.4075, 3995.239
865.8896, 4006.702
866.3718, 3975.375
866.8539, 3947.119
867.3360, 3938.583
867.8181, 3940.932
868.3002, 3948.131
868.7823, 3958.375
869.2645, 3959.198
869.7466, 3942.068
870.2287, 3921.946
870.7108, 3896.527
871.1929, 3877.239
871.6750, 3879.890
872.1572, 3896.062
872.6393, 3904.047
873.1214, 3896.214
873.6035, 3890.483
874.0856, 3912.431
874.5677, 3932.815
875.0499, 3911.304
875.5320, 3864.795
876.0141, 3827.979
876.4962, 3807.848
876.9783, 3794.761
877.4604, 3782.356
877.9426, 3773.019
878.4247, 3774.189
878.9068, 3781.767
879.3889, 3779.474
879.8710, 3766.861
880.3531, 3751.478
880.8353, 3736.073
881.3174, 3725.261
881.7995, 3726.455
882.2816, 3736.428
882.7637, 3733.065
883.2458, 3714.116
883.7280, 3699.338
884.2101, 3693.578
884.6922, 3686.897
885.1743, 3672.280
885.6564, 3653.404
886.1385, 3637.630
886.6207, 3624.179
887.1028, 3618.187
887.5849, 3628.692
888.0670, 3632.000
888.5491, 3617.225
889.0313, 3596.929
889.5134, 3579.784
889.9955, 3566.097
890.4776, 3557.565
890.9597, 3562.393
891.4418, 3557.801
891.9240, 3531.122
892.4061, 3504.676
892.8882, 3487.041
893.3703, 3478.424
893.8524, 3482.047
894.3345, 3496.694
894.8167, 3505.552
895.2988, 3499.964
895.7809, 3489.243
896.2630, 3471.854
896.7451, 3456.738
897.2272, 3457.500
897.7094, 3468.166
898.1915, 3470.347
898.6736, 3457.394
899.1557, 3445.907
899.6378, 3452.108
900.1199, 3464.781
900.6021, 3470.733
901.0842, 3472.144
901.5663, 3472.458
902.0484, 3473.503
902.5305, 3480.189
903.0126, 3496.307
903.4948, 3514.729
903.9769, 3524.888
904.4590, 3528.803
904.9411, 3530.907
905.4232, 3532.151
905.9053, 3536.072
906.3875, 3543.852
906.8696, 3558.229
907.3517, 3582.436
907.8338, 3614.355
908.3159, 3648.896
908.7980, 3686.061
909.2802, 3717.078
909.7623, 3739.889
910.2444, 3765.026
910.7265, 3797.893
911.2086, 3834.209
911.6907, 3868.080
912.1729, 3899.530
912.6550, 3930.401
913.1371, 3959.711
913.6192, 3991.597
914.1013, 4026.058
914.5834, 4064.724
915.0656, 4109.914
915.5477, 4159.542
916.0298, 4210.302
916.5119, 4265.279
916.9940, 4309.867
917.4761, 4334.647
917.9583, 4362.291
918.4404, 4403.066
918.9225, 4444.520
919.4046, 4473.923
919.8867, 4495.575
920.3688, 4525.947
920.8510, 4570.456
921.3331, 4614.663
921.8152, 4652.702
922.2973, 4694.444
922.7794, 4751.694
923.2615, 4810.729
923.7437, 4859.117
924.2258, 4894.164
924.7079, 4908.936
925.1900, 4883.772
925.6721, 4867.305
926.1542, 4892.375
926.6364, 4921.639
927.1185, 4921.189
927.6006, 4904.905
928.0827, 4899.540
928.5648, 4910.780
929.0469, 4926.889
929.5291, 4947.446
930.0112, 4963.394
930.4933, 4969.426
930.9754, 4966.015
931.4575, 4948.484
931.9396, 4922.608
932.4218, 4904.830
932.9039, 4900.761
933.3860, 4894.509
933.8681, 4871.594
934.3502, 4839.511
934.8323, 4801.027
935.3145, 4763.267
935.7966, 4742.779
936.2787, 4739.637
936.7608, 4744.206
937.2429, 4752.179
937.7250, 4753.584
938.2072, 4730.686
938.6893, 4694.359
939.1714, 4670.053
939.6535, 4655.287
940.1356, 4637.371
940.6177, 4613.912
941.0999, 4592.877
941.5820, 4579.884
942.0641, 4572.365
942.5462, 4570.651
943.0283, 4571.002
943.5104, 4549.422
943.9926, 4507.024
944.4747, 4470.748
944.9568, 4448.967
945.4389, 4432.491
945.9210, 4413.961
946.4031, 4392.801
946.8853, 4363.778
947.3674, 4326.972
947.8495, 4308.928
948.3316, 4313.524
948.8137, 4309.922
949.2958, 4284.905
949.7780, 4254.202
950.2601, 4235.781
950.7422, 4226.782
951.2243, 4211.271
951.7064, 4187.765
952.1885, 4167.680
952.6707, 4152.803
953.1528, 4140.482
953.6349, 4133.200
954.1170, 4119.427
954.5991, 4079.489
955.0812, 4015.618
955.5634, 3973.460
956.0455, 3959.045
956.5276, 3949.869
957.0097, 3950.698
957.4918, 3939.551
957.9739, 3896.332
958.4561, 3843.256
958.9382, 3819.126
959.4203, 3826.943
959.9024, 3819.128
960.3845, 3786.538
960.8666, 3756.301
961.3488, 3729.442
961.8309, 3710.315
962.3130, 3712.618
962.7951, 3718.929
963.2772, 3691.189
963.7593, 3620.065
964.2415, 3564.758
964.7236, 3527.407
965.2057, 3502.781
965.6878, 3504.596
966.1699, 3504.580
966.6520, 3483.510
967.1342, 3447.521
967.6163, 3407.864
968.0984, 3359.391
968.5805, 3329.279
969.0626, 3339.946
969.5447, 3340.623
970.0269, 3313.320
970.5090, 3276.276
970.9911, 3237.739
971.4732, 3201.375
971.9553, 3177.175
972.4374, 3171.264
972.9196, 3158.686
973.4017, 3124.848
973.8838, 3097.884
974.3659, 3094.444
974.8480, 3096.433
975.3301, 3086.928
975.8123, 3069.145
976.2944, 3057.813
976.7765, 3061.176
977.2586, 3051.141
977.7407, 3009.569
978.2228, 2967.863
978.7050, 2939.493
979.1871, 2917.892
979.6692, 2893.201
980.1513, 2868.864
980.6334, 2860.014
981.1155, 2876.548
981.5977, 2887.808
982.0798, 2883.839
982.5619, 2873.409
983.0440, 2853.484
983.5261, 2834.850
984.0082, 2835.349
984.4904, 2848.335
984.9725, 2843.341
985.4546, 2802.939
985.9367, 2772.387
986.4188, 2779.328
986.9009, 2787.760
987.3831, 2774.786
987.8652, 2752.817
988.3473, 2736.676
988.8294, 2726.823
989.3115, 2716.041
989.7936, 2700.107
990.2758, 2689.224
990.7579, 2692.020
991.2400, 2696.422
991.7221, 2698.318
992.2042, 2694.930
992.6863, 2681.208
993.1685, 2659.135
993.6506, 2636.788
994.1327, 2612.707
994.6148, 2601.026
995.0969, 2623.740
995.5790, 2644.147
996.0612, 2631.755
996.5433, 2605.778
997.0254, 2588.071
997.5075, 2581.973
997.9896, 2586.745
998.4717, 2608.511
998.9539, 2621.627
999.4360, 2605.131
999.9181, 2585.660
1000.400, 2580.524
1000.882, 2584.364
1001.364, 2591.279
1001.847, 2599.355
1002.329, 2606.240
1002.811, 2611.466
1003.293, 2614.370
1003.775, 2616.868
1004.257, 2614.569
1004.739, 2600.432
1005.221, 2582.316
1005.703, 2568.062
1006.186, 2559.495
1006.668, 2558.026
1007.150, 2565.740
1007.632, 2575.308
1008.114, 2586.870
1008.596, 2595.329
1009.078, 2594.080
1009.560, 2590.036
1010.043, 2593.532
1010.525, 2602.508
1011.007, 2604.359
1011.489, 2591.853
1011.971, 2584.666
1012.453, 2601.584
1012.935, 2614.560
1013.417, 2593.069
1013.899, 2568.118
1014.382, 2582.553
1014.864, 2626.364
1015.346, 2653.344
1015.828, 2646.956
1016.310, 2640.071
1016.792, 2650.647
1017.274, 2657.630
1017.756, 2641.482
1018.239, 2622.353
1018.721, 2622.916
1019.203, 2639.025
1019.685, 2653.271
1020.167, 2662.098
1020.649, 2666.643
1021.131, 2663.436
1021.613, 2660.831
1022.095, 2662.654
1022.578, 2666.866
1023.060, 2672.047
1023.542, 2677.841
1024.024, 2685.031
1024.506, 2694.961
1024.988, 2698.171
1025.470, 2682.727
1025.952, 2672.552
1026.435, 2681.790
1026.917, 2694.981
1027.399, 2702.256
1027.881, 2702.999
1028.363, 2696.323
1028.845, 2680.877
1029.327, 2668.941
1029.809, 2658.030
1030.292, 2657.410
1030.774, 2684.184
1031.256, 2707.377
1031.738, 2699.236
1032.220, 2675.739
1032.702, 2666.059
1033.184, 2673.060
1033.666, 2682.850
1034.148, 2691.315
1034.630, 2706.444
1035.113, 2745.062
1035.595, 2773.804
1036.077, 2764.460
1036.559, 2738.978
1037.041, 2728.766
1037.523, 2734.568
1038.005, 2746.370
1038.487, 2776.716
1038.970, 2792.286
1039.452, 2777.588
1039.934, 2765.665
1040.416, 2775.011
1040.898, 2791.071
1041.380, 2797.578
1041.862, 2794.887
1042.344, 2786.542
1042.826, 2769.697
1043.309, 2753.541
1043.791, 2738.507
1044.273, 2723.828
1044.755, 2708.322
1045.237, 2693.937
1045.719, 2681.417
1046.201, 2671.894
1046.683, 2672.957
1047.166, 2695.013
1047.648, 2690.149
1048.130, 2649.248
1048.612, 2606.232
1049.094, 2567.995
1049.576, 2539.681
1050.058, 2528.639
1050.540, 2527.122
1051.022, 2513.294
1051.505, 2485.504
1051.987, 2462.479
1052.469, 2445.251
1052.951, 2425.239
1053.433, 2398.184
1053.915, 2382.175
1054.397, 2391.915
1054.879, 2411.206
1055.361, 2409.434
1055.844, 2388.532
1056.326, 2370.787
1056.808, 2356.080
1057.290, 2345.311
1057.772, 2338.699
1058.254, 2328.309
1058.736, 2309.626
1059.218, 2289.301
1059.701, 2274.614
1060.183, 2266.744
1060.665, 2274.771
1061.147, 2294.281
1061.629, 2298.786
1062.111, 2287.268
1062.593, 2277.807
1063.075, 2277.369
1063.557, 2277.975
1064.040, 2270.133
1064.522, 2262.390
1065.004, 2277.692
1065.486, 2302.837
1065.968, 2303.752
1066.450, 2283.615
1066.932, 2258.899
1067.414, 2236.254
1067.896, 2224.916
1068.379, 2233.804
1068.861, 2246.740
1069.343, 2244.263
1069.825, 2235.416
1070.307, 2234.314
1070.789, 2236.164
1071.271, 2226.588
1071.753, 2207.813
1072.236, 2199.054
1072.718, 2209.956
1073.200, 2224.716
1073.682, 2233.025
1074.164, 2239.169
1074.646, 2250.589
1075.128, 2259.204
1075.610, 2247.784
1076.093, 2226.060
1076.575, 2223.474
1077.057, 2248.423
1077.539, 2270.834
1078.021, 2276.800
1078.503, 2278.483
1078.985, 2277.566
1079.467, 2278.235
1079.949, 2285.611
1080.432, 2295.804
1080.914, 2301.370
1081.396, 2301.850
1081.878, 2305.758
1082.360, 2311.961
1082.842, 2325.829
1083.324, 2360.637
1083.806, 2388.299
1084.288, 2387.308
1084.771, 2379.402
1085.253, 2390.484
1085.735, 2415.865
1086.217, 2433.391
1086.699, 2449.488
1087.181, 2438.280
1087.663, 2377.855
1088.145, 2335.594
1088.628, 2336.408
1089.110, 2346.236
1089.592, 2342.320
1090.074, 2327.761
1090.556, 2307.752
1091.038, 2281.850
1091.520, 2265.020
1092.002, 2259.144
1092.484, 2250.404
1092.967, 2235.951
1093.449, 2221.904
1093.931, 2210.441
1094.413, 2205.832
1094.895, 2215.496
1095.377, 2233.965
1095.859, 2241.100
1096.341, 2237.943
1096.823, 2229.024
1097.306, 2216.369
1097.788, 2216.892
1098.270, 2234.735
1098.752, 2245.559
1099.234, 2228.016
1099.716, 2201.532
1100.198, 2193.934
1100.680, 2200.134
1101.163, 2216.299
1101.645, 2235.583
1102.127, 2240.033
1102.609, 2229.967
1103.091, 2220.779
1103.573, 2219.544
1104.055, 2223.388
1104.537, 2240.250
1105.020, 2250.134
1105.502, 2218.994
1105.984, 2182.058
1106.466, 2188.068
1106.948, 2222.554
1107.430, 2245.482
1107.912, 2248.467
1108.394, 2250.486
1108.876, 2266.980
1109.359, 2272.190
1109.841, 2241.539
1110.323, 2213.538
1110.805, 2215.284
1111.287, 2230.655
1111.769, 2241.351
1112.251, 2246.487
1112.733, 2248.395
1113.215, 2241.354
1113.698, 2246.075
1114.180, 2277.153
1114.662, 2297.210
1115.144, 2290.213
1115.626, 2281.357
1116.108, 2289.778
1116.590, 2304.968
1117.072, 2306.071
1117.555, 2292.982
1118.037, 2290.314
1118.519, 2300.739
1119.001, 2305.525
1119.483, 2301.149
1119.965, 2301.826
1120.447, 2315.096
1120.929, 2323.140
1121.411, 2303.970
1121.894, 2274.825
1122.376, 2289.933
1122.858, 2336.701
1123.340, 2346.132
1123.822, 2322.022
1124.304, 2299.858
1124.786, 2288.386
1125.268, 2283.507
1125.750, 2283.295
1126.233, 2282.242
1126.715, 2271.478
1127.197, 2258.543
1127.679, 2254.055
1128.161, 2254.544
1128.643, 2253.123
1129.125, 2251.751
1129.607, 2260.433
1130.090, 2279.938
1130.572, 2290.558
1131.054, 2276.421
1131.536, 2261.799
1132.018, 2261.649
1132.500, 2262.704
1132.982, 2249.807
1133.464, 2237.284
1133.947, 2246.933
1134.429, 2273.309
1134.911, 2289.523
1135.393, 2289.230
1135.875, 2289.527
1136.357, 2298.474
1136.839, 2297.122
1137.321, 2269.672
1137.803, 2250.464
1138.286, 2266.171
1138.768, 2292.333
1139.250, 2290.622
1139.732, 2265.260
1140.214, 2258.475
1140.696, 2274.031
1141.178, 2276.952
1141.660, 2263.439
1142.142, 2255.513
1142.625, 2260.488
1143.107, 2268.708
1143.589, 2273.538
1144.071, 2272.745
1144.553, 2252.635
1145.035, 2226.978
1145.517, 2249.262
1145.999, 2300.681
1146.482, 2320.594
1146.964, 2307.153
1147.446, 2291.049
1147.928, 2284.384
1148.410, 2284.128
1148.892, 2293.482
1149.374, 2298.999
1149.856, 2284.092
1150.339, 2263.927
1150.821, 2249.339
1151.303, 2242.418
1151.785, 2248.005
1152.267, 2262.710
1152.749, 2271.724
1153.231, 2269.187
1153.713, 2269.981
1154.195, 2285.143
1154.677, 2293.488
1155.160, 2281.056
1155.642, 2268.277
1156.124, 2267.088
1156.606, 2273.695
1157.088, 2285.143
1157.570, 2300.170
1158.052, 2302.959
1158.534, 2290.615
1159.017, 2278.489
1159.499, 2266.590
1159.981, 2259.496
1160.463, 2258.632
1160.945, 2263.668
1161.427, 2275.633
1161.909, 2286.689
1162.391, 2279.394
1162.874, 2262.022
1163.356, 2264.436
1163.838, 2280.542
1164.320, 2292.749
1164.802, 2298.674
1165.284, 2297.897
1165.766, 2291.460
1166.248, 2289.174
1166.730, 2301.271
1167.213, 2310.065
1167.695, 2297.031
1168.177, 2278.309
1168.659, 2265.495
1169.141, 2257.755
1169.623, 2251.258
1170.105, 2248.098
1170.587, 2257.356
1171.069, 2283.226
1171.552, 2299.302
1172.034, 2289.350
1172.516, 2287.786
1172.998, 2310.103
1173.480, 2326.592
1173.962, 2320.712
1174.444, 2309.201
1174.926, 2310.563
1175.409, 2319.582
1175.891, 2317.484
1176.373, 2303.313
1176.855, 2290.749
1177.337, 2279.680
1177.819, 2274.057
1178.301, 2274.528
1178.783, 2277.763
1179.266, 2282.145
1179.748, 2285.833
1180.230, 2285.768
1180.712, 2285.879
1181.194, 2299.035
1181.676, 2312.543
1182.158, 2299.392
1182.640, 2270.923
1183.122, 2249.286
1183.604, 2239.811
1184.087, 2244.241
1184.569, 2264.976
1185.051, 2285.925
1185.533, 2303.896
1186.015, 2314.838
1186.497, 2314.303
1186.979, 2309.133
1187.461, 2302.082
1187.944, 2294.532
1188.426, 2287.116
1188.908, 2280.429
1189.390, 2278.777
1189.872, 2284.623
1190.354, 2286.487
1190.836, 2283.394
1191.318, 2279.633
1191.801, 2275.165
1192.283, 2277.640
1192.765, 2292.022
1193.247, 2310.873
1193.729, 2326.693
1194.211, 2337.392
1194.693, 2336.746
1195.175, 2327.374
1195.657, 2310.643
1196.140, 2292.773
1196.622, 2293.584
1197.104, 2311.702
1197.586, 2322.118
1198.068, 2313.289
1198.550, 2301.294
1199.032, 2292.851
1199.514, 2288.475
1199.996, 2287.830
1200.479, 2291.961
1200.961, 2310.964
1201.443, 2329.624
1201.925, 2319.130
1202.407, 2284.571
1202.889, 2273.698
1203.371, 2297.110
1203.853, 2310.335
1204.336, 2309.769
1204.818, 2311.133
1205.300, 2318.532
1205.782, 2323.673
1206.264, 2322.052
1206.746, 2316.818
1207.228, 2312.083
1207.710, 2305.647
1208.193, 2284.912
1208.675, 2260.330
1209.157, 2269.156
1209.639, 2300.059
1210.121, 2317.003
1210.603, 2315.587
1211.085, 2307.932
1211.567, 2298.590
1212.049, 2296.610
1212.531, 2316.517
1213.014, 2333.061
1213.496, 2331.327
1213.978, 2323.311
1214.460, 2313.072
1214.942, 2304.492
1215.424, 2302.299
1215.906, 2305.384
1216.388, 2309.268
1216.871, 2314.086
1217.353, 2320.299
1217.835, 2331.582
1218.317, 2324.435
1218.799, 2290.802
1219.281, 2274.319
1219.763, 2293.958
1220.245, 2326.006
1220.728, 2351.966
1221.210, 2364.900
1221.692, 2343.739
1222.174, 2305.992
1222.656, 2285.808
1223.138, 2278.543
1223.620, 2272.278
1224.102, 2268.143
1224.584, 2276.959
1225.067, 2299.982
1225.549, 2318.459
1226.031, 2324.510
1226.513, 2324.403
1226.995, 2308.449
1227.477, 2301.988
1227.959, 2330.750
1228.441, 2357.509
1228.923, 2349.771
1229.406, 2327.016
1229.888, 2324.064
1230.370, 2338.171
1230.852, 2337.548
1231.334, 2321.288
##END=



