##NAMES=Veszelyite
##RRUFFID=R070312
##IDEAL CHEMISTRY=Cu^2+^_3_PO_4_(OH)_3_&#183;2H_2_O
##LOCALITY=Black Pine mine, Flint Creek Valley, near Philipsburg, Granite County, Montana, USA
##OWNER=RRUFF
##SOURCE=James Shigley
##DESCRIPTION=Blue prismatic crystals associated with pyromorphite and quartz
##STATUS=The identification of this mineral is confirmed by single-crystal X-ray diffraction and chemical analysis.
##URL=rruff.info/R070312
##MEASURED CHEMISTRY=(Cu^2+^_1.79_Zn_1.21_)_Σ=3_(P_1.00_O_4_)(OH)_3_·2H_2_O; H_2_O estimated by difference; OH by charge balance
157.1782, 757.7386
157.6603, 751.8339
158.1424, 750.2670
158.6245, 761.7750
159.1066, 780.6362
159.5887, 792.4762
160.0709, 786.4126
160.5530, 773.9749
161.0351, 774.3969
161.5172, 792.1381
161.9993, 807.5148
162.4814, 802.4303
162.9636, 785.0317
163.4457, 769.0130
163.9278, 757.4847
164.4099, 750.7004
164.8920, 750.9523
165.3741, 761.1029
165.8563, 770.2277
166.3384, 768.4012
166.8205, 761.1751
167.3026, 758.0143
167.7847, 763.8275
168.2668, 775.7798
168.7490, 789.0406
169.2311, 806.2003
169.7132, 818.5771
170.1953, 819.9691
170.6774, 814.3442
171.1595, 807.2551
171.6417, 800.1818
172.1238, 793.7004
172.6059, 790.2455
173.0880, 793.0510
173.5701, 792.1136
174.0522, 779.7438
174.5344, 761.8567
175.0165, 746.9601
175.4986, 739.0879
175.9807, 736.8361
176.4628, 736.4074
176.9449, 737.9444
177.4271, 741.2889
177.9092, 749.6029
178.3913, 758.6686
178.8734, 762.4930
179.3555, 757.5021
179.8376, 746.0140
180.3197, 733.9836
180.8019, 718.3207
181.2840, 708.1209
181.7661, 706.7768
182.2482, 711.2742
182.7303, 719.0276
183.2124, 730.0585
183.6946, 741.5142
184.1767, 744.3393
184.6588, 732.5236
185.1409, 722.2969
185.6230, 718.3593
186.1051, 718.0098
186.5873, 718.7133
187.0694, 719.6910
187.5515, 719.9323
188.0336, 716.0656
188.5157, 703.8816
188.9978, 695.0237
189.4800, 693.4658
189.9621, 695.3456
190.4442, 697.1715
190.9263, 697.5484
191.4084, 696.2132
191.8905, 692.1245
192.3727, 682.7446
192.8548, 675.1078
193.3369, 670.8950
193.8190, 668.4147
194.3011, 666.2130
194.7832, 663.7235
195.2654, 660.9925
195.7475, 658.5579
196.2296, 658.6558
196.7117, 654.4213
197.1938, 640.8744
197.6759, 625.5990
198.1581, 615.1252
198.6402, 611.6187
199.1223, 612.7964
199.6044, 615.2608
200.0865, 622.2245
200.5686, 623.6085
201.0508, 615.7581
201.5329, 604.8476
202.0150, 595.6010
202.4971, 589.2866
202.9792, 584.0488
203.4613, 577.0624
203.9435, 568.3811
204.4256, 557.6259
204.9077, 539.8046
205.3898, 523.5767
205.8719, 515.9190
206.3540, 517.6929
206.8362, 523.4595
207.3183, 525.9141
207.8004, 523.6931
208.2825, 521.4486
208.7646, 520.2934
209.2467, 518.3286
209.7289, 513.7655
210.2110, 506.8037
210.6931, 499.5205
211.1752, 494.2921
211.6573, 491.4820
212.1395, 489.5919
212.6216, 489.9989
213.1037, 490.1041
213.5858, 488.3566
214.0679, 484.9493
214.5500, 481.2406
215.0322, 478.6377
215.5143, 477.3958
215.9964, 475.6030
216.4785, 470.4830
216.9606, 467.3685
217.4427, 469.4045
217.9249, 475.4754
218.4070, 482.2472
218.8891, 487.2107
219.3712, 490.3701
219.8533, 491.5221
220.3354, 487.9607
220.8176, 484.9322
221.2997, 484.6731
221.7818, 486.0406
222.2639, 486.4594
222.7460, 483.9060
223.2281, 478.7671
223.7103, 475.4187
224.1924, 474.4002
224.6745, 474.8411
225.1566, 477.2301
225.6387, 480.8186
226.1208, 484.4319
226.6030, 487.2788
227.0851, 489.8818
227.5672, 494.5982
228.0493, 504.3214
228.5314, 512.2803
229.0135, 517.9156
229.4957, 521.0852
229.9778, 520.7130
230.4599, 516.1452
230.9420, 510.0035
231.4241, 509.0688
231.9062, 517.0367
232.3884, 524.1160
232.8705, 529.1840
233.3526, 532.8797
233.8347, 535.4163
234.3168, 536.9184
234.7989, 538.2426
235.2811, 541.1740
235.7632, 547.2467
236.2453, 551.2205
236.7274, 552.3941
237.2095, 551.8516
237.6916, 549.5294
238.1738, 545.7394
238.6559, 542.0494
239.1380, 540.9302
239.6201, 543.6843
240.1022, 544.1187
240.5843, 539.1576
241.0665, 534.1776
241.5486, 532.3161
242.0307, 533.2827
242.5128, 534.2811
242.9949, 532.6172
243.4770, 528.0992
243.9592, 523.0897
244.4413, 515.7175
244.9234, 509.6547
245.4055, 506.9231
245.8876, 506.7124
246.3697, 506.8545
246.8519, 505.9285
247.3340, 503.9941
247.8161, 501.3742
248.2982, 495.5039
248.7803, 492.6297
249.2624, 496.8945
249.7446, 504.9356
250.2267, 511.3764
250.7088, 513.3332
251.1909, 511.8789
251.6730, 509.7456
252.1551, 505.8918
252.6373, 503.5550
253.1194, 504.8552
253.6015, 507.5765
254.0836, 509.0172
254.5657, 507.8655
255.0478, 506.3962
255.5300, 508.7667
256.0121, 516.1783
256.4942, 522.8514
256.9763, 525.8237
257.4584, 528.1777
257.9406, 532.7502
258.4227, 540.2187
258.9048, 547.4026
259.3869, 550.8991
259.8690, 550.5879
260.3511, 549.2814
260.8333, 546.3590
261.3154, 543.5773
261.7975, 542.0882
262.2796, 541.9317
262.7617, 542.5981
263.2438, 545.2080
263.7260, 548.9207
264.2081, 548.0287
264.6902, 538.5403
265.1723, 529.6774
265.6544, 528.5995
266.1365, 533.6196
266.6187, 539.4376
267.1008, 545.8954
267.5829, 551.0471
268.0650, 549.0151
268.5471, 537.0275
269.0292, 526.5008
269.5114, 527.9120
269.9935, 536.0117
270.4756, 542.2816
270.9577, 543.6918
271.4398, 543.0710
271.9219, 543.0053
272.4041, 543.4773
272.8862, 545.5328
273.3683, 551.7360
273.8504, 558.8110
274.3325, 560.3791
274.8146, 553.3702
275.2968, 545.8874
275.7789, 544.2795
276.2610, 547.0590
276.7431, 547.7877
277.2252, 543.3934
277.7073, 537.0277
278.1895, 534.7051
278.6716, 537.7372
279.1537, 538.1229
279.6358, 531.4475
280.1179, 520.5880
280.6000, 509.2623
281.0822, 497.6853
281.5643, 489.3113
282.0464, 490.5347
282.5285, 502.5533
283.0106, 508.6918
283.4927, 502.4179
283.9749, 492.4285
284.4570, 486.1424
284.9391, 484.2035
285.4212, 484.2262
285.9033, 485.0305
286.3854, 486.4256
286.8676, 484.4046
287.3497, 476.6992
287.8318, 468.1222
288.3139, 460.3565
288.7960, 453.5325
289.2781, 447.6545
289.7603, 442.6728
290.2424, 438.7054
290.7245, 436.4414
291.2066, 437.5627
291.6887, 438.1797
292.1708, 436.9281
292.6530, 435.1376
293.1351, 435.1846
293.6172, 437.8271
294.0993, 440.5586
294.5814, 438.7031
295.0635, 428.1458
295.5457, 420.6893
296.0278, 418.5652
296.5099, 417.7221
296.9920, 415.2336
297.4741, 410.8630
297.9562, 406.4151
298.4384, 404.0221
298.9205, 404.3298
299.4026, 402.0785
299.8847, 391.1836
300.3668, 383.8552
300.8489, 387.0884
301.3311, 397.2060
301.8131, 406.2155
302.2953, 408.8950
302.7774, 406.2014
303.2595, 402.6413
303.7416, 395.1808
304.2237, 391.6387
304.7058, 395.8957
305.1880, 403.4298
305.6701, 409.9145
306.1522, 413.7995
306.6343, 415.1841
307.1164, 413.4150
307.5985, 407.1669
308.0807, 402.7439
308.5628, 401.3292
309.0449, 402.1280
309.5270, 405.8056
310.0091, 412.0611
310.4912, 418.2357
310.9734, 423.0443
311.4555, 426.2877
311.9376, 425.0794
312.4197, 416.6232
312.9018, 407.3011
313.3839, 399.4720
313.8661, 393.7527
314.3482, 392.1720
314.8303, 399.5722
315.3124, 409.9438
315.7945, 411.3292
316.2766, 402.0971
316.7588, 393.4586
317.2409, 392.2375
317.7230, 395.2654
318.2051, 397.3454
318.6872, 397.6591
319.1693, 397.3241
319.6515, 396.7755
320.1336, 396.1571
320.6157, 396.5888
321.0978, 399.4580
321.5799, 401.9279
322.0620, 397.8442
322.5442, 385.6470
323.0263, 377.6458
323.5084, 380.6622
323.9905, 388.3658
324.4726, 393.0091
324.9547, 393.2966
325.4369, 390.7902
325.9190, 386.2134
326.4011, 379.2708
326.8832, 375.2902
327.3653, 374.3679
327.8474, 376.1376
328.3296, 383.0287
328.8117, 392.8192
329.2938, 399.1558
329.7759, 398.0327
330.2580, 391.1518
330.7401, 386.2555
331.2223, 384.7147
331.7044, 383.4550
332.1865, 383.1260
332.6686, 382.4825
333.1507, 378.7143
333.6328, 371.4375
334.1150, 365.2339
334.5971, 368.1128
335.0792, 386.4743
335.5613, 396.3368
336.0434, 391.8507
336.5255, 385.1186
337.0077, 381.7721
337.4898, 381.7574
337.9719, 382.3437
338.4540, 381.2593
338.9361, 378.8303
339.4182, 378.2511
339.9004, 382.0132
340.3825, 383.8620
340.8646, 379.8845
341.3467, 373.9223
341.8288, 370.9383
342.3109, 372.9699
342.7931, 377.6617
343.2752, 381.9309
343.7573, 385.8345
344.2394, 388.9490
344.7215, 391.2349
345.2036, 392.5611
345.6858, 391.6919
346.1679, 388.7579
346.6500, 388.1714
347.1321, 395.8603
347.6142, 407.9783
348.0963, 412.8422
348.5785, 407.3768
349.0606, 400.6927
349.5427, 400.6632
350.0248, 405.2527
350.5069, 408.5802
350.9890, 407.7920
351.4712, 406.8363
351.9533, 408.9075
352.4354, 413.7013
352.9175, 419.6335
353.3996, 426.1312
353.8817, 433.1108
354.3639, 440.7095
354.8460, 450.4372
355.3281, 457.6017
355.8102, 458.8693
356.2923, 458.0433
356.7744, 459.8241
357.2566, 465.1393
357.7387, 471.4258
358.2208, 475.8055
358.7029, 477.8585
359.1850, 480.3111
359.6671, 480.5496
360.1493, 483.6315
360.6314, 495.1604
361.1135, 511.1938
361.5956, 522.9708
362.0777, 525.0371
362.5598, 520.2360
363.0420, 519.3984
363.5241, 528.4599
364.0062, 531.6930
364.4883, 519.2482
364.9704, 505.8312
365.4525, 505.1526
365.9347, 519.4864
366.4168, 538.8577
366.8989, 552.5749
367.3810, 560.4567
367.8631, 567.5530
368.3452, 575.8398
368.8274, 580.9340
369.3095, 578.7273
369.7916, 571.9084
370.2737, 566.7984
370.7558, 566.0524
371.2379, 568.9381
371.7201, 576.5598
372.2022, 589.9596
372.6843, 597.6465
373.1664, 590.9966
373.6485, 577.9177
374.1306, 570.4555
374.6128, 569.7399
375.0949, 571.8350
375.5770, 575.8934
376.0591, 581.1389
376.5412, 587.0842
377.0233, 594.0895
377.5055, 598.1027
377.9876, 593.8970
378.4697, 580.3951
378.9518, 569.6851
379.4339, 561.8964
379.9160, 556.9658
380.3982, 556.1251
380.8803, 558.2829
381.3624, 561.2889
381.8445, 564.3213
382.3266, 566.2161
382.8087, 563.3042
383.2909, 548.4467
383.7730, 538.1203
384.2551, 533.5819
384.7372, 533.0449
385.2193, 538.3672
385.7014, 547.8983
386.1836, 553.4075
386.6657, 544.1483
387.1478, 518.9330
387.6299, 502.6226
388.1120, 501.0349
388.5941, 502.1839
389.0763, 503.7286
389.5584, 504.9625
390.0405, 504.9955
390.5226, 503.3025
391.0047, 500.6884
391.4868, 497.9742
391.9690, 495.0043
392.4511, 493.7039
392.9332, 496.4939
393.4153, 499.4115
393.8974, 498.0886
394.3795, 492.5418
394.8617, 487.7704
395.3438, 486.7330
395.8259, 487.8518
396.3080, 488.6089
396.7901, 488.7788
397.2722, 488.9373
397.7544, 489.9548
398.2365, 491.2539
398.7186, 490.2312
399.2007, 484.2960
399.6828, 479.0056
400.1649, 476.7526
400.6471, 476.5047
401.1292, 477.4184
401.6113, 479.2353
402.0934, 479.5296
402.5755, 474.1810
403.0576, 459.9031
403.5398, 450.1283
404.0219, 447.5795
404.5040, 446.2468
404.9861, 443.5096
405.4682, 439.3634
405.9503, 434.6128
406.4325, 429.6947
406.9146, 424.7136
407.3967, 420.1587
407.8788, 416.3034
408.3609, 412.3248
408.8430, 406.0578
409.3252, 400.8869
409.8073, 400.6058
410.2894, 405.4316
410.7715, 410.2991
411.2536, 411.0844
411.7357, 408.2281
412.2179, 403.2450
412.7000, 394.8594
413.1821, 387.7016
413.6642, 387.9188
414.1463, 391.4758
414.6284, 389.8165
415.1106, 376.5708
415.5927, 363.5355
416.0748, 359.9789
416.5569, 363.7399
417.0390, 368.8735
417.5211, 373.8931
418.0033, 377.5633
418.4854, 377.7674
418.9675, 373.3546
419.4496, 369.1339
419.9317, 365.1626
420.4138, 361.5271
420.8960, 357.4215
421.3781, 353.5598
421.8602, 352.1117
422.3423, 354.6443
422.8244, 360.3219
423.3065, 365.7030
423.7887, 372.7146
424.2708, 376.1846
424.7529, 373.5989
425.2350, 368.9635
425.7171, 364.8080
426.1992, 361.8347
426.6814, 360.3875
427.1635, 361.1139
427.6456, 363.8734
428.1277, 366.7616
428.6098, 369.1667
429.0919, 372.9077
429.5741, 382.2394
430.0562, 392.6399
430.5383, 396.5857
431.0204, 390.3103
431.5025, 381.5945
431.9846, 375.5869
432.4668, 372.2686
432.9489, 372.5080
433.4310, 377.5361
433.9131, 382.6869
434.3952, 381.7231
434.8773, 373.8275
435.3595, 368.4577
435.8416, 367.5287
436.3237, 367.9941
436.8058, 368.9891
437.2879, 369.8436
437.7701, 368.7260
438.2522, 364.4690
438.7343, 359.2041
439.2164, 358.6690
439.6985, 367.3932
440.1806, 372.7798
440.6628, 372.3040
441.1449, 370.7483
441.6270, 370.5099
442.1091, 372.0139
442.5912, 375.3165
443.0733, 381.5168
443.5555, 389.1303
444.0376, 391.9221
444.5197, 388.3156
445.0018, 384.2755
445.4839, 379.8201
445.9660, 377.2648
446.4482, 380.0459
446.9303, 389.2525
447.4124, 398.3838
447.8945, 404.8678
448.3766, 408.1838
448.8587, 405.4713
449.3409, 395.8303
449.8230, 387.3140
450.3051, 386.4843
450.7872, 392.7520
451.2693, 398.3127
451.7514, 399.3419
452.2336, 404.1132
452.7157, 420.2962
453.1978, 440.0614
453.6799, 451.4672
454.1620, 451.4109
454.6441, 447.1842
455.1263, 448.6060
455.6084, 457.4727
456.0905, 461.7842
456.5726, 453.0898
457.0547, 448.4448
457.5368, 456.0782
458.0190, 470.4905
458.5011, 482.4449
458.9832, 487.7874
459.4653, 490.6999
459.9474, 497.4688
460.4295, 508.1373
460.9117, 517.9524
461.3938, 525.8749
461.8759, 532.8575
462.3580, 540.6392
462.8401, 548.6928
463.3222, 553.8251
463.8044, 553.3430
464.2865, 551.0403
464.7686, 548.9998
465.2507, 547.7927
465.7328, 549.8336
466.2149, 556.6494
466.6971, 565.5491
467.1792, 571.1581
467.6613, 571.4359
468.1434, 572.5665
468.6255, 573.4659
469.1076, 576.1234
469.5898, 583.0269
470.0719, 592.8732
470.5540, 602.5627
471.0361, 610.6824
471.5182, 615.9993
472.0003, 613.3497
472.4825, 597.6957
472.9646, 587.8985
473.4467, 594.6185
473.9288, 603.8104
474.4109, 605.1164
474.8930, 598.9564
475.3752, 595.2087
475.8573, 604.6756
476.3394, 618.1179
476.8215, 617.3203
477.3036, 601.7581
477.7857, 587.5815
478.2679, 581.9942
478.7500, 583.5959
479.2321, 590.3549
479.7142, 605.9804
480.1963, 616.7242
480.6784, 616.0370
481.1606, 611.9960
481.6427, 614.0995
482.1248, 621.2582
482.6069, 622.8126
483.0890, 609.4169
483.5711, 585.2572
484.0533, 574.1757
484.5354, 587.9417
485.0175, 595.5479
485.4996, 588.3963
485.9817, 577.0775
486.4638, 569.0493
486.9460, 565.4905
487.4281, 564.7311
487.9102, 567.8488
488.3923, 572.6535
488.8744, 572.5336
489.3565, 567.2365
489.8387, 557.8480
490.3208, 541.9319
490.8029, 523.7688
491.2850, 512.3196
491.7671, 509.5036
492.2492, 507.6058
492.7314, 506.3635
493.2135, 503.4324
493.6956, 493.3652
494.1777, 477.2739
494.6598, 465.2838
495.1419, 466.1213
495.6241, 477.0234
496.1062, 479.8481
496.5883, 465.8102
497.0704, 455.8436
497.5525, 457.2189
498.0346, 459.6889
498.5168, 452.4839
498.9989, 435.9256
499.4810, 421.3746
499.9631, 420.1260
500.4452, 428.2940
500.9273, 431.0129
501.4095, 427.2633
501.8916, 422.2514
502.3737, 417.2958
502.8558, 412.9174
503.3379, 410.4854
503.8200, 411.0538
504.3022, 409.2104
504.7843, 400.1636
505.2664, 389.2292
505.7485, 382.2769
506.2306, 379.7491
506.7127, 380.5649
507.1949, 384.8113
507.6770, 390.6689
508.1591, 389.9214
508.6412, 373.2916
509.1233, 363.6993
509.6054, 367.1346
510.0876, 373.9850
510.5697, 377.2248
511.0518, 376.7962
511.5339, 377.1593
512.0161, 383.0709
512.4982, 391.0810
512.9803, 389.7577
513.4624, 376.8635
513.9445, 368.4995
514.4266, 372.5354
514.9088, 381.9803
515.3909, 387.8145
515.8730, 389.8714
516.3551, 390.9555
516.8372, 392.5909
517.3193, 393.1440
517.8015, 389.5124
518.2836, 383.0178
518.7657, 379.1708
519.2478, 381.1246
519.7299, 386.4944
520.2120, 389.6494
520.6942, 389.7854
521.1763, 389.1508
521.6584, 386.0328
522.1405, 383.8286
522.6226, 385.8715
523.1047, 390.3356
523.5869, 392.1680
524.0690, 387.8757
524.5511, 381.5359
525.0332, 380.1513
525.5153, 383.6896
525.9974, 386.8487
526.4796, 387.9780
526.9617, 389.0194
527.4438, 393.3164
527.9259, 400.2611
528.4080, 403.3534
528.8901, 399.2260
529.3723, 393.4300
529.8544, 387.9180
530.3365, 383.3548
530.8186, 381.1255
531.3007, 381.6414
531.7828, 383.4665
532.2650, 384.7354
532.7471, 385.4520
533.2292, 385.5825
533.7113, 383.8446
534.1934, 383.0245
534.6755, 386.3035
535.1577, 390.0903
535.6398, 388.2665
536.1219, 378.4054
536.6040, 369.2764
537.0861, 372.0588
537.5682, 382.2508
538.0504, 383.8228
538.5325, 373.8304
539.0146, 363.6278
539.4967, 361.5691
539.9788, 365.9500
540.4609, 368.1039
540.9431, 366.2912
541.4252, 364.9280
541.9073, 365.1052
542.3894, 365.9956
542.8715, 366.5871
543.3536, 366.9619
543.8358, 368.1883
544.3179, 371.2323
544.8000, 375.7024
545.2821, 380.5270
545.7642, 387.4029
546.2463, 389.8633
546.7285, 379.0674
547.2106, 368.6664
547.6927, 372.0315
548.1748, 388.0627
548.6569, 399.8612
549.1390, 393.9044
549.6211, 384.3451
550.1032, 388.6080
550.5853, 403.7776
551.0674, 416.0502
551.5496, 419.9826
552.0317, 418.7013
552.5138, 417.2723
552.9959, 416.3767
553.4780, 412.8761
553.9601, 402.1506
554.4423, 394.1087
554.9244, 393.9366
555.4065, 398.6924
555.8886, 404.2611
556.3707, 409.2333
556.8528, 412.3852
557.3350, 412.6099
557.8171, 409.8419
558.2992, 390.6677
558.7813, 402.6715
559.2634, 408.0565
559.7455, 407.1786
560.2277, 381.2772
560.7098, 387.6881
561.1919, 381.1498
561.6740, 374.0805
562.1561, 385.0387
562.6382, 362.7779
563.1204, 373.6644
563.6025, 362.4010
564.0846, 346.9070
564.5667, 331.8889
565.0488, 318.1924
565.5309, 309.1427
566.0131, 306.0440
566.4952, 304.2973
566.9773, 302.2777
567.4594, 302.1812
567.9415, 307.3583
568.4236, 316.3371
568.9058, 322.4216
569.3879, 321.1349
569.8700, 317.2396
570.3521, 315.1229
570.8342, 314.4313
571.3163, 314.0900
571.7985, 313.8067
572.2806, 313.5062
572.7627, 313.3620
573.2448, 313.6575
573.7269, 311.3319
574.2090, 299.7598
574.6912, 293.5699
575.1733, 300.5467
575.6554, 312.6378
576.1375, 321.5471
576.6196, 325.2193
577.1017, 325.5470
577.5839, 323.4460
578.0660, 319.3923
578.5481, 314.1806
579.0302, 307.4200
579.5123, 303.1811
579.9944, 303.6310
580.4766, 307.4369
580.9587, 312.5902
581.4408, 319.5995
581.9229, 325.6491
582.4050, 331.4613
582.8871, 335.1461
583.3693, 334.3756
583.8514, 330.5978
584.3335, 326.9155
584.8156, 324.7618
585.2977, 323.2132
585.7798, 320.7223
586.2620, 317.1875
586.7441, 313.7942
587.2262, 309.7476
587.7083, 307.2231
588.1904, 309.0448
588.6725, 312.7701
589.1547, 314.2548
589.6368, 312.1550
590.1189, 309.9306
590.6010, 310.5013
591.0831, 311.2003
591.5652, 307.1904
592.0474, 299.1611
592.5295, 293.2851
593.0116, 293.8817
593.4937, 298.9208
593.9758, 302.2088
594.4579, 303.2006
594.9401, 303.6994
595.4222, 302.8187
595.9043, 302.4124
596.3864, 303.2863
596.8685, 305.3902
597.3506, 308.6914
597.8328, 314.0055
598.3149, 318.8636
598.7970, 321.6664
599.2791, 322.2294
599.7612, 319.0134
600.2433, 311.6931
600.7255, 304.8649
601.2076, 302.2563
601.6897, 303.6142
602.1718, 306.9357
602.6539, 316.4031
603.1360, 322.0174
603.6182, 320.8519
604.1003, 317.3590
604.5824, 313.3276
605.0645, 309.8752
605.5466, 309.4511
606.0287, 314.8190
606.5109, 322.1103
606.9930, 325.5776
607.4751, 325.5567
607.9572, 324.6437
608.4393, 323.4352
608.9214, 321.4352
609.4036, 317.0178
609.8857, 310.1899
610.3678, 310.1917
610.8499, 324.2942
611.3320, 335.3324
611.8141, 337.8636
612.2963, 336.3875
612.7784, 334.1403
613.2605, 332.3567
613.7426, 332.7597
614.2247, 338.1619
614.7068, 345.4229
615.1890, 344.7386
615.6711, 335.5171
616.1532, 332.8375
616.6353, 344.4005
617.1174, 357.9336
617.5995, 357.8027
618.0817, 343.6644
618.5638, 336.4763
619.0459, 343.5187
619.5280, 350.1396
620.0101, 349.6664
620.4922, 346.1035
620.9744, 346.0010
621.4565, 349.7420
621.9386, 350.2051
622.4207, 338.3183
622.9028, 319.1597
623.3849, 314.7631
623.8671, 328.0527
624.3492, 339.2800
624.8313, 343.3193
625.3134, 341.8731
625.7955, 334.7431
626.2776, 322.3142
626.7598, 313.0871
627.2419, 306.8381
627.7240, 305.5759
628.2061, 316.1851
628.6882, 330.1140
629.1703, 332.7809
629.6525, 322.1666
630.1346, 311.2576
630.6167, 314.3347
631.0988, 327.8032
631.5809, 330.4500
632.0630, 319.3021
632.5452, 308.7933
633.0273, 302.1703
633.5094, 299.0939
633.9915, 299.7488
634.4736, 303.9361
634.9557, 308.4495
635.4379, 315.5422
635.9200, 319.7471
636.4021, 316.4380
636.8842, 308.7954
637.3663, 300.9118
637.8484, 294.1937
638.3306, 289.5348
638.8127, 288.2527
639.2948, 289.7467
639.7769, 290.4022
640.2590, 290.0682
640.7411, 289.3777
641.2233, 287.9198
641.7054, 286.7575
642.1875, 286.8204
642.6696, 288.0826
643.1517, 290.4565
643.6339, 295.9099
644.1160, 300.3513
644.5981, 301.6169
645.0802, 300.3886
645.5623, 296.3045
646.0444, 290.0879
646.5266, 286.1302
647.0087, 289.2699
647.4908, 297.6354
647.9729, 302.1898
648.4550, 302.0002
648.9371, 301.5360
649.4193, 301.4323
649.9014, 301.9792
650.3835, 304.3321
650.8656, 308.0084
651.3477, 309.4212
651.8298, 306.0149
652.3120, 302.4524
652.7941, 301.5180
653.2762, 301.4297
653.7583, 298.6037
654.2404, 293.3053
654.7225, 290.5278
655.2047, 294.8273
655.6868, 304.0087
656.1689, 311.1549
656.6510, 316.2791
657.1331, 319.4058
657.6152, 321.1388
658.0974, 319.9895
658.5795, 311.9790
659.0616, 299.1811
659.5437, 291.2505
660.0258, 291.5004
660.5079, 293.6476
660.9901, 297.3596
661.4722, 300.7763
661.9543, 301.0080
662.4364, 298.6906
662.9185, 298.0099
663.4006, 302.4123
663.8828, 308.2126
664.3649, 305.9622
664.8470, 295.2886
665.3291, 289.3961
665.8112, 292.0002
666.2933, 295.4947
666.7755, 293.1114
667.2576, 286.9532
667.7397, 286.3677
668.2218, 298.1125
668.7039, 304.4269
669.1860, 296.9607
669.6682, 286.8726
670.1503, 283.0083
670.6324, 284.3259
671.1145, 285.2292
671.5966, 282.8397
672.0787, 279.7001
672.5609, 280.1606
673.0430, 283.4688
673.5251, 283.6031
674.0072, 279.3386
674.4893, 275.7484
674.9714, 275.7703
675.4536, 278.5594
675.9357, 282.1412
676.4178, 287.8109
676.8999, 291.4275
677.3820, 291.7816
677.8641, 291.1855
678.3463, 290.4940
678.8284, 289.7974
679.3105, 289.0463
679.7926, 288.2265
680.2747, 287.4236
680.7568, 286.5412
681.2390, 285.7859
681.7211, 285.5777
682.2032, 285.9467
682.6853, 287.6233
683.1674, 291.5929
683.6495, 294.7440
684.1317, 291.6608
684.6138, 280.5420
685.0959, 272.7856
685.5780, 268.2817
686.0601, 267.2802
686.5422, 272.0892
687.0244, 279.0907
687.5065, 284.9192
687.9886, 289.0679
688.4707, 292.2322
688.9528, 295.5217
689.4349, 297.4899
689.9171, 294.4485
690.3992, 288.7167
690.8813, 288.7999
691.3634, 296.7877
691.8455, 303.0111
692.3276, 296.5646
692.8098, 279.6523
693.2919, 272.3817
693.7740, 279.1574
694.2561, 285.8518
694.7382, 289.8077
695.2203, 292.9877
695.7025, 297.6435
696.1846, 302.8339
696.6667, 304.8535
697.1488, 300.7998
697.6309, 296.3850
698.1130, 294.6386
698.5952, 294.2574
699.0773, 294.1688
699.5594, 293.8922
700.0415, 292.3321
700.5236, 288.6260
701.0057, 284.2170
701.4879, 281.5170
701.9700, 280.4247
702.4521, 283.5226
702.9342, 292.6665
703.4163, 301.9482
703.8984, 308.8145
704.3806, 313.0359
704.8627, 314.0377
705.3448, 311.0495
705.8269, 307.3427
706.3090, 301.6910
706.7911, 297.0888
707.2733, 294.8259
707.7554, 295.0124
708.2375, 299.6631
708.7196, 308.8619
709.2017, 314.4277
709.6838, 304.7390
710.1660, 286.4751
710.6481, 276.6181
711.1302, 275.0770
711.6123, 276.6476
712.0944, 280.0610
712.5765, 283.4337
713.0587, 284.0718
713.5408, 281.7308
714.0229, 281.9114
714.5050, 286.9233
714.9871, 291.3364
715.4692, 294.2770
715.9514, 296.3398
716.4335, 298.6947
716.9156, 300.7939
717.3977, 299.9807
717.8798, 292.9191
718.3619, 285.8533
718.8441, 284.9006
719.3262, 286.8706
719.8083, 285.8695
720.2904, 281.5573
720.7725, 277.7497
721.2546, 277.0092
721.7368, 278.4778
722.2189, 280.0876
722.7010, 281.7103
723.1831, 284.7431
723.6652, 290.9650
724.1473, 295.2482
724.6295, 293.0494
725.1116, 287.5978
725.5937, 285.8160
726.0758, 289.1090
726.5579, 291.2493
727.0400, 289.1639
727.5222, 287.6002
728.0043, 290.6631
728.4864, 295.6964
728.9685, 297.8333
729.4506, 295.9923
729.9327, 293.9043
730.4149, 294.8999
730.8970, 298.0608
731.3791, 302.4899
731.8612, 307.7533
732.3433, 309.2564
732.8254, 305.3249
733.3076, 299.2993
733.7897, 293.9320
734.2718, 289.4825
734.7539, 289.4748
735.2360, 298.8988
735.7181, 304.3865
736.2003, 301.7653
736.6824, 297.4280
737.1645, 295.3026
737.6466, 294.6530
738.1287, 292.5106
738.6108, 286.2713
739.0930, 282.8772
739.5751, 288.8565
740.0572, 298.0099
740.5393, 304.1694
741.0214, 306.7174
741.5035, 305.9980
741.9857, 302.1473
742.4678, 296.8408
742.9499, 292.9164
743.4320, 290.0966
743.9141, 282.4595
744.3962, 267.6749
744.8784, 261.5196
745.3605, 273.9651
745.8426, 292.0469
746.3247, 297.6107
746.8068, 288.8792
747.2889, 284.1485
747.7711, 285.4486
748.2532, 287.8189
748.7353, 293.8502
749.2174, 297.6719
749.6995, 290.1424
750.1816, 274.6612
750.6638, 266.9235
751.1459, 278.0648
751.6280, 292.4302
752.1101, 294.3098
752.5922, 289.6042
753.0743, 290.4686
753.5565, 297.2722
754.0386, 301.4073
754.5207, 297.6671
755.0028, 289.5704
755.4849, 282.7175
755.9670, 276.5851
756.4492, 278.2197
756.9313, 292.2072
757.4134, 302.5278
757.8955, 300.1753
758.3776, 291.9463
758.8597, 288.4124
759.3419, 290.1238
759.8240, 290.0060
760.3061, 282.5794
760.7882, 279.1239
761.2703, 289.8467
761.7524, 302.7590
762.2346, 303.0271
762.7167, 291.4638
763.1988, 282.0264
763.6809, 283.7502
764.1630, 289.0057
764.6451, 288.9560
765.1273, 285.5688
765.6094, 283.3260
766.0915, 282.9584
766.5736, 284.6857
767.0557, 289.0103
767.5378, 293.8235
768.0200, 293.5176
768.5021, 286.3968
768.9842, 285.0517
769.4663, 292.9758
769.9484, 299.5727
770.4305, 299.6746
770.9127, 296.3313
771.3948, 294.1288
771.8769, 293.3046
772.3590, 290.6855
772.8411, 280.5456
773.3232, 275.0129
773.8054, 282.8052
774.2875, 294.8777
774.7696, 302.5479
775.2517, 304.7115
775.7338, 303.5350
776.2159, 299.1161
776.6981, 294.1637
777.1802, 291.5385
777.6623, 290.7404
778.1444, 291.2477
778.6265, 292.6863
779.1086, 292.7137
779.5908, 289.7719
780.0729, 286.4518
780.5550, 288.4932
781.0371, 296.8521
781.5192, 300.6685
782.0013, 298.6918
782.4835, 295.2203
782.9656, 289.3740
783.4477, 285.1917
783.9298, 289.9504
784.4119, 303.9650
784.8940, 311.9394
785.3762, 310.7812
785.8583, 306.6528
786.3404, 296.3250
786.8225, 287.5534
787.3046, 290.9070
787.7867, 301.9893
788.2689, 303.6665
788.7510, 284.6240
789.2331, 268.0421
789.7152, 280.1903
790.1973, 303.9761
790.6794, 311.5711
791.1616, 303.9147
791.6437, 295.7460
792.1258, 293.3738
792.6079, 292.7599
793.0900, 287.6485
793.5721, 278.9125
794.0543, 275.5283
794.5364, 278.0276
795.0185, 283.0596
795.5006, 291.2814
795.9827, 298.2251
796.4648, 298.6421
796.9470, 293.3482
797.4291, 291.1223
797.9112, 292.5506
798.3933, 296.3320
798.8754, 307.3171
799.3575, 315.7852
799.8397, 313.5769
800.3218, 305.5769
800.8039, 301.6155
801.2860, 304.4912
801.7681, 307.4243
802.2502, 308.3173
802.7324, 306.6276
803.2145, 299.8178
803.6966, 290.7007
804.1787, 283.8075
804.6608, 280.5727
805.1429, 281.1479
805.6251, 286.7165
806.1072, 294.7420
806.5893, 300.1369
807.0714, 303.0302
807.5535, 303.9385
808.0356, 302.8617
808.5178, 301.1713
808.9999, 299.6915
809.4820, 298.3763
809.9641, 296.9680
810.4462, 294.9200
810.9283, 294.9491
811.4105, 298.9633
811.8926, 290.0505
812.3747, 305.8888
812.8568, 315.1081
813.3389, 318.0642
813.8210, 295.9978
814.3032, 306.2429
814.7853, 303.5388
815.2674, 300.3040
815.7495, 315.0965
816.2316, 296.6697
816.7137, 311.1763
817.1959, 312.5367
817.6780, 319.9136
818.1601, 314.2618
818.6422, 312.6342
819.1243, 324.0396
819.6064, 328.2285
820.0886, 321.0770
820.5707, 328.8364
821.0528, 317.2098
821.5349, 322.2870
822.0170, 327.2052
822.4991, 328.5540
822.9813, 327.3358
823.4634, 328.3553
823.9455, 331.8246
824.4276, 333.3253
824.9097, 332.0158
825.3918, 327.9067
825.8740, 319.5367
826.3561, 309.4735
826.8382, 307.0124
827.3203, 318.0433
827.8024, 322.9775
828.2845, 314.6463
828.7667, 309.0215
829.2488, 315.5645
829.7309, 325.6379
830.2130, 328.1966
830.6951, 322.6450
831.1772, 318.7357
831.6594, 318.6925
832.1415, 320.8672
832.6236, 328.4842
833.1057, 335.0892
833.5878, 331.4485
834.0699, 320.6621
834.5521, 314.6855
835.0342, 319.4258
835.5163, 326.8650
835.9984, 329.9225
836.4805, 330.6729
836.9626, 332.5259
837.4448, 335.2761
837.9269, 337.7924
838.4090, 339.5808
838.8911, 339.2283
839.3732, 334.3935
839.8553, 326.9464
840.3375, 323.8687
840.8196, 325.2234
841.3017, 328.0446
841.7838, 332.1697
842.2659, 335.9568
842.7480, 338.2191
843.2302, 339.5408
843.7123, 341.9492
844.1944, 347.8315
844.6765, 346.2604
845.1586, 328.5768
845.6407, 316.3590
846.1229, 321.7639
846.6050, 332.5524
847.0871, 336.9499
847.5692, 335.2554
848.0513, 334.0540
848.5334, 333.7942
849.0156, 334.7331
849.4977, 338.0346
849.9798, 341.5844
850.4619, 344.2903
850.9440, 345.8268
851.4261, 345.3463
851.9083, 342.4093
852.3904, 340.3042
852.8725, 343.6937
853.3546, 346.8691
853.8367, 339.8412
854.3188, 329.0951
854.8010, 330.2912
855.2831, 344.6364
855.7652, 357.6583
856.2473, 358.2757
856.7294, 352.9251
857.2115, 352.0879
857.6937, 355.1768
858.1758, 361.5978
858.6579, 370.9039
859.1400, 373.2314
859.6221, 363.1558
860.1042, 350.1282
860.5864, 348.2527
861.0685, 357.0094
861.5506, 361.5596
862.0327, 361.3607
862.5148, 358.6189
862.9969, 351.9872
863.4791, 346.5022
863.9612, 347.1541
864.4433, 351.8071
864.9254, 352.5991
865.4075, 346.6831
865.8896, 342.8500
866.3718, 340.5400
866.8539, 340.8605
867.3360, 347.9720
867.8181, 355.5233
868.3002, 353.7716
868.7823, 343.3329
869.2645, 340.0230
869.7466, 355.8865
870.2287, 369.1642
870.7108, 370.8107
871.1929, 366.9231
871.6750, 361.5528
872.1572, 355.5266
872.6393, 348.3524
873.1214, 339.6987
873.6035, 333.8417
874.0856, 336.0471
874.5677, 340.8208
875.0499, 341.3362
875.5320, 339.7888
876.0141, 341.6755
876.4962, 347.4556
876.9783, 352.8623
877.4604, 355.0821
877.9426, 355.1348
878.4247, 354.0201
878.9068, 352.1274
879.3889, 351.0020
879.8710, 350.6898
880.3531, 350.2112
880.8353, 349.1389
881.3174, 348.4160
881.7995, 349.4080
882.2816, 351.6541
882.7637, 351.8116
883.2458, 349.3811
883.7280, 349.3882
884.2101, 354.3589
884.6922, 355.7669
885.1743, 346.2898
885.6564, 331.7227
886.1385, 324.4597
886.6207, 325.1035
887.1028, 330.9918
887.5849, 349.9132
888.0670, 361.3530
888.5491, 353.9413
889.0313, 342.1955
889.5134, 339.0139
889.9955, 342.4389
890.4776, 343.2628
890.9597, 337.3889
891.4418, 335.2345
891.9240, 340.5350
892.4061, 347.3560
892.8882, 353.6956
893.3703, 359.0576
893.8524, 363.1130
894.3345, 365.8098
894.8167, 367.0586
895.2988, 365.4951
895.7809, 364.0777
896.2630, 366.1076
896.7451, 367.7589
897.2272, 363.4811
897.7094, 355.5223
898.1915, 349.8783
898.6736, 348.6774
899.1557, 351.1717
899.6378, 361.4608
900.1199, 371.3942
900.6021, 368.1263
901.0842, 357.4863
901.5663, 351.3364
902.0484, 351.8701
902.5305, 356.5713
903.0126, 364.2919
903.4948, 372.7177
903.9769, 379.5195
904.4590, 384.0812
904.9411, 382.9138
905.4232, 376.7949
905.9053, 372.3398
906.3875, 371.6969
906.8696, 371.8436
907.3517, 369.8151
907.8338, 366.4494
908.3159, 364.6352
908.7980, 364.3908
909.2802, 362.9365
909.7623, 359.5424
910.2444, 358.7590
910.7265, 363.4870
911.2086, 369.7901
911.6907, 371.9990
912.1729, 370.1482
912.6550, 367.0089
913.1371, 360.0004
913.6192, 360.7237
914.1013, 376.0387
914.5834, 390.0818
915.0656, 390.7719
915.5477, 384.1055
916.0298, 384.6364
916.5119, 396.2591
916.9940, 400.3363
917.4761, 389.8839
917.9583, 381.7747
918.4404, 380.5478
918.9225, 382.5156
919.4046, 386.4640
919.8867, 391.3009
920.3688, 393.1117
920.8510, 390.1039
921.3331, 387.4332
921.8152, 382.2311
922.2973, 381.6786
922.7794, 396.2253
923.2615, 412.5960
923.7437, 412.7581
924.2258, 397.8617
924.7079, 387.3872
925.1900, 390.3582
925.6721, 393.3541
926.1542, 389.1259
926.6364, 384.4814
927.1185, 385.5051
927.6006, 389.7984
928.0827, 392.3143
928.5648, 392.1439
929.0469, 393.0409
929.5291, 398.8305
930.0112, 404.4363
930.4933, 404.1993
930.9754, 402.8741
931.4575, 407.7626
931.9396, 416.9248
932.4218, 424.2501
932.9039, 427.4603
933.3860, 425.0089
933.8681, 410.0643
934.3502, 393.1520
934.8323, 388.8746
935.3145, 392.7731
935.7966, 395.5364
936.2787, 396.4202
936.7608, 401.5099
937.2429, 414.4516
937.7250, 425.5509
938.2072, 419.7381
938.6893, 404.6036
939.1714, 396.4378
939.6535, 394.9006
940.1356, 399.1132
940.6177, 407.9381
941.0999, 413.2886
941.5820, 408.8957
942.0641, 400.8521
942.5462, 400.9062
943.0283, 407.2494
943.5104, 409.6280
943.9926, 408.1044
944.4747, 410.2566
944.9568, 418.5340
945.4389, 425.9670
945.9210, 425.6243
946.4031, 421.3231
946.8853, 425.3159
947.3674, 437.5355
947.8495, 441.5309
948.3316, 435.1540
948.8137, 434.4070
949.2958, 446.4261
949.7780, 461.3630
950.2601, 467.8832
950.7422, 467.9521
951.2243, 471.5254
951.7064, 478.3849
952.1885, 490.9595
952.6707, 511.1509
953.1528, 530.7177
953.6349, 546.3498
954.1170, 558.1497
954.5991, 565.2791
955.0812, 568.1727
955.5634, 577.5981
956.0455, 595.3925
956.5276, 614.1348
957.0097, 633.6933
957.4918, 652.7028
957.9739, 669.3066
958.4561, 686.2327
958.9382, 708.3649
959.4203, 736.2659
959.9024, 762.4278
960.3845, 785.7668
960.8666, 809.8495
961.3488, 839.5479
961.8309, 864.0721
962.3130, 875.1109
962.7951, 877.3146
963.2772, 880.0153
963.7593, 884.1494
964.2415, 883.7863
964.7236, 879.8079
965.2057, 870.0343
965.6878, 850.8076
966.1699, 828.8054
966.6520, 809.4546
967.1342, 790.0865
967.6163, 763.2785
968.0984, 725.0837
968.5805, 694.7841
969.0626, 683.2913
969.5447, 666.2236
970.0269, 628.9064
970.5090, 591.5926
970.9911, 573.1616
971.4732, 566.5346
971.9553, 551.5737
972.4374, 523.2101
972.9196, 498.0404
973.4017, 475.7763
973.8838, 460.0293
974.3659, 457.7259
974.8480, 457.7967
975.3301, 447.6939
975.8123, 431.8221
976.2944, 427.0074
976.7765, 441.9872
977.2586, 447.5750
977.7407, 427.6819
978.2228, 408.7676
978.7050, 405.2594
979.1871, 406.0789
979.6692, 399.1036
980.1513, 386.1746
980.6334, 377.4666
981.1155, 377.5155
981.5977, 374.4640
982.0798, 359.8926
982.5619, 347.1164
983.0440, 343.3999
983.5261, 344.6175
984.0082, 347.7211
984.4904, 351.3058
984.9725, 352.3267
985.4546, 349.1053
985.9367, 345.9103
986.4188, 344.2521
986.9009, 343.0692
987.3831, 339.5842
987.8652, 337.6977
988.3473, 345.8404
988.8294, 360.5020
989.3115, 364.9962
989.7936, 350.4151
990.2758, 336.9037
990.7579, 331.8113
991.2400, 331.4617
991.7221, 338.7908
992.2042, 345.9944
992.6863, 341.2173
993.1685, 326.8080
993.6506, 317.3400
994.1327, 317.3759
994.6148, 323.6191
995.0969, 343.4978
995.5790, 359.5690
996.0612, 355.9652
996.5433, 344.0356
997.0254, 338.0424
997.5075, 338.6346
997.9896, 338.9391
998.4717, 336.2756
998.9539, 334.0936
999.4360, 333.3810
999.9181, 334.3428
1000.400, 337.5188
1000.882, 342.1972
1001.364, 349.9558
1001.847, 358.6743
1002.329, 359.7717
1002.811, 347.5306
1003.293, 336.1201
1003.775, 330.8866
1004.257, 330.1104
1004.739, 334.7045
1005.221, 341.7556
1005.703, 349.6848
1006.186, 356.7775
1006.668, 357.5305
1007.150, 346.4046
1007.632, 341.3850
1008.114, 359.7784
1008.596, 376.8951
1009.078, 374.0300
1009.560, 362.4467
1010.043, 355.6060
1010.525, 354.0342
1011.007, 351.5697
1011.489, 344.7309
1011.971, 342.8237
1012.453, 353.7845
1012.935, 366.3716
1013.417, 376.0040
1013.899, 381.8552
1014.382, 381.4363
1014.864, 376.7108
1015.346, 373.4051
1015.828, 372.4150
1016.310, 375.8512
1016.792, 391.6532
1017.274, 403.6792
1017.756, 400.0411
1018.239, 390.6855
1018.721, 385.0045
1019.203, 383.0365
1019.685, 381.2626
1020.167, 378.5170
1020.649, 377.7878
1021.131, 383.0164
1021.613, 386.7860
1022.095, 380.3622
1022.578, 375.4403
1023.060, 387.4844
1023.542, 409.1208
1024.024, 419.4510
1024.506, 412.7431
1024.988, 407.2733
1025.470, 408.2974
1025.952, 410.6494
1026.435, 414.2210
1026.917, 416.7321
1027.399, 415.3807
1027.881, 411.8974
1028.363, 409.2269
1028.845, 407.2586
1029.327, 410.5360
1029.809, 428.0405
1030.292, 439.5621
1030.774, 433.8350
1031.256, 426.3198
1031.738, 425.6534
1032.220, 431.3008
1032.702, 444.2267
1033.184, 465.6374
1033.666, 477.0891
1034.148, 466.2148
1034.630, 460.6042
1035.113, 468.8700
1035.595, 478.9568
1036.077, 484.2944
1036.559, 487.2924
1037.041, 491.8863
1037.523, 498.2417
1038.005, 502.6305
1038.487, 498.6392
1038.970, 503.1885
1039.452, 529.0749
1039.934, 548.1933
1040.416, 543.7654
1040.898, 529.9800
1041.380, 522.2746
1041.862, 520.5172
1042.344, 523.4731
1042.826, 533.3174
1043.309, 543.7167
1043.791, 560.2648
1044.273, 565.9059
1044.755, 548.8139
1045.237, 526.2102
1045.719, 516.3324
1046.201, 515.5963
1046.683, 506.3240
1047.166, 483.0716
1047.648, 470.6547
1048.130, 473.9161
1048.612, 473.5978
1049.094, 462.0201
1049.576, 450.6718
1050.058, 451.1329
1050.540, 456.5101
1051.022, 446.0494
1051.505, 416.9883
1051.987, 400.4286
1052.469, 398.0766
1052.951, 399.3955
1053.433, 403.2403
1053.915, 402.4910
1054.397, 391.1900
1054.879, 376.2339
1055.361, 371.1357
1055.844, 374.7159
1056.326, 371.8802
1056.808, 362.6472
1057.290, 356.9338
1057.772, 356.4634
1058.254, 355.7321
1058.736, 351.6683
1059.218, 348.5175
1059.701, 353.9128
1060.183, 363.0580
1060.665, 357.2775
1061.147, 339.7621
1061.629, 326.1034
1062.111, 318.7823
1062.593, 324.3555
1063.075, 344.4785
1063.557, 358.1194
1064.040, 341.6735
1064.522, 312.8761
1065.004, 304.6092
1065.486, 309.4335
1065.968, 309.3663
1066.450, 305.0902
1066.932, 305.0565
1067.414, 310.9410
1067.896, 317.1485
1068.379, 320.4934
1068.861, 320.1760
1069.343, 311.4388
1069.825, 301.4026
1070.307, 301.8435
1070.789, 308.0394
1071.271, 308.3335
1071.753, 303.0834
1072.236, 303.5408
1072.718, 315.6784
1073.200, 327.6983
1073.682, 334.0263
1074.164, 333.5168
1074.646, 319.1808
1075.128, 301.8874
1075.610, 293.9572
1076.093, 294.9887
1076.575, 300.8698
1077.057, 310.7308
1077.539, 318.2500
1078.021, 319.7765
1078.503, 319.5294
1078.985, 318.0233
1079.467, 316.8512
1079.949, 318.2531
1080.432, 320.3126
1080.914, 318.9778
1081.396, 314.1213
1081.878, 312.0699
1082.360, 318.6094
1082.842, 320.8657
1083.324, 311.2674
1083.806, 303.7536
1084.288, 308.6323
1084.771, 315.7058
1085.253, 310.4131
1085.735, 296.9375
1086.217, 296.9694
1086.699, 319.8896
1087.181, 330.9002
1087.663, 323.6331
1088.145, 317.2694
1088.628, 317.1057
1089.110, 318.4272
1089.592, 317.9149
1090.074, 316.4634
1090.556, 316.6378
1091.038, 318.7121
1091.520, 312.5622
1092.002, 295.2202
1092.484, 290.9562
1092.967, 305.8836
1093.449, 319.4400
1093.931, 321.4289
1094.413, 315.8534
1094.895, 306.0755
1095.377, 295.0601
1095.859, 296.2955
1096.341, 307.5810
1096.823, 309.4930
1097.306, 302.0777
1097.788, 303.4942
1098.270, 318.8878
1098.752, 333.2726
1099.234, 334.7525
1099.716, 328.6383
1100.198, 319.1157
1100.680, 310.0534
1101.163, 313.1331
1101.645, 322.4541
1102.127, 320.5557
1102.609, 307.4695
1103.091, 297.7495
1103.573, 298.2865
1104.055, 302.7593
1104.537, 307.3779
1105.020, 312.0617
1105.502, 318.8644
1105.984, 324.0538
1106.466, 320.7083
1106.948, 312.7477
1107.430, 310.7734
1107.912, 316.4493
1108.394, 317.5627
1108.876, 301.9572
1109.359, 291.8021
1109.841, 299.4038
1110.323, 310.3963
1110.805, 319.2696
1111.287, 324.3012
1111.769, 323.3671
1112.251, 317.0957
1112.733, 308.3033
1113.215, 292.8142
1113.698, 285.9488
1114.180, 290.1320
1114.662, 300.1335
1115.144, 322.3851
1115.626, 339.1614
1116.108, 335.4493
1116.590, 321.7498
1117.072, 318.0588
1117.555, 324.4411
1118.037, 326.1414
1118.519, 322.5015
1119.001, 317.0047
1119.483, 309.1817
1119.965, 305.7626
1120.447, 310.0494
1120.929, 316.3739
1121.411, 318.5114
1121.894, 319.2513
1122.376, 328.6624
1122.858, 343.4534
1123.340, 345.2446
1123.822, 335.3814
1124.304, 323.4969
1124.786, 312.8668
1125.268, 308.5981
1125.750, 313.9322
1126.233, 320.9366
1126.715, 320.5961
1127.197, 316.6790
1127.679, 314.0490
1128.161, 311.6935
1128.643, 306.1149
1129.125, 299.6342
1129.607, 299.5365
1130.090, 307.0288
1130.572, 313.7583
1131.054, 316.0230
1131.536, 315.6816
1132.018, 312.0833
1132.500, 308.0219
1132.982, 305.2524
1133.464, 303.2148
1133.947, 301.2209
1134.429, 299.2254
1134.911, 296.8138
1135.393, 292.2381
1135.875, 293.0878
1136.357, 307.8258
1136.839, 316.1635
1137.321, 311.1012
1137.803, 304.0313
1138.286, 300.6487
1138.768, 299.8608
1139.250, 300.3085
1139.732, 301.8582
1140.214, 303.7968
1140.696, 306.7032
1141.178, 303.3117
1141.660, 291.7520
1142.142, 292.5159
1142.625, 313.1573
1143.107, 329.3057
1143.589, 320.9147
1144.071, 302.7161
1144.553, 300.9400
1145.035, 310.0171
1145.517, 315.1954
1145.999, 316.1160
1146.482, 309.9436
1146.964, 298.8012
1147.446, 291.8244
1147.928, 292.2866
1148.410, 294.7104
1148.892, 295.5899
1149.374, 295.8647
1149.856, 296.6766
1150.339, 296.9816
1150.821, 294.7194
1151.303, 291.8582
1151.785, 291.9735
1152.267, 294.4998
1152.749, 294.6282
1153.231, 289.3270
1153.713, 289.1462
1154.195, 303.9852
1154.677, 313.8446
1155.160, 307.5119
1155.642, 300.2169
1156.124, 303.0720
1156.606, 309.1071
1157.088, 306.8560
1157.570, 297.6349
1158.052, 298.1909
1158.534, 312.1829
1159.017, 318.3564
1159.499, 314.1264
1159.981, 311.9389
1160.463, 316.0651
1160.945, 317.3831
1161.427, 308.4154
1161.909, 297.2561
1162.391, 299.0334
1162.874, 309.2252
1163.356, 311.7963
1163.838, 309.7159
1164.320, 314.7227
1164.802, 324.9211
1165.284, 326.1317
1165.766, 314.9340
1166.248, 304.9139
1166.730, 306.4355
1167.213, 308.6617
1167.695, 297.9650
1168.177, 288.8698
1168.659, 299.2084
1169.141, 315.4095
1169.623, 319.2077
1170.105, 313.2387
1170.587, 310.5168
1171.069, 313.7646
1171.552, 316.5300
1172.034, 319.9739
1172.516, 319.2532
1172.998, 307.3141
1173.480, 300.5495
1173.962, 310.0344
1174.444, 321.9842
1174.926, 321.7226
1175.409, 312.5436
1175.891, 304.8144
1176.373, 298.2109
1176.855, 299.5674
1177.337, 309.1838
1177.819, 312.1180
1178.301, 305.7968
1178.783, 301.5983
1179.266, 305.0819
1179.748, 308.9573
1180.230, 304.6382
1180.712, 297.7541
1181.194, 298.6385
1181.676, 302.5516
1182.158, 300.7455
1182.640, 295.6385
1183.122, 292.9385
1183.604, 293.4490
1184.087, 295.7247
1184.569, 299.5513
1185.051, 302.6623
1185.533, 303.5149
1186.015, 304.1246
1186.497, 306.0383
1186.979, 307.2663
1187.461, 304.3479
1187.944, 301.2673
1188.426, 304.7932
1188.908, 313.4917
1189.390, 318.2159
1189.872, 317.5649
1190.354, 318.1580
1190.836, 320.6600
1191.318, 321.7329
1191.801, 320.8770
1192.283, 315.8005
1192.765, 304.3734
1193.247, 295.0498
1193.729, 300.0245
1194.211, 312.3834
1194.693, 315.0158
1195.175, 311.3911
1195.657, 310.1019
1196.140, 311.1532
1196.622, 312.3810
1197.104, 313.5340
1197.586, 316.7825
1198.068, 323.6714
1198.550, 326.4660
1199.032, 314.4146
1199.514, 304.5542
1199.996, 307.1150
1200.479, 315.1236
1200.961, 329.4830
1201.443, 341.7357
1201.925, 336.1143
1202.407, 315.6419
1202.889, 308.3676
1203.371, 321.1621
1203.853, 324.8145
1204.336, 315.6516
1204.818, 309.2279
1205.300, 308.7988
1205.782, 311.3059
1206.264, 315.7874
1206.746, 317.9632
1207.228, 311.6295
1207.710, 301.4195
1208.193, 299.8250
1208.675, 303.6071
1209.157, 302.8021
1209.639, 299.0846
1210.121, 298.9008
1210.603, 302.7725
1211.085, 307.6728
1211.567, 312.4655
1212.049, 315.6303
1212.531, 316.2172
1213.014, 314.9758
1213.496, 309.3708
1213.978, 305.3217
1214.460, 311.2013
1214.942, 317.9019
1215.424, 309.3251
1215.906, 292.0537
1216.388, 293.0423
1216.871, 317.7057
1217.353, 326.3260
1217.835, 315.1653
1218.317, 302.6292
1218.799, 290.1386
1219.281, 284.6341
1219.763, 289.2616
1220.245, 298.5431
1220.728, 308.4445
1221.210, 316.1507
1221.692, 313.9572
1222.174, 307.5930
1222.656, 309.6202
1223.138, 316.4532
1223.620, 320.5786
1224.102, 321.8796
1224.584, 323.0655
1225.067, 324.9519
1225.549, 327.7456
1226.031, 332.6821
1226.513, 336.2305
1226.995, 339.9015
1227.477, 338.4587
1227.959, 322.2681
1228.441, 307.9674
1228.923, 310.4439
1229.406, 320.1656
1229.888, 320.2392
1230.370, 311.8791
1230.852, 308.3559
1231.334, 309.7878
1231.816, 314.5357
1232.298, 322.1312
1232.780, 324.2618
1233.263, 319.2090
1233.745, 312.6068
1234.227, 307.4934
1234.709, 305.8189
##END=



