##NAMES=Veszelyite
##RRUFFID=R160003
##IDEAL CHEMISTRY=Cu^2+^_3_PO_4_(OH)_3_&#183;2H_2_O
##LOCALITY=Laochang ore field, Gejiu Co., Honghe Autonomous Prefecture, Yunnan Province, China
##OWNER=RRUFF
##SOURCE=Renato and Adriana Pagano
##DESCRIPTION=Blue prismatic crystals
##STATUS=The identification of this mineral has been confirmed only by single crystal X-ray diffraction.
##URL=rruff.info/R160003
8.758203e+001, 1.526785e+003
8.806415e+001, 1.523313e+003
8.854626e+001, 1.522789e+003
8.902838e+001, 1.526168e+003
8.951050e+001, 1.530769e+003
8.999261e+001, 1.536445e+003
9.047473e+001, 1.542794e+003
9.095685e+001, 1.548210e+003
9.143896e+001, 1.551215e+003
9.192108e+001, 1.551626e+003
9.240320e+001, 1.550827e+003
9.288531e+001, 1.531216e+003
9.336743e+001, 1.483725e+003
9.384955e+001, 1.416166e+003
9.433167e+001, 1.350586e+003
9.481378e+001, 1.285969e+003
9.529590e+001, 1.230160e+003
9.577802e+001, 1.181905e+003
9.626013e+001, 1.139567e+003
9.674225e+001, 1.102304e+003
9.722437e+001, 1.069310e+003
9.770648e+001, 1.038974e+003
9.818860e+001, 1.010659e+003
9.867072e+001, 9.843802e+002
9.915283e+001, 9.598607e+002
9.963495e+001, 9.369183e+002
1.001171e+002, 9.159222e+002
1.005992e+002, 8.975521e+002
1.010813e+002, 8.814831e+002
1.015634e+002, 8.680555e+002
1.020455e+002, 8.571012e+002
1.025277e+002, 8.474994e+002
1.030098e+002, 8.380259e+002
1.034919e+002, 8.281569e+002
1.039740e+002, 8.186639e+002
1.044561e+002, 8.123172e+002
1.049382e+002, 8.145088e+002
1.054204e+002, 8.136331e+002
1.059025e+002, 8.073641e+002
1.063846e+002, 7.972022e+002
1.068667e+002, 7.853230e+002
1.073488e+002, 7.724913e+002
1.078309e+002, 7.592816e+002
1.083131e+002, 7.497897e+002
1.087952e+002, 7.455169e+002
1.092773e+002, 7.428882e+002
1.097594e+002, 7.401719e+002
1.102415e+002, 7.372963e+002
1.107236e+002, 7.346823e+002
1.112058e+002, 7.327716e+002
1.116879e+002, 7.314068e+002
1.121700e+002, 7.300973e+002
1.126521e+002, 7.302798e+002
1.131342e+002, 7.301058e+002
1.136163e+002, 7.261611e+002
1.140985e+002, 7.172413e+002
1.145806e+002, 7.066115e+002
1.150627e+002, 6.959034e+002
1.155448e+002, 6.853167e+002
1.160269e+002, 6.752349e+002
1.165090e+002, 6.658829e+002
1.169912e+002, 6.572734e+002
1.174733e+002, 6.494474e+002
1.179554e+002, 6.427479e+002
1.184375e+002, 6.366362e+002
1.189196e+002, 6.308556e+002
1.194017e+002, 6.254286e+002
1.198839e+002, 6.205702e+002
1.203660e+002, 6.167877e+002
1.208481e+002, 6.151891e+002
1.213302e+002, 6.117812e+002
1.218123e+002, 6.060818e+002
1.222944e+002, 5.993334e+002
1.227766e+002, 5.919112e+002
1.232587e+002, 5.840563e+002
1.237408e+002, 5.761624e+002
1.242229e+002, 5.690325e+002
1.247050e+002, 5.628063e+002
1.251871e+002, 5.572704e+002
1.256693e+002, 5.526862e+002
1.261514e+002, 5.487155e+002
1.266335e+002, 5.452177e+002
1.271156e+002, 5.422692e+002
1.275977e+002, 5.393155e+002
1.280798e+002, 5.344749e+002
1.285620e+002, 5.266486e+002
1.290441e+002, 5.191141e+002
1.295262e+002, 5.135500e+002
1.300083e+002, 5.095112e+002
1.304904e+002, 5.050995e+002
1.309725e+002, 4.988045e+002
1.314547e+002, 4.918560e+002
1.319368e+002, 4.868240e+002
1.324189e+002, 4.846858e+002
1.329010e+002, 4.834738e+002
1.333831e+002, 4.811659e+002
1.338652e+002, 4.775362e+002
1.343474e+002, 4.740635e+002
1.348295e+002, 4.713786e+002
1.353116e+002, 4.693199e+002
1.357937e+002, 4.677965e+002
1.362758e+002, 4.667768e+002
1.367579e+002, 4.662682e+002
1.372401e+002, 4.665350e+002
1.377222e+002, 4.689102e+002
1.382043e+002, 4.698647e+002
1.386864e+002, 4.680086e+002
1.391685e+002, 4.642512e+002
1.396507e+002, 4.598150e+002
1.401328e+002, 4.553465e+002
1.406149e+002, 4.508580e+002
1.410970e+002, 4.473488e+002
1.415791e+002, 4.459160e+002
1.420612e+002, 4.444909e+002
1.425434e+002, 4.425439e+002
1.430255e+002, 4.401342e+002
1.435076e+002, 4.375749e+002
1.439897e+002, 4.351462e+002
1.444718e+002, 4.328800e+002
1.449539e+002, 4.305807e+002
1.454361e+002, 4.287679e+002
1.459182e+002, 4.265280e+002
1.464003e+002, 4.231988e+002
1.468824e+002, 4.187829e+002
1.473645e+002, 4.138715e+002
1.478466e+002, 4.090392e+002
1.483288e+002, 4.041489e+002
1.488109e+002, 3.999904e+002
1.492930e+002, 3.966045e+002
1.497751e+002, 3.939206e+002
1.502572e+002, 3.921219e+002
1.507393e+002, 3.913403e+002
1.512215e+002, 3.907998e+002
1.517036e+002, 3.891769e+002
1.521857e+002, 3.865024e+002
1.526678e+002, 3.842552e+002
1.531499e+002, 3.833007e+002
1.536320e+002, 3.831423e+002
1.541142e+002, 3.825975e+002
1.545963e+002, 3.814434e+002
1.550784e+002, 3.796924e+002
1.555605e+002, 3.772656e+002
1.560426e+002, 3.741778e+002
1.565247e+002, 3.711846e+002
1.570069e+002, 3.687852e+002
1.574890e+002, 3.669756e+002
1.579711e+002, 3.655577e+002
1.584532e+002, 3.651174e+002
1.589353e+002, 3.645954e+002
1.594174e+002, 3.630863e+002
1.598996e+002, 3.605001e+002
1.603817e+002, 3.578231e+002
1.608638e+002, 3.563622e+002
1.613459e+002, 3.566028e+002
1.618280e+002, 3.564250e+002
1.623102e+002, 3.552786e+002
1.627923e+002, 3.538097e+002
1.632744e+002, 3.525037e+002
1.637565e+002, 3.514787e+002
1.642386e+002, 3.504243e+002
1.647207e+002, 3.486638e+002
1.652029e+002, 3.454832e+002
1.656850e+002, 3.427593e+002
1.661671e+002, 3.404969e+002
1.666492e+002, 3.387532e+002
1.671313e+002, 3.376131e+002
1.676134e+002, 3.371237e+002
1.680956e+002, 3.371578e+002
1.685777e+002, 3.373547e+002
1.690598e+002, 3.381987e+002
1.695419e+002, 3.386459e+002
1.700240e+002, 3.386849e+002
1.705061e+002, 3.382713e+002
1.709883e+002, 3.371435e+002
1.714704e+002, 3.350591e+002
1.719525e+002, 3.324454e+002
1.724346e+002, 3.312186e+002
1.729167e+002, 3.328689e+002
1.733988e+002, 3.339325e+002
1.738810e+002, 3.332498e+002
1.743631e+002, 3.311688e+002
1.748452e+002, 3.283645e+002
1.753273e+002, 3.247692e+002
1.758094e+002, 3.210564e+002
1.762915e+002, 3.194235e+002
1.767737e+002, 3.213143e+002
1.772558e+002, 3.234926e+002
1.777379e+002, 3.239541e+002
1.782200e+002, 3.228154e+002
1.787021e+002, 3.214025e+002
1.791842e+002, 3.204257e+002
1.796664e+002, 3.196392e+002
1.801485e+002, 3.185446e+002
1.806306e+002, 3.168913e+002
1.811127e+002, 3.151240e+002
1.815948e+002, 3.136379e+002
1.820769e+002, 3.123994e+002
1.825591e+002, 3.116288e+002
1.830412e+002, 3.121029e+002
1.835233e+002, 3.129203e+002
1.840054e+002, 3.130570e+002
1.844875e+002, 3.119634e+002
1.849696e+002, 3.102678e+002
1.854518e+002, 3.091208e+002
1.859339e+002, 3.086913e+002
1.864160e+002, 3.084604e+002
1.868981e+002, 3.087307e+002
1.873802e+002, 3.089210e+002
1.878623e+002, 3.081282e+002
1.883445e+002, 3.056068e+002
1.888266e+002, 3.021806e+002
1.893087e+002, 3.008378e+002
1.897908e+002, 3.036722e+002
1.902729e+002, 3.056965e+002
1.907550e+002, 3.050754e+002
1.912372e+002, 3.031285e+002
1.917193e+002, 3.016684e+002
1.922014e+002, 3.018267e+002
1.926835e+002, 3.033179e+002
1.931656e+002, 3.042042e+002
1.936477e+002, 3.040526e+002
1.941299e+002, 3.036521e+002
1.946120e+002, 3.031068e+002
1.950941e+002, 3.024003e+002
1.955762e+002, 3.014063e+002
1.960583e+002, 2.999830e+002
1.965404e+002, 2.981896e+002
1.970226e+002, 2.971315e+002
1.975047e+002, 2.972421e+002
1.979868e+002, 2.975679e+002
1.984689e+002, 2.980228e+002
1.989510e+002, 2.985025e+002
1.994331e+002, 2.988910e+002
1.999153e+002, 2.991531e+002
2.003974e+002, 2.992658e+002
2.008795e+002, 2.986480e+002
2.013616e+002, 2.964293e+002
2.018437e+002, 2.944775e+002
2.023258e+002, 2.941427e+002
2.028080e+002, 2.949633e+002
2.032901e+002, 2.950598e+002
2.037722e+002, 2.928264e+002
2.042543e+002, 2.884860e+002
2.047364e+002, 2.855418e+002
2.052185e+002, 2.849438e+002
2.057007e+002, 2.848185e+002
2.061828e+002, 2.840913e+002
2.066649e+002, 2.827669e+002
2.071470e+002, 2.812905e+002
2.076291e+002, 2.798098e+002
2.081112e+002, 2.784571e+002
2.085934e+002, 2.776335e+002
2.090755e+002, 2.779933e+002
2.095576e+002, 2.784747e+002
2.100397e+002, 2.780616e+002
2.105218e+002, 2.767158e+002
2.110039e+002, 2.752508e+002
2.114861e+002, 2.740845e+002
2.119682e+002, 2.731974e+002
2.124503e+002, 2.725619e+002
2.129324e+002, 2.725188e+002
2.134145e+002, 2.724910e+002
2.138967e+002, 2.715494e+002
2.143788e+002, 2.694340e+002
2.148609e+002, 2.676201e+002
2.153430e+002, 2.675272e+002
2.158251e+002, 2.681248e+002
2.163072e+002, 2.681142e+002
2.167894e+002, 2.668163e+002
2.172715e+002, 2.649506e+002
2.177536e+002, 2.638029e+002
2.182357e+002, 2.636265e+002
2.187178e+002, 2.634749e+002
2.191999e+002, 2.630627e+002
2.196821e+002, 2.624077e+002
2.201642e+002, 2.614557e+002
2.206463e+002, 2.600911e+002
2.211284e+002, 2.585502e+002
2.216105e+002, 2.573179e+002
2.220926e+002, 2.563671e+002
2.225748e+002, 2.558402e+002
2.230569e+002, 2.559836e+002
2.235390e+002, 2.564278e+002
2.240211e+002, 2.567699e+002
2.245032e+002, 2.568196e+002
2.249853e+002, 2.566757e+002
2.254675e+002, 2.566123e+002
2.259496e+002, 2.566916e+002
2.264317e+002, 2.567607e+002
2.269138e+002, 2.568377e+002
2.273959e+002, 2.568718e+002
2.278780e+002, 2.567424e+002
2.283602e+002, 2.563696e+002
2.288423e+002, 2.559181e+002
2.293244e+002, 2.559726e+002
2.298065e+002, 2.573542e+002
2.302886e+002, 2.580842e+002
2.307707e+002, 2.574017e+002
2.312529e+002, 2.561580e+002
2.317350e+002, 2.553636e+002
2.322171e+002, 2.555097e+002
2.326992e+002, 2.562530e+002
2.331813e+002, 2.564900e+002
2.336634e+002, 2.556070e+002
2.341456e+002, 2.549064e+002
2.346277e+002, 2.544344e+002
2.351098e+002, 2.542072e+002
2.355919e+002, 2.544063e+002
2.360740e+002, 2.551234e+002
2.365561e+002, 2.559893e+002
2.370383e+002, 2.559028e+002
2.375204e+002, 2.536071e+002
2.380025e+002, 2.517881e+002
2.384846e+002, 2.508643e+002
2.389667e+002, 2.504088e+002
2.394488e+002, 2.499479e+002
2.399310e+002, 2.492838e+002
2.404131e+002, 2.484577e+002
2.408952e+002, 2.475568e+002
2.413773e+002, 2.461902e+002
2.418594e+002, 2.452866e+002
2.423415e+002, 2.452813e+002
2.428237e+002, 2.456834e+002
2.433058e+002, 2.458368e+002
2.437879e+002, 2.454831e+002
2.442700e+002, 2.448999e+002
2.447521e+002, 2.447423e+002
2.452342e+002, 2.455726e+002
2.457164e+002, 2.456840e+002
2.461985e+002, 2.442960e+002
2.466806e+002, 2.421933e+002
2.471627e+002, 2.404205e+002
2.476448e+002, 2.393098e+002
2.481269e+002, 2.386025e+002
2.486091e+002, 2.378180e+002
2.490912e+002, 2.368063e+002
2.495733e+002, 2.362015e+002
2.500554e+002, 2.366560e+002
2.505375e+002, 2.374480e+002
2.510196e+002, 2.372890e+002
2.515018e+002, 2.356868e+002
2.519839e+002, 2.338029e+002
2.524660e+002, 2.337174e+002
2.529481e+002, 2.355941e+002
2.534302e+002, 2.365577e+002
2.539123e+002, 2.347897e+002
2.543945e+002, 2.319888e+002
2.548766e+002, 2.308842e+002
2.553587e+002, 2.322434e+002
2.558408e+002, 2.345382e+002
2.563229e+002, 2.362339e+002
2.568051e+002, 2.374137e+002
2.572872e+002, 2.380607e+002
2.577693e+002, 2.377079e+002
2.582514e+002, 2.369444e+002
2.587335e+002, 2.369063e+002
2.592156e+002, 2.379681e+002
2.596978e+002, 2.389302e+002
2.601799e+002, 2.382251e+002
2.606620e+002, 2.363379e+002
2.611441e+002, 2.348342e+002
2.616262e+002, 2.343989e+002
2.621083e+002, 2.345679e+002
2.625905e+002, 2.347321e+002
2.630726e+002, 2.349587e+002
2.635547e+002, 2.347915e+002
2.640368e+002, 2.333216e+002
2.645189e+002, 2.311743e+002
2.650010e+002, 2.296578e+002
2.654832e+002, 2.296819e+002
2.659653e+002, 2.303878e+002
2.664474e+002, 2.303536e+002
2.669295e+002, 2.293842e+002
2.674116e+002, 2.284035e+002
2.678937e+002, 2.282760e+002
2.683759e+002, 2.284515e+002
2.688580e+002, 2.281198e+002
2.693401e+002, 2.268508e+002
2.698222e+002, 2.251299e+002
2.703043e+002, 2.235603e+002
2.707864e+002, 2.220917e+002
2.712686e+002, 2.209968e+002
2.717507e+002, 2.207428e+002
2.722328e+002, 2.208225e+002
2.727149e+002, 2.207575e+002
2.731970e+002, 2.204473e+002
2.736791e+002, 2.198881e+002
2.741613e+002, 2.189157e+002
2.746434e+002, 2.173694e+002
2.751255e+002, 2.161958e+002
2.756076e+002, 2.161564e+002
2.760897e+002, 2.164551e+002
2.765718e+002, 2.164196e+002
2.770540e+002, 2.158487e+002
2.775361e+002, 2.152580e+002
2.780182e+002, 2.154392e+002
2.785003e+002, 2.165754e+002
2.789824e+002, 2.172036e+002
2.794645e+002, 2.164034e+002
2.799467e+002, 2.152960e+002
2.804288e+002, 2.147324e+002
2.809109e+002, 2.148272e+002
2.813930e+002, 2.148336e+002
2.818751e+002, 2.137168e+002
2.823572e+002, 2.113286e+002
2.828394e+002, 2.096767e+002
2.833215e+002, 2.096541e+002
2.838036e+002, 2.100340e+002
2.842857e+002, 2.102316e+002
2.847678e+002, 2.101892e+002
2.852499e+002, 2.100151e+002
2.857321e+002, 2.098976e+002
2.862142e+002, 2.098484e+002
2.866963e+002, 2.093102e+002
2.871784e+002, 2.079714e+002
2.876605e+002, 2.063745e+002
2.881426e+002, 2.044001e+002
2.886248e+002, 2.023112e+002
2.891069e+002, 2.008485e+002
2.895890e+002, 2.009069e+002
2.900711e+002, 2.023134e+002
2.905532e+002, 2.028453e+002
2.910353e+002, 2.021537e+002
2.915175e+002, 2.009070e+002
2.919996e+002, 1.990258e+002
2.924817e+002, 1.968510e+002
2.929638e+002, 1.950014e+002
2.934459e+002, 1.938923e+002
2.939280e+002, 1.933844e+002
2.944102e+002, 1.929575e+002
2.948923e+002, 1.930048e+002
2.953744e+002, 1.924653e+002
2.958565e+002, 1.903141e+002
2.963386e+002, 1.876864e+002
2.968207e+002, 1.861580e+002
2.973029e+002, 1.866189e+002
2.977850e+002, 1.882420e+002
2.982671e+002, 1.890003e+002
2.987492e+002, 1.886374e+002
2.992313e+002, 1.878638e+002
2.997134e+002, 1.866151e+002
3.001956e+002, 1.852201e+002
3.006777e+002, 1.839166e+002
3.011598e+002, 1.827771e+002
3.016419e+002, 1.818961e+002
3.021240e+002, 1.814770e+002
3.026061e+002, 1.816453e+002
3.030883e+002, 1.819330e+002
3.035704e+002, 1.827413e+002
3.040525e+002, 1.833237e+002
3.045346e+002, 1.828948e+002
3.050167e+002, 1.814093e+002
3.054988e+002, 1.798331e+002
3.059810e+002, 1.795042e+002
3.064631e+002, 1.808024e+002
3.069452e+002, 1.815853e+002
3.074273e+002, 1.815345e+002
3.079094e+002, 1.810672e+002
3.083915e+002, 1.800918e+002
3.088737e+002, 1.787732e+002
3.093558e+002, 1.776019e+002
3.098379e+002, 1.771137e+002
3.103200e+002, 1.773464e+002
3.108021e+002, 1.774293e+002
3.112842e+002, 1.770556e+002
3.117664e+002, 1.768458e+002
3.122485e+002, 1.772182e+002
3.127306e+002, 1.779285e+002
3.132127e+002, 1.784297e+002
3.136948e+002, 1.782884e+002
3.141769e+002, 1.776296e+002
3.146591e+002, 1.772373e+002
3.151412e+002, 1.773961e+002
3.156233e+002, 1.774315e+002
3.161054e+002, 1.770888e+002
3.165875e+002, 1.765398e+002
3.170696e+002, 1.759931e+002
3.175518e+002, 1.755360e+002
3.180339e+002, 1.751822e+002
3.185160e+002, 1.750174e+002
3.189981e+002, 1.752489e+002
3.194802e+002, 1.752379e+002
3.199623e+002, 1.743604e+002
3.204445e+002, 1.734747e+002
3.209266e+002, 1.735149e+002
3.214087e+002, 1.747549e+002
3.218908e+002, 1.763781e+002
3.223729e+002, 1.771482e+002
3.228550e+002, 1.768730e+002
3.233372e+002, 1.764221e+002
3.238193e+002, 1.755585e+002
3.243014e+002, 1.748094e+002
3.247835e+002, 1.745627e+002
3.252656e+002, 1.748172e+002
3.257477e+002, 1.751977e+002
3.262299e+002, 1.753506e+002
3.267120e+002, 1.752607e+002
3.271941e+002, 1.750662e+002
3.276762e+002, 1.745672e+002
3.281583e+002, 1.741541e+002
3.286404e+002, 1.739283e+002
3.291226e+002, 1.739177e+002
3.296047e+002, 1.741814e+002
3.300868e+002, 1.749325e+002
3.305689e+002, 1.760313e+002
3.310510e+002, 1.764460e+002
3.315331e+002, 1.754499e+002
3.320153e+002, 1.748646e+002
3.324974e+002, 1.759401e+002
3.329795e+002, 1.776570e+002
3.334616e+002, 1.784767e+002
3.339437e+002, 1.775402e+002
3.344258e+002, 1.755541e+002
3.349080e+002, 1.739845e+002
3.353901e+002, 1.727113e+002
3.358722e+002, 1.722005e+002
3.363543e+002, 1.729632e+002
3.368365e+002, 1.742973e+002
3.373186e+002, 1.758744e+002
3.378007e+002, 1.776446e+002
3.382828e+002, 1.789579e+002
3.387649e+002, 1.786402e+002
3.392470e+002, 1.763746e+002
3.397292e+002, 1.748745e+002
3.402113e+002, 1.752406e+002
3.406934e+002, 1.761255e+002
3.411755e+002, 1.767367e+002
3.416576e+002, 1.770286e+002
3.421397e+002, 1.773314e+002
3.426219e+002, 1.781389e+002
3.431040e+002, 1.793428e+002
3.435861e+002, 1.796729e+002
3.440682e+002, 1.781781e+002
3.445503e+002, 1.770059e+002
3.450324e+002, 1.776637e+002
3.455146e+002, 1.795814e+002
3.459967e+002, 1.813284e+002
3.464788e+002, 1.819904e+002
3.469609e+002, 1.820218e+002
3.474430e+002, 1.826090e+002
3.479251e+002, 1.840235e+002
3.484073e+002, 1.852404e+002
3.488894e+002, 1.853716e+002
3.493715e+002, 1.851398e+002
3.498536e+002, 1.854846e+002
3.503357e+002, 1.868634e+002
3.508178e+002, 1.884902e+002
3.513000e+002, 1.893022e+002
3.517821e+002, 1.892467e+002
3.522642e+002, 1.895080e+002
3.527463e+002, 1.908813e+002
3.532284e+002, 1.924523e+002
3.537105e+002, 1.931119e+002
3.541927e+002, 1.926932e+002
3.546748e+002, 1.924552e+002
3.551569e+002, 1.937438e+002
3.556390e+002, 1.960830e+002
3.561211e+002, 1.972054e+002
3.566032e+002, 1.962034e+002
3.570854e+002, 1.947568e+002
3.575675e+002, 1.943601e+002
3.580496e+002, 1.948554e+002
3.585317e+002, 1.956491e+002
3.590138e+002, 1.971568e+002
3.594959e+002, 1.985990e+002
3.599781e+002, 1.983657e+002
3.604602e+002, 1.961006e+002
3.609423e+002, 1.939812e+002
3.614244e+002, 1.937286e+002
3.619065e+002, 1.947695e+002
3.623886e+002, 1.956795e+002
3.628708e+002, 1.964625e+002
3.633529e+002, 1.968696e+002
3.638350e+002, 1.962677e+002
3.643171e+002, 1.948732e+002
3.647992e+002, 1.943017e+002
3.652813e+002, 1.957033e+002
3.657635e+002, 1.979009e+002
3.662456e+002, 1.984767e+002
3.667277e+002, 1.969465e+002
3.672098e+002, 1.954451e+002
3.676919e+002, 1.950405e+002
3.681740e+002, 1.952173e+002
3.686562e+002, 1.948963e+002
3.691383e+002, 1.937269e+002
3.696204e+002, 1.924668e+002
3.701025e+002, 1.922192e+002
3.705846e+002, 1.930785e+002
3.710667e+002, 1.933824e+002
3.715489e+002, 1.923930e+002
3.720310e+002, 1.911197e+002
3.725131e+002, 1.904223e+002
3.729952e+002, 1.903555e+002
3.734773e+002, 1.907091e+002
3.739594e+002, 1.915757e+002
3.744416e+002, 1.927721e+002
3.749237e+002, 1.925857e+002
3.754058e+002, 1.899728e+002
3.758879e+002, 1.872629e+002
3.763700e+002, 1.852430e+002
3.768521e+002, 1.838100e+002
3.773343e+002, 1.827178e+002
3.778164e+002, 1.818523e+002
3.782985e+002, 1.812824e+002
3.787806e+002, 1.812256e+002
3.792627e+002, 1.824351e+002
3.797448e+002, 1.828732e+002
3.802270e+002, 1.821567e+002
3.807091e+002, 1.807432e+002
3.811912e+002, 1.787923e+002
3.816733e+002, 1.764406e+002
3.821554e+002, 1.742378e+002
3.826375e+002, 1.727940e+002
3.831197e+002, 1.722530e+002
3.836018e+002, 1.718282e+002
3.840839e+002, 1.717886e+002
3.845660e+002, 1.715879e+002
3.850481e+002, 1.708140e+002
3.855302e+002, 1.696633e+002
3.860124e+002, 1.686252e+002
3.864945e+002, 1.680145e+002
3.869766e+002, 1.677829e+002
3.874587e+002, 1.676802e+002
3.879408e+002, 1.683576e+002
3.884229e+002, 1.683344e+002
3.889051e+002, 1.665617e+002
3.893872e+002, 1.644526e+002
3.898693e+002, 1.637002e+002
3.903514e+002, 1.647882e+002
3.908335e+002, 1.664889e+002
3.913156e+002, 1.667192e+002
3.917978e+002, 1.646678e+002
3.922799e+002, 1.633656e+002
3.927620e+002, 1.631572e+002
3.932441e+002, 1.633769e+002
3.937262e+002, 1.640035e+002
3.942083e+002, 1.648196e+002
3.946905e+002, 1.652886e+002
3.951726e+002, 1.648341e+002
3.956547e+002, 1.635935e+002
3.961368e+002, 1.630257e+002
3.966189e+002, 1.636199e+002
3.971010e+002, 1.642164e+002
3.975832e+002, 1.644314e+002
3.980653e+002, 1.644425e+002
3.985474e+002, 1.644824e+002
3.990295e+002, 1.646471e+002
3.995116e+002, 1.648581e+002
3.999937e+002, 1.650542e+002
4.004759e+002, 1.652929e+002
4.009580e+002, 1.652084e+002
4.014401e+002, 1.642243e+002
4.019222e+002, 1.632426e+002
4.024043e+002, 1.630724e+002
4.028864e+002, 1.636990e+002
4.033686e+002, 1.641674e+002
4.038507e+002, 1.634921e+002
4.043328e+002, 1.620053e+002
4.048149e+002, 1.611919e+002
4.052970e+002, 1.612973e+002
4.057791e+002, 1.617947e+002
4.062613e+002, 1.627255e+002
4.067434e+002, 1.637604e+002
4.072255e+002, 1.641715e+002
4.077076e+002, 1.634703e+002
4.081897e+002, 1.623028e+002
4.086718e+002, 1.612298e+002
4.091540e+002, 1.602578e+002
4.096361e+002, 1.596623e+002
4.101182e+002, 1.596221e+002
4.106003e+002, 1.600043e+002
4.110824e+002, 1.606486e+002
4.115645e+002, 1.617395e+002
4.120467e+002, 1.623904e+002
4.125288e+002, 1.618611e+002
4.130109e+002, 1.607229e+002
4.134930e+002, 1.600208e+002
4.139751e+002, 1.599884e+002
4.144572e+002, 1.601417e+002
4.149394e+002, 1.599931e+002
4.154215e+002, 1.595249e+002
4.159036e+002, 1.591396e+002
4.163857e+002, 1.586849e+002
4.168678e+002, 1.584626e+002
4.173499e+002, 1.590589e+002
4.178321e+002, 1.601460e+002
4.183142e+002, 1.603931e+002
4.187963e+002, 1.588158e+002
4.192784e+002, 1.563106e+002
4.197605e+002, 1.560461e+002
4.202426e+002, 1.612428e+002
4.207248e+002, 1.642010e+002
4.212069e+002, 1.622836e+002
4.216890e+002, 1.586750e+002
4.221711e+002, 1.567005e+002
4.226532e+002, 1.570755e+002
4.231353e+002, 1.582121e+002
4.236175e+002, 1.581622e+002
4.240996e+002, 1.565232e+002
4.245817e+002, 1.557780e+002
4.250638e+002, 1.566202e+002
4.255459e+002, 1.575282e+002
4.260280e+002, 1.579499e+002
4.265102e+002, 1.579718e+002
4.269923e+002, 1.578808e+002
4.274744e+002, 1.578460e+002
4.279565e+002, 1.578076e+002
4.284386e+002, 1.575468e+002
4.289207e+002, 1.568674e+002
4.294029e+002, 1.563169e+002
4.298850e+002, 1.558020e+002
4.303671e+002, 1.555276e+002
4.308492e+002, 1.559953e+002
4.313313e+002, 1.571356e+002
4.318134e+002, 1.579251e+002
4.322956e+002, 1.568895e+002
4.327777e+002, 1.539563e+002
4.332598e+002, 1.522037e+002
4.337419e+002, 1.525049e+002
4.342241e+002, 1.529767e+002
4.347062e+002, 1.526911e+002
4.351883e+002, 1.519246e+002
4.356704e+002, 1.512344e+002
4.361525e+002, 1.509220e+002
4.366346e+002, 1.507215e+002
4.371168e+002, 1.500835e+002
4.375989e+002, 1.489314e+002
4.380810e+002, 1.481711e+002
4.385631e+002, 1.483133e+002
4.390452e+002, 1.488711e+002
4.395273e+002, 1.492512e+002
4.400095e+002, 1.494132e+002
4.404916e+002, 1.496729e+002
4.409737e+002, 1.504182e+002
4.414558e+002, 1.513398e+002
4.419379e+002, 1.517856e+002
4.424200e+002, 1.516512e+002
4.429022e+002, 1.511773e+002
4.433843e+002, 1.503874e+002
4.438664e+002, 1.493736e+002
4.443485e+002, 1.486721e+002
4.448306e+002, 1.484983e+002
4.453127e+002, 1.484593e+002
4.457949e+002, 1.482180e+002
4.462770e+002, 1.479270e+002
4.467591e+002, 1.480613e+002
4.472412e+002, 1.488678e+002
4.477233e+002, 1.499776e+002
4.482054e+002, 1.506954e+002
4.486876e+002, 1.508482e+002
4.491697e+002, 1.509907e+002
4.496518e+002, 1.509887e+002
4.501339e+002, 1.510982e+002
4.506160e+002, 1.515906e+002
4.510981e+002, 1.524194e+002
4.515803e+002, 1.532908e+002
4.520624e+002, 1.539544e+002
4.525445e+002, 1.544335e+002
4.530266e+002, 1.550202e+002
4.535087e+002, 1.556467e+002
4.539908e+002, 1.564733e+002
4.544730e+002, 1.578868e+002
4.549551e+002, 1.593451e+002
4.554372e+002, 1.600885e+002
4.559193e+002, 1.599306e+002
4.564014e+002, 1.595712e+002
4.568835e+002, 1.601294e+002
4.573657e+002, 1.619275e+002
4.578478e+002, 1.631590e+002
4.583299e+002, 1.632657e+002
4.588120e+002, 1.632559e+002
4.592941e+002, 1.634374e+002
4.597762e+002, 1.638291e+002
4.602584e+002, 1.643775e+002
4.607405e+002, 1.649892e+002
4.612226e+002, 1.658145e+002
4.617047e+002, 1.674666e+002
4.621868e+002, 1.703007e+002
4.626689e+002, 1.722500e+002
4.631511e+002, 1.718632e+002
4.636332e+002, 1.707202e+002
4.641153e+002, 1.701631e+002
4.645974e+002, 1.702768e+002
4.650795e+002, 1.712261e+002
4.655616e+002, 1.741914e+002
4.660438e+002, 1.779053e+002
4.665259e+002, 1.791820e+002
4.670080e+002, 1.773353e+002
4.674901e+002, 1.749494e+002
4.679722e+002, 1.737180e+002
4.684543e+002, 1.736377e+002
4.689365e+002, 1.742849e+002
4.694186e+002, 1.768757e+002
4.699007e+002, 1.789405e+002
4.703828e+002, 1.786750e+002
4.708649e+002, 1.769657e+002
4.713470e+002, 1.757784e+002
4.718292e+002, 1.758295e+002
4.723113e+002, 1.764095e+002
4.727934e+002, 1.764755e+002
4.732755e+002, 1.759271e+002
4.737576e+002, 1.750309e+002
4.742397e+002, 1.732725e+002
4.747219e+002, 1.716293e+002
4.752040e+002, 1.706566e+002
4.756861e+002, 1.703107e+002
4.761682e+002, 1.703382e+002
4.766503e+002, 1.705990e+002
4.771324e+002, 1.710484e+002
4.776146e+002, 1.715338e+002
4.780967e+002, 1.723067e+002
4.785788e+002, 1.726904e+002
4.790609e+002, 1.724631e+002
4.795430e+002, 1.719828e+002
4.800251e+002, 1.711756e+002
4.805073e+002, 1.702373e+002
4.809894e+002, 1.700005e+002
4.814715e+002, 1.717487e+002
4.819536e+002, 1.752487e+002
4.824357e+002, 1.772308e+002
4.829178e+002, 1.771566e+002
4.834000e+002, 1.764518e+002
4.838821e+002, 1.752888e+002
4.843642e+002, 1.740830e+002
4.848463e+002, 1.735401e+002
4.853284e+002, 1.740667e+002
4.858105e+002, 1.745113e+002
4.862927e+002, 1.733976e+002
4.867748e+002, 1.710415e+002
4.872569e+002, 1.695833e+002
4.877390e+002, 1.698735e+002
4.882211e+002, 1.703404e+002
4.887032e+002, 1.689307e+002
4.891854e+002, 1.660195e+002
4.896675e+002, 1.638016e+002
4.901496e+002, 1.628756e+002
4.906317e+002, 1.626474e+002
4.911138e+002, 1.631985e+002
4.915959e+002, 1.641696e+002
4.920781e+002, 1.641767e+002
4.925602e+002, 1.624062e+002
4.930423e+002, 1.597491e+002
4.935244e+002, 1.581704e+002
4.940065e+002, 1.584101e+002
4.944886e+002, 1.583526e+002
4.949708e+002, 1.574952e+002
4.954529e+002, 1.566460e+002
4.959350e+002, 1.565451e+002
4.964171e+002, 1.570858e+002
4.968992e+002, 1.575777e+002
4.973813e+002, 1.574904e+002
4.978635e+002, 1.569075e+002
4.983456e+002, 1.563555e+002
4.988277e+002, 1.558567e+002
4.993098e+002, 1.553475e+002
4.997919e+002, 1.549129e+002
5.002740e+002, 1.544046e+002
5.007562e+002, 1.536177e+002
5.012383e+002, 1.525508e+002
5.017204e+002, 1.514912e+002
5.022025e+002, 1.506674e+002
5.026846e+002, 1.500858e+002
5.031667e+002, 1.498344e+002
5.036489e+002, 1.500416e+002
5.041310e+002, 1.503477e+002
5.046131e+002, 1.507031e+002
5.050952e+002, 1.509967e+002
5.055773e+002, 1.509375e+002
5.060594e+002, 1.501849e+002
5.065416e+002, 1.497619e+002
5.070237e+002, 1.512702e+002
5.075058e+002, 1.539105e+002
5.079879e+002, 1.546648e+002
5.084700e+002, 1.525420e+002
5.089521e+002, 1.494811e+002
5.094343e+002, 1.471978e+002
5.099164e+002, 1.457440e+002
5.103985e+002, 1.453362e+002
5.108806e+002, 1.469948e+002
5.113627e+002, 1.487361e+002
5.118448e+002, 1.496382e+002
5.123270e+002, 1.497482e+002
5.128091e+002, 1.490164e+002
5.132912e+002, 1.473687e+002
5.137733e+002, 1.457078e+002
5.142554e+002, 1.458391e+002
5.147375e+002, 1.492276e+002
5.152197e+002, 1.509368e+002
5.157018e+002, 1.499915e+002
5.161839e+002, 1.485329e+002
5.166660e+002, 1.472119e+002
5.171481e+002, 1.463071e+002
5.176302e+002, 1.463134e+002
5.181124e+002, 1.477069e+002
5.185945e+002, 1.496359e+002
5.190766e+002, 1.496231e+002
5.195587e+002, 1.468294e+002
5.200408e+002, 1.448365e+002
5.205229e+002, 1.451136e+002
5.210051e+002, 1.459364e+002
5.214872e+002, 1.463059e+002
5.219693e+002, 1.461861e+002
5.224514e+002, 1.459157e+002
5.229335e+002, 1.456065e+002
5.234156e+002, 1.453051e+002
5.238978e+002, 1.451291e+002
5.243799e+002, 1.450883e+002
5.248620e+002, 1.450318e+002
5.253441e+002, 1.449260e+002
5.258262e+002, 1.447318e+002
5.263083e+002, 1.443737e+002
5.267905e+002, 1.438357e+002
5.272726e+002, 1.432283e+002
5.277547e+002, 1.425966e+002
5.282368e+002, 1.419098e+002
5.287189e+002, 1.410562e+002
5.292010e+002, 1.400704e+002
5.296832e+002, 1.391994e+002
5.301653e+002, 1.386093e+002
5.306474e+002, 1.382992e+002
5.311295e+002, 1.382440e+002
5.316116e+002, 1.391327e+002
5.320938e+002, 1.393959e+002
5.325759e+002, 1.381298e+002
5.330580e+002, 1.366677e+002
5.335401e+002, 1.364423e+002
5.340222e+002, 1.374973e+002
5.345043e+002, 1.385408e+002
5.349865e+002, 1.382329e+002
5.354686e+002, 1.367231e+002
5.359507e+002, 1.358089e+002
5.364328e+002, 1.358316e+002
5.369149e+002, 1.358078e+002
5.373970e+002, 1.353588e+002
5.378792e+002, 1.346944e+002
5.383613e+002, 1.339416e+002
5.388434e+002, 1.330986e+002
5.393255e+002, 1.324920e+002
5.398076e+002, 1.321301e+002
5.402897e+002, 1.322073e+002
5.407719e+002, 1.336708e+002
5.412540e+002, 1.369130e+002
5.417361e+002, 1.396021e+002
5.422182e+002, 1.397458e+002
5.427003e+002, 1.378842e+002
5.431824e+002, 1.369398e+002
5.436646e+002, 1.375154e+002
5.441467e+002, 1.382027e+002
5.446288e+002, 1.383696e+002
5.451109e+002, 1.384316e+002
5.455930e+002, 1.388977e+002
5.460751e+002, 1.398921e+002
5.465573e+002, 1.413794e+002
5.470394e+002, 1.434878e+002
5.475215e+002, 1.462559e+002
5.480036e+002, 1.478700e+002
5.484857e+002, 1.472559e+002
5.489678e+002, 1.466659e+002
5.494500e+002, 1.461394e+002
5.499321e+002, 1.460139e+002
5.504142e+002, 1.468162e+002
5.508963e+002, 1.486217e+002
5.513784e+002, 1.506330e+002
5.518605e+002, 1.519176e+002
5.523427e+002, 1.525359e+002
5.528248e+002, 1.534860e+002
5.533069e+002, 1.551260e+002
5.537890e+002, 1.564215e+002
5.542711e+002, 1.563587e+002
5.547532e+002, 1.556951e+002
5.552354e+002, 1.555503e+002
5.557175e+002, 1.562848e+002
5.561996e+002, 1.570714e+002
5.566817e+002, 1.577770e+002
5.571638e+002, 1.580807e+002
5.576459e+002, 1.570088e+002
5.581281e+002, 1.543638e+002
5.586102e+002, 1.516826e+002
5.590923e+002, 1.503755e+002
5.595744e+002, 1.503561e+002
5.600565e+002, 1.497721e+002
5.605386e+002, 1.479046e+002
5.610208e+002, 1.464611e+002
5.615029e+002, 1.464087e+002
5.619850e+002, 1.466913e+002
5.624671e+002, 1.460338e+002
5.629492e+002, 1.442127e+002
5.634313e+002, 1.419380e+002
5.639135e+002, 1.398061e+002
5.643956e+002, 1.378224e+002
5.648777e+002, 1.367489e+002
5.653598e+002, 1.371654e+002
5.658419e+002, 1.375952e+002
5.663240e+002, 1.376196e+002
5.668062e+002, 1.374068e+002
5.672883e+002, 1.370861e+002
5.677704e+002, 1.366834e+002
5.682525e+002, 1.363069e+002
5.687346e+002, 1.360455e+002
5.692167e+002, 1.358755e+002
5.696989e+002, 1.357494e+002
5.701810e+002, 1.356708e+002
5.706631e+002, 1.355917e+002
5.711452e+002, 1.355720e+002
5.716273e+002, 1.354939e+002
5.721094e+002, 1.349566e+002
5.725916e+002, 1.335306e+002
5.730737e+002, 1.324519e+002
5.735558e+002, 1.321615e+002
5.740379e+002, 1.323176e+002
5.745200e+002, 1.326773e+002
5.750021e+002, 1.331458e+002
5.754843e+002, 1.336164e+002
5.759664e+002, 1.340575e+002
5.764485e+002, 1.343772e+002
5.769306e+002, 1.339254e+002
5.774127e+002, 1.318000e+002
5.778948e+002, 1.303623e+002
5.783770e+002, 1.305595e+002
5.788591e+002, 1.310177e+002
5.793412e+002, 1.303800e+002
5.798233e+002, 1.287733e+002
5.803054e+002, 1.277126e+002
5.807875e+002, 1.286662e+002
5.812697e+002, 1.308106e+002
5.817518e+002, 1.320960e+002
5.822339e+002, 1.324699e+002
5.827161e+002, 1.324801e+002
5.831982e+002, 1.322393e+002
5.836803e+002, 1.318281e+002
5.841624e+002, 1.313142e+002
5.846445e+002, 1.306613e+002
5.851266e+002, 1.302014e+002
5.856088e+002, 1.302964e+002
5.860909e+002, 1.304106e+002
5.865730e+002, 1.300016e+002
5.870551e+002, 1.291743e+002
5.875372e+002, 1.282983e+002
5.880193e+002, 1.275387e+002
5.885015e+002, 1.270615e+002
5.889836e+002, 1.273527e+002
5.894657e+002, 1.293111e+002
5.899478e+002, 1.300492e+002
5.904299e+002, 1.282830e+002
5.909120e+002, 1.266830e+002
5.913942e+002, 1.268022e+002
5.918763e+002, 1.280619e+002
5.923584e+002, 1.290990e+002
5.928405e+002, 1.292541e+002
5.933226e+002, 1.289522e+002
5.938047e+002, 1.288098e+002
5.942869e+002, 1.288213e+002
5.947690e+002, 1.287557e+002
5.952511e+002, 1.285789e+002
5.957332e+002, 1.282992e+002
5.962153e+002, 1.278139e+002
5.966974e+002, 1.272084e+002
5.971796e+002, 1.268008e+002
5.976617e+002, 1.269458e+002
5.981438e+002, 1.269631e+002
5.986259e+002, 1.263506e+002
5.991080e+002, 1.253974e+002
5.995901e+002, 1.244608e+002
6.000723e+002, 1.236657e+002
6.005544e+002, 1.233438e+002
6.010365e+002, 1.239400e+002
6.015186e+002, 1.254864e+002
6.020007e+002, 1.266253e+002
6.024828e+002, 1.275479e+002
6.029650e+002, 1.277842e+002
6.034471e+002, 1.262972e+002
6.039292e+002, 1.246515e+002
6.044113e+002, 1.246421e+002
6.048934e+002, 1.264555e+002
6.053755e+002, 1.284608e+002
6.058577e+002, 1.291679e+002
6.063398e+002, 1.289116e+002
6.068219e+002, 1.289696e+002
6.073040e+002, 1.294223e+002
6.077861e+002, 1.297212e+002
6.082682e+002, 1.294541e+002
6.087504e+002, 1.290123e+002
6.092325e+002, 1.291993e+002
6.097146e+002, 1.302271e+002
6.101967e+002, 1.307158e+002
6.106788e+002, 1.300387e+002
6.111609e+002, 1.288704e+002
6.116431e+002, 1.274852e+002
6.121252e+002, 1.261187e+002
6.126073e+002, 1.253532e+002
6.130894e+002, 1.255117e+002
6.135715e+002, 1.262936e+002
6.140536e+002, 1.271403e+002
6.145358e+002, 1.283736e+002
6.150179e+002, 1.288595e+002
6.155000e+002, 1.278341e+002
6.159821e+002, 1.268252e+002
6.164642e+002, 1.263800e+002
6.169464e+002, 1.264339e+002
6.174285e+002, 1.268428e+002
6.179106e+002, 1.276292e+002
6.183927e+002, 1.284446e+002
6.188748e+002, 1.288730e+002
6.193569e+002, 1.289738e+002
6.198391e+002, 1.290520e+002
6.203212e+002, 1.291430e+002
6.208033e+002, 1.292767e+002
6.212854e+002, 1.295486e+002
6.217675e+002, 1.298900e+002
6.222496e+002, 1.299327e+002
6.227318e+002, 1.294486e+002
6.232139e+002, 1.289710e+002
6.236960e+002, 1.286331e+002
6.241781e+002, 1.283797e+002
6.246602e+002, 1.282269e+002
6.251423e+002, 1.281256e+002
6.256245e+002, 1.278743e+002
6.261066e+002, 1.272718e+002
6.265887e+002, 1.264375e+002
6.270708e+002, 1.258326e+002
6.275529e+002, 1.252555e+002
6.280350e+002, 1.254045e+002
6.285172e+002, 1.275807e+002
6.289993e+002, 1.296444e+002
6.294814e+002, 1.300225e+002
6.299635e+002, 1.289208e+002
6.304456e+002, 1.277622e+002
6.309277e+002, 1.270125e+002
6.314099e+002, 1.266481e+002
6.318920e+002, 1.267364e+002
6.323741e+002, 1.272071e+002
6.328562e+002, 1.278644e+002
6.333383e+002, 1.287025e+002
6.338204e+002, 1.293606e+002
6.343026e+002, 1.293428e+002
6.347847e+002, 1.285443e+002
6.352668e+002, 1.280515e+002
6.357489e+002, 1.278558e+002
6.362310e+002, 1.279225e+002
6.367131e+002, 1.285395e+002
6.371953e+002, 1.292619e+002
6.376774e+002, 1.296110e+002
6.381595e+002, 1.294737e+002
6.386416e+002, 1.289926e+002
6.391237e+002, 1.281125e+002
6.396058e+002, 1.269895e+002
6.400880e+002, 1.265010e+002
6.405701e+002, 1.268182e+002
6.410522e+002, 1.270744e+002
6.415343e+002, 1.267620e+002
6.420164e+002, 1.263614e+002
6.424985e+002, 1.267017e+002
6.429807e+002, 1.278772e+002
6.434628e+002, 1.284093e+002
6.439449e+002, 1.270148e+002
6.444270e+002, 1.255587e+002
6.449091e+002, 1.260685e+002
6.453912e+002, 1.277747e+002
6.458734e+002, 1.282612e+002
6.463555e+002, 1.265453e+002
6.468376e+002, 1.242571e+002
6.473197e+002, 1.241193e+002
6.478018e+002, 1.267597e+002
6.482839e+002, 1.279518e+002
6.487661e+002, 1.263096e+002
6.492482e+002, 1.248841e+002
6.497303e+002, 1.249476e+002
6.502124e+002, 1.255714e+002
6.506945e+002, 1.254408e+002
6.511766e+002, 1.242475e+002
6.516588e+002, 1.232247e+002
6.521409e+002, 1.235318e+002
6.526230e+002, 1.246028e+002
6.531051e+002, 1.251897e+002
6.535872e+002, 1.252400e+002
6.540693e+002, 1.256314e+002
6.545515e+002, 1.269705e+002
6.550336e+002, 1.286753e+002
6.555157e+002, 1.295334e+002
6.559978e+002, 1.292150e+002
6.564799e+002, 1.287419e+002
6.569620e+002, 1.280006e+002
6.574442e+002, 1.272198e+002
6.579263e+002, 1.261221e+002
6.584084e+002, 1.251731e+002
6.588905e+002, 1.254394e+002
6.593726e+002, 1.273430e+002
6.598547e+002, 1.293590e+002
6.603369e+002, 1.289819e+002
6.608190e+002, 1.264590e+002
6.613011e+002, 1.257432e+002
6.617832e+002, 1.278193e+002
6.622653e+002, 1.294776e+002
6.627474e+002, 1.284386e+002
6.632296e+002, 1.260333e+002
6.637117e+002, 1.249584e+002
6.641938e+002, 1.256149e+002
6.646759e+002, 1.263924e+002
6.651580e+002, 1.266746e+002
6.656401e+002, 1.269546e+002
6.661223e+002, 1.280589e+002
6.666044e+002, 1.296079e+002
6.670865e+002, 1.301642e+002
6.675686e+002, 1.289435e+002
6.680507e+002, 1.270329e+002
6.685328e+002, 1.266137e+002
6.690150e+002, 1.281427e+002
6.694971e+002, 1.292296e+002
6.699792e+002, 1.301003e+002
6.704613e+002, 1.301382e+002
6.709434e+002, 1.281668e+002
6.714255e+002, 1.255997e+002
6.719077e+002, 1.248202e+002
6.723898e+002, 1.266857e+002
6.728719e+002, 1.284386e+002
6.733540e+002, 1.278540e+002
6.738361e+002, 1.262719e+002
6.743182e+002, 1.258612e+002
6.748004e+002, 1.266685e+002
6.752825e+002, 1.274978e+002
6.757646e+002, 1.276944e+002
6.762467e+002, 1.274208e+002
6.767288e+002, 1.270006e+002
6.772109e+002, 1.261136e+002
6.776931e+002, 1.258423e+002
6.781752e+002, 1.266348e+002
6.786573e+002, 1.275167e+002
6.791394e+002, 1.283550e+002
6.796215e+002, 1.289134e+002
6.801036e+002, 1.286198e+002
6.805858e+002, 1.272050e+002
6.810679e+002, 1.260305e+002
6.815500e+002, 1.269412e+002
6.820321e+002, 1.290786e+002
6.825142e+002, 1.298917e+002
6.829963e+002, 1.291229e+002
6.834785e+002, 1.279720e+002
6.839606e+002, 1.269325e+002
6.844427e+002, 1.261216e+002
6.849248e+002, 1.258325e+002
6.854069e+002, 1.262890e+002
6.858890e+002, 1.267645e+002
6.863712e+002, 1.273208e+002
6.868533e+002, 1.278175e+002
6.873354e+002, 1.283825e+002
6.878175e+002, 1.287833e+002
6.882996e+002, 1.285289e+002
6.887817e+002, 1.274448e+002
6.892639e+002, 1.261527e+002
6.897460e+002, 1.253081e+002
6.902281e+002, 1.248964e+002
6.907102e+002, 1.248674e+002
6.911923e+002, 1.252316e+002
6.916744e+002, 1.260084e+002
6.921566e+002, 1.277080e+002
6.926387e+002, 1.294687e+002
6.931208e+002, 1.292607e+002
6.936029e+002, 1.264386e+002
6.940850e+002, 1.247716e+002
6.945671e+002, 1.258947e+002
6.950493e+002, 1.273731e+002
6.955314e+002, 1.276248e+002
6.960135e+002, 1.270520e+002
6.964956e+002, 1.265781e+002
6.969777e+002, 1.265540e+002
6.974598e+002, 1.268308e+002
6.979420e+002, 1.273738e+002
6.984241e+002, 1.281530e+002
6.989062e+002, 1.283013e+002
6.993883e+002, 1.275279e+002
6.998704e+002, 1.269350e+002
7.003525e+002, 1.270052e+002
7.008347e+002, 1.275005e+002
7.013168e+002, 1.282583e+002
7.017989e+002, 1.293408e+002
7.022810e+002, 1.298158e+002
7.027631e+002, 1.287949e+002
7.032452e+002, 1.276753e+002
7.037274e+002, 1.275270e+002
7.042095e+002, 1.280201e+002
7.046916e+002, 1.284541e+002
7.051737e+002, 1.285946e+002
7.056558e+002, 1.286096e+002
7.061379e+002, 1.286996e+002
7.066201e+002, 1.288541e+002
7.071022e+002, 1.289262e+002
7.075843e+002, 1.290540e+002
7.080664e+002, 1.287529e+002
7.085485e+002, 1.271159e+002
7.090306e+002, 1.255490e+002
7.095128e+002, 1.257140e+002
7.099949e+002, 1.274789e+002
7.104770e+002, 1.285615e+002
7.109591e+002, 1.273277e+002
7.114412e+002, 1.260425e+002
7.119233e+002, 1.266426e+002
7.124055e+002, 1.283118e+002
7.128876e+002, 1.295639e+002
7.133697e+002, 1.299905e+002
7.138518e+002, 1.297755e+002
7.143339e+002, 1.289312e+002
7.148160e+002, 1.276603e+002
7.152982e+002, 1.276284e+002
7.157803e+002, 1.296814e+002
7.162624e+002, 1.309921e+002
7.167445e+002, 1.304183e+002
7.172266e+002, 1.293925e+002
7.177087e+002, 1.286150e+002
7.181909e+002, 1.281919e+002
7.186730e+002, 1.284317e+002
7.191551e+002, 1.299565e+002
7.196372e+002, 1.314602e+002
7.201193e+002, 1.322064e+002
7.206014e+002, 1.322803e+002
7.210836e+002, 1.314787e+002
7.215657e+002, 1.299582e+002
7.220478e+002, 1.288875e+002
7.225299e+002, 1.292148e+002
7.230120e+002, 1.305169e+002
7.234941e+002, 1.313032e+002
7.239763e+002, 1.315471e+002
7.244584e+002, 1.313352e+002
7.249405e+002, 1.300774e+002
7.254226e+002, 1.290030e+002
7.259047e+002, 1.287907e+002
7.263868e+002, 1.292309e+002
7.268690e+002, 1.299524e+002
7.273511e+002, 1.310900e+002
7.278332e+002, 1.318489e+002
7.283153e+002, 1.315425e+002
7.287974e+002, 1.306928e+002
7.292795e+002, 1.298347e+002
7.297617e+002, 1.290967e+002
7.302438e+002, 1.287104e+002
7.307259e+002, 1.288225e+002
7.312080e+002, 1.291892e+002
7.316901e+002, 1.292469e+002
7.321722e+002, 1.287885e+002
7.326544e+002, 1.289432e+002
7.331365e+002, 1.305066e+002
7.336186e+002, 1.315744e+002
7.341007e+002, 1.310509e+002
7.345828e+002, 1.297861e+002
7.350649e+002, 1.288086e+002
7.355471e+002, 1.282692e+002
7.360292e+002, 1.278298e+002
7.365113e+002, 1.272017e+002
7.369934e+002, 1.267082e+002
7.374755e+002, 1.266825e+002
7.379576e+002, 1.270658e+002
7.384398e+002, 1.277227e+002
7.389219e+002, 1.285969e+002
7.394040e+002, 1.294959e+002
7.398861e+002, 1.302370e+002
7.403682e+002, 1.308164e+002
7.408503e+002, 1.307891e+002
7.413325e+002, 1.297085e+002
7.418146e+002, 1.289596e+002
7.422967e+002, 1.291820e+002
7.427788e+002, 1.297087e+002
7.432609e+002, 1.300862e+002
7.437430e+002, 1.302875e+002
7.442252e+002, 1.302827e+002
7.447073e+002, 1.298435e+002
7.451894e+002, 1.294276e+002
7.456715e+002, 1.293687e+002
7.461536e+002, 1.295130e+002
7.466357e+002, 1.294762e+002
7.471179e+002, 1.292854e+002
7.476000e+002, 1.296209e+002
7.480821e+002, 1.311641e+002
7.485642e+002, 1.333052e+002
7.490463e+002, 1.339725e+002
7.495284e+002, 1.328620e+002
7.500106e+002, 1.316146e+002
7.504927e+002, 1.300377e+002
7.509748e+002, 1.289221e+002
7.514569e+002, 1.290315e+002
7.519390e+002, 1.299534e+002
7.524211e+002, 1.308938e+002
7.529033e+002, 1.319253e+002
7.533854e+002, 1.326004e+002
7.538675e+002, 1.328953e+002
7.543496e+002, 1.326518e+002
7.548317e+002, 1.310989e+002
7.553138e+002, 1.288889e+002
7.557960e+002, 1.277776e+002
7.562781e+002, 1.285702e+002
7.567602e+002, 1.303624e+002
7.572423e+002, 1.320918e+002
7.577244e+002, 1.337343e+002
7.582065e+002, 1.347856e+002
7.586887e+002, 1.352186e+002
7.591708e+002, 1.350668e+002
7.596529e+002, 1.340786e+002
7.601350e+002, 1.327351e+002
7.606171e+002, 1.316588e+002
7.610992e+002, 1.308212e+002
7.615814e+002, 1.304193e+002
7.620635e+002, 1.304785e+002
7.625456e+002, 1.309778e+002
7.630277e+002, 1.327357e+002
7.635098e+002, 1.345040e+002
7.639919e+002, 1.342463e+002
7.644741e+002, 1.319774e+002
7.649562e+002, 1.300125e+002
7.654383e+002, 1.303437e+002
7.659204e+002, 1.319440e+002
7.664025e+002, 1.323770e+002
7.668846e+002, 1.316973e+002
7.673668e+002, 1.317230e+002
7.678489e+002, 1.330598e+002
7.683310e+002, 1.343464e+002
7.688131e+002, 1.343631e+002
7.692952e+002, 1.333612e+002
7.697773e+002, 1.327883e+002
7.702595e+002, 1.330905e+002
7.707416e+002, 1.331428e+002
7.712237e+002, 1.325213e+002
7.717058e+002, 1.319666e+002
7.721879e+002, 1.319614e+002
7.726700e+002, 1.323862e+002
7.731522e+002, 1.330212e+002
7.736343e+002, 1.338168e+002
7.741164e+002, 1.343943e+002
7.745985e+002, 1.343526e+002
7.750806e+002, 1.338391e+002
7.755627e+002, 1.329600e+002
7.760449e+002, 1.318007e+002
7.765270e+002, 1.312683e+002
7.770091e+002, 1.318582e+002
7.774912e+002, 1.327699e+002
7.779733e+002, 1.326900e+002
7.784554e+002, 1.313710e+002
7.789376e+002, 1.311502e+002
7.794197e+002, 1.334392e+002
7.799019e+002, 1.348938e+002
7.803840e+002, 1.340927e+002
7.808661e+002, 1.327402e+002
7.813482e+002, 1.323608e+002
7.818303e+002, 1.329299e+002
7.823124e+002, 1.334590e+002
7.827946e+002, 1.333820e+002
7.832767e+002, 1.333054e+002
7.837588e+002, 1.336938e+002
7.842409e+002, 1.344345e+002
7.847230e+002, 1.356637e+002
7.852051e+002, 1.371970e+002
7.856873e+002, 1.378477e+002
7.861694e+002, 1.366683e+002
7.866515e+002, 1.345232e+002
7.871336e+002, 1.336878e+002
7.876157e+002, 1.344147e+002
7.880978e+002, 1.351320e+002
7.885800e+002, 1.360013e+002
7.890621e+002, 1.363955e+002
7.895442e+002, 1.353857e+002
7.900263e+002, 1.339398e+002
7.905084e+002, 1.337438e+002
7.909905e+002, 1.351797e+002
7.914727e+002, 1.362349e+002
7.919548e+002, 1.360096e+002
7.924369e+002, 1.356600e+002
7.929190e+002, 1.360202e+002
7.934011e+002, 1.367235e+002
7.938832e+002, 1.370604e+002
7.943654e+002, 1.368923e+002
7.948475e+002, 1.367101e+002
7.953296e+002, 1.370023e+002
7.958117e+002, 1.375544e+002
7.962938e+002, 1.377522e+002
7.967759e+002, 1.376015e+002
7.972581e+002, 1.376153e+002
7.977402e+002, 1.380213e+002
7.982223e+002, 1.381580e+002
7.987044e+002, 1.373019e+002
7.991865e+002, 1.356821e+002
7.996686e+002, 1.346750e+002
8.001508e+002, 1.348193e+002
8.006329e+002, 1.348104e+002
8.011150e+002, 1.340852e+002
8.015971e+002, 1.337413e+002
8.020792e+002, 1.348368e+002
8.025613e+002, 1.366352e+002
8.030435e+002, 1.376200e+002
8.035256e+002, 1.372670e+002
8.040077e+002, 1.371343e+002
8.044898e+002, 1.393510e+002
8.049719e+002, 1.418988e+002
8.054540e+002, 1.412060e+002
8.059362e+002, 1.380220e+002
8.064183e+002, 1.358733e+002
8.069004e+002, 1.360080e+002
8.073825e+002, 1.371309e+002
8.078646e+002, 1.378379e+002
8.083467e+002, 1.381391e+002
8.088289e+002, 1.380549e+002
8.093110e+002, 1.372514e+002
8.097931e+002, 1.369970e+002
8.102752e+002, 1.380227e+002
8.107573e+002, 1.391754e+002
8.112394e+002, 1.393449e+002
8.117216e+002, 1.388751e+002
8.122037e+002, 1.389434e+002
8.126858e+002, 1.402296e+002
8.131679e+002, 1.410955e+002
8.136500e+002, 1.408056e+002
8.141321e+002, 1.400220e+002
8.146143e+002, 1.391217e+002
8.150964e+002, 1.382456e+002
8.155785e+002, 1.374409e+002
8.160606e+002, 1.367369e+002
8.165427e+002, 1.364859e+002
8.170248e+002, 1.374141e+002
8.175070e+002, 1.391117e+002
8.179891e+002, 1.401837e+002
8.184712e+002, 1.406091e+002
8.189533e+002, 1.405160e+002
8.194354e+002, 1.398654e+002
8.199175e+002, 1.390167e+002
8.203997e+002, 1.383418e+002
8.208818e+002, 1.378423e+002
8.213639e+002, 1.375979e+002
8.218460e+002, 1.372442e+002
8.223281e+002, 1.377220e+002
8.228102e+002, 1.403788e+002
8.232924e+002, 1.427211e+002
8.237745e+002, 1.429014e+002
8.242566e+002, 1.414685e+002
8.247387e+002, 1.398353e+002
8.252208e+002, 1.380683e+002
8.257029e+002, 1.372618e+002
8.261851e+002, 1.390197e+002
8.266672e+002, 1.414393e+002
8.271493e+002, 1.422775e+002
8.276314e+002, 1.417448e+002
8.281135e+002, 1.409162e+002
8.285956e+002, 1.402398e+002
8.290778e+002, 1.398630e+002
8.295599e+002, 1.400188e+002
8.300420e+002, 1.406380e+002
8.305241e+002, 1.413493e+002
8.310062e+002, 1.422163e+002
8.314883e+002, 1.426456e+002
8.319705e+002, 1.422270e+002
8.324526e+002, 1.418363e+002
8.329347e+002, 1.425785e+002
8.334168e+002, 1.442296e+002
8.338989e+002, 1.446209e+002
8.343810e+002, 1.419856e+002
8.348632e+002, 1.407766e+002
8.353453e+002, 1.429978e+002
8.358274e+002, 1.452021e+002
8.363095e+002, 1.447108e+002
8.367916e+002, 1.427445e+002
8.372737e+002, 1.419248e+002
8.377559e+002, 1.430668e+002
8.382380e+002, 1.446069e+002
8.387201e+002, 1.458919e+002
8.392022e+002, 1.465874e+002
8.396843e+002, 1.458819e+002
8.401664e+002, 1.441827e+002
8.406486e+002, 1.427056e+002
8.411307e+002, 1.418344e+002
8.416128e+002, 1.413531e+002
8.420949e+002, 1.410299e+002
8.425770e+002, 1.409375e+002
8.430591e+002, 1.416496e+002
8.435413e+002, 1.435219e+002
8.440234e+002, 1.442676e+002
8.445055e+002, 1.429933e+002
8.449876e+002, 1.415279e+002
8.454697e+002, 1.409552e+002
8.459518e+002, 1.411647e+002
8.464340e+002, 1.418650e+002
8.469161e+002, 1.433062e+002
8.473982e+002, 1.445447e+002
8.478803e+002, 1.458932e+002
8.483624e+002, 1.465764e+002
8.488445e+002, 1.454286e+002
8.493267e+002, 1.437755e+002
8.498088e+002, 1.436751e+002
8.502909e+002, 1.452975e+002
8.507730e+002, 1.465878e+002
8.512551e+002, 1.460034e+002
8.517372e+002, 1.446256e+002
8.522194e+002, 1.435744e+002
8.527015e+002, 1.427896e+002
8.531836e+002, 1.419464e+002
8.536657e+002, 1.410758e+002
8.541478e+002, 1.410331e+002
8.546299e+002, 1.424964e+002
8.551121e+002, 1.446797e+002
8.555942e+002, 1.459296e+002
8.560763e+002, 1.462245e+002
8.565584e+002, 1.455104e+002
8.570405e+002, 1.432747e+002
8.575226e+002, 1.413515e+002
8.580048e+002, 1.403940e+002
8.584869e+002, 1.402691e+002
8.589690e+002, 1.410116e+002
8.594511e+002, 1.426912e+002
8.599332e+002, 1.439752e+002
8.604153e+002, 1.450331e+002
8.608975e+002, 1.454092e+002
8.613796e+002, 1.445227e+002
8.618617e+002, 1.432720e+002
8.623438e+002, 1.420973e+002
8.628259e+002, 1.412693e+002
8.633080e+002, 1.414521e+002
8.637902e+002, 1.432636e+002
8.642723e+002, 1.447303e+002
8.647544e+002, 1.434321e+002
8.652365e+002, 1.411715e+002
8.657186e+002, 1.410496e+002
8.662007e+002, 1.426658e+002
8.666829e+002, 1.436815e+002
8.671650e+002, 1.432204e+002
8.676471e+002, 1.422022e+002
8.681292e+002, 1.416267e+002
8.686113e+002, 1.414690e+002
8.690934e+002, 1.417240e+002
8.695756e+002, 1.425176e+002
8.700577e+002, 1.427619e+002
8.705398e+002, 1.420701e+002
8.710219e+002, 1.411413e+002
8.715040e+002, 1.405067e+002
8.719861e+002, 1.400739e+002
8.724683e+002, 1.394700e+002
8.729504e+002, 1.384138e+002
8.734325e+002, 1.377225e+002
8.739146e+002, 1.376233e+002
8.743967e+002, 1.376414e+002
8.748788e+002, 1.376506e+002
8.753610e+002, 1.376217e+002
8.758431e+002, 1.373625e+002
8.763252e+002, 1.369146e+002
8.768073e+002, 1.370083e+002
8.772894e+002, 1.387559e+002
8.777715e+002, 1.403800e+002
8.782537e+002, 1.403418e+002
8.787358e+002, 1.393701e+002
8.792179e+002, 1.383765e+002
8.797000e+002, 1.375734e+002
8.801821e+002, 1.370959e+002
8.806642e+002, 1.370503e+002
8.811464e+002, 1.370496e+002
8.816285e+002, 1.362532e+002
8.821106e+002, 1.349143e+002
8.825927e+002, 1.347202e+002
8.830748e+002, 1.357885e+002
8.835569e+002, 1.362863e+002
8.840391e+002, 1.354025e+002
8.845212e+002, 1.341458e+002
8.850033e+002, 1.337020e+002
8.854854e+002, 1.340297e+002
8.859675e+002, 1.342994e+002
8.864496e+002, 1.348975e+002
8.869318e+002, 1.346518e+002
8.874139e+002, 1.321950e+002
8.878960e+002, 1.301490e+002
8.883781e+002, 1.306023e+002
8.888602e+002, 1.323192e+002
8.893423e+002, 1.327395e+002
8.898245e+002, 1.312566e+002
8.903066e+002, 1.300089e+002
8.907887e+002, 1.298170e+002
8.912708e+002, 1.297756e+002
8.917529e+002, 1.295502e+002
8.922350e+002, 1.290380e+002
8.927172e+002, 1.278065e+002
8.931993e+002, 1.260687e+002
8.936814e+002, 1.250460e+002
8.941635e+002, 1.256812e+002
8.946456e+002, 1.269327e+002
8.951277e+002, 1.277392e+002
8.956099e+002, 1.281513e+002
8.960920e+002, 1.281228e+002
8.965741e+002, 1.277472e+002
8.970562e+002, 1.275483e+002
8.975383e+002, 1.277789e+002
8.980204e+002, 1.282282e+002
8.985026e+002, 1.286585e+002
8.989847e+002, 1.290454e+002
8.994668e+002, 1.290641e+002
8.999489e+002, 1.286694e+002
9.004310e+002, 1.281154e+002
9.009131e+002, 1.273591e+002
9.013953e+002, 1.266994e+002
9.018774e+002, 1.263790e+002
9.023595e+002, 1.263711e+002
9.028416e+002, 1.265813e+002
9.033237e+002, 1.276004e+002
9.038058e+002, 1.277574e+002
9.042880e+002, 1.259485e+002
9.047701e+002, 1.245890e+002
9.052522e+002, 1.250394e+002
9.057343e+002, 1.262474e+002
9.062164e+002, 1.269417e+002
9.066985e+002, 1.269975e+002
9.071807e+002, 1.269139e+002
9.076628e+002, 1.267769e+002
9.081449e+002, 1.266515e+002
9.086270e+002, 1.266958e+002
9.091091e+002, 1.266847e+002
9.095912e+002, 1.261466e+002
9.100734e+002, 1.253146e+002
9.105555e+002, 1.250734e+002
9.110376e+002, 1.258426e+002
9.115197e+002, 1.265850e+002
9.120018e+002, 1.262321e+002
9.124839e+002, 1.250504e+002
9.129661e+002, 1.230549e+002
9.134482e+002, 1.206347e+002
9.139303e+002, 1.197529e+002
9.144124e+002, 1.209052e+002
9.148945e+002, 1.225335e+002
9.153766e+002, 1.233220e+002
9.158588e+002, 1.234196e+002
9.163409e+002, 1.230877e+002
9.168230e+002, 1.221860e+002
9.173051e+002, 1.224842e+002
9.177872e+002, 1.247738e+002
9.182693e+002, 1.259947e+002
9.187515e+002, 1.239854e+002
9.192336e+002, 1.209695e+002
9.197157e+002, 1.205811e+002
9.201978e+002, 1.231962e+002
9.206799e+002, 1.246894e+002
9.211620e+002, 1.246545e+002
9.216442e+002, 1.240316e+002
9.221263e+002, 1.220999e+002
9.226084e+002, 1.204034e+002
9.230905e+002, 1.201598e+002
9.235726e+002, 1.209190e+002
9.240547e+002, 1.216071e+002
9.245369e+002, 1.220825e+002
9.250190e+002, 1.222540e+002
9.255011e+002, 1.218003e+002
9.259832e+002, 1.213356e+002
9.264653e+002, 1.212753e+002
9.269474e+002, 1.214583e+002
9.274296e+002, 1.217130e+002
9.279117e+002, 1.219522e+002
9.283938e+002, 1.219964e+002
9.288759e+002, 1.216521e+002
9.293580e+002, 1.212830e+002
9.298401e+002, 1.215363e+002
9.303223e+002, 1.219457e+002
9.308044e+002, 1.213810e+002
9.312865e+002, 1.200449e+002
9.317686e+002, 1.191431e+002
9.322507e+002, 1.191625e+002
9.327328e+002, 1.196809e+002
9.332150e+002, 1.201893e+002
9.336971e+002, 1.208141e+002
9.341792e+002, 1.224077e+002
9.346613e+002, 1.249612e+002
9.351434e+002, 1.261374e+002
9.356255e+002, 1.253381e+002
9.361077e+002, 1.242339e+002
9.365898e+002, 1.238271e+002
9.370719e+002, 1.240058e+002
9.375540e+002, 1.246836e+002
9.380361e+002, 1.262091e+002
9.385182e+002, 1.261423e+002
9.390004e+002, 1.230548e+002
9.394825e+002, 1.211978e+002
9.399646e+002, 1.226806e+002
9.404467e+002, 1.249253e+002
9.409288e+002, 1.256165e+002
9.414109e+002, 1.250486e+002
9.418931e+002, 1.244303e+002
9.423752e+002, 1.234040e+002
9.428573e+002, 1.230638e+002
9.433394e+002, 1.243653e+002
9.438215e+002, 1.254689e+002
9.443036e+002, 1.247117e+002
9.447858e+002, 1.236030e+002
9.452679e+002, 1.245480e+002
9.457500e+002, 1.275881e+002
9.462321e+002, 1.299112e+002
9.467142e+002, 1.298089e+002
9.471964e+002, 1.293415e+002
9.476785e+002, 1.295499e+002
9.481606e+002, 1.302028e+002
9.486427e+002, 1.311533e+002
9.491248e+002, 1.323001e+002
9.496069e+002, 1.335814e+002
9.500891e+002, 1.349529e+002
9.505712e+002, 1.361051e+002
9.510533e+002, 1.362724e+002
9.515354e+002, 1.363462e+002
9.520175e+002, 1.379900e+002
9.524996e+002, 1.407529e+002
9.529818e+002, 1.433700e+002
9.534639e+002, 1.456283e+002
9.539460e+002, 1.478440e+002
9.544281e+002, 1.502011e+002
9.549102e+002, 1.527729e+002
9.553923e+002, 1.557077e+002
9.558745e+002, 1.589892e+002
9.563566e+002, 1.622924e+002
9.568387e+002, 1.656114e+002
9.573208e+002, 1.692074e+002
9.578029e+002, 1.732384e+002
9.582850e+002, 1.771929e+002
9.587672e+002, 1.805770e+002
9.592493e+002, 1.835267e+002
9.597314e+002, 1.867095e+002
9.602135e+002, 1.904673e+002
9.606956e+002, 1.931914e+002
9.611777e+002, 1.944574e+002
9.616599e+002, 1.954262e+002
9.621420e+002, 1.966846e+002
9.626241e+002, 1.977750e+002
9.631062e+002, 1.984131e+002
9.635883e+002, 1.985903e+002
9.640704e+002, 1.968969e+002
9.645526e+002, 1.921711e+002
9.650347e+002, 1.873816e+002
9.655168e+002, 1.826223e+002
9.659989e+002, 1.780270e+002
9.664810e+002, 1.740160e+002
9.669631e+002, 1.700631e+002
9.674453e+002, 1.650552e+002
9.679274e+002, 1.587864e+002
9.684095e+002, 1.534162e+002
9.688916e+002, 1.500504e+002
9.693737e+002, 1.470582e+002
9.698558e+002, 1.436443e+002
9.703380e+002, 1.403108e+002
9.708201e+002, 1.375352e+002
9.713022e+002, 1.352871e+002
9.717843e+002, 1.334268e+002
9.722664e+002, 1.319474e+002
9.727485e+002, 1.303796e+002
9.732307e+002, 1.280271e+002
9.737128e+002, 1.258023e+002
9.741949e+002, 1.248632e+002
9.746770e+002, 1.245776e+002
9.751591e+002, 1.235568e+002
9.756412e+002, 1.219129e+002
9.761234e+002, 1.212941e+002
9.766055e+002, 1.227201e+002
9.770876e+002, 1.245419e+002
9.775698e+002, 1.248235e+002
9.780519e+002, 1.240176e+002
9.785340e+002, 1.227360e+002
9.790161e+002, 1.212489e+002
9.794982e+002, 1.206488e+002
9.799803e+002, 1.211377e+002
9.804625e+002, 1.215129e+002
9.809446e+002, 1.207406e+002
9.814267e+002, 1.194902e+002
9.819088e+002, 1.195227e+002
9.823909e+002, 1.206074e+002
9.828730e+002, 1.201566e+002
9.833552e+002, 1.179699e+002
9.838373e+002, 1.164909e+002
9.843194e+002, 1.166668e+002
9.848015e+002, 1.175557e+002
9.852836e+002, 1.182540e+002
9.857657e+002, 1.187415e+002
9.862479e+002, 1.189645e+002
9.867300e+002, 1.189859e+002
9.872121e+002, 1.183089e+002
9.876942e+002, 1.165917e+002
9.881763e+002, 1.150352e+002
9.886584e+002, 1.141527e+002
9.891406e+002, 1.137704e+002
9.896227e+002, 1.136380e+002
9.901048e+002, 1.137588e+002
9.905869e+002, 1.145347e+002
9.910690e+002, 1.169199e+002
9.915511e+002, 1.180651e+002
9.920333e+002, 1.166671e+002
9.925154e+002, 1.152479e+002
9.929975e+002, 1.155340e+002
9.934796e+002, 1.164309e+002
9.939617e+002, 1.159813e+002
9.944438e+002, 1.139592e+002
9.949260e+002, 1.130076e+002
9.954081e+002, 1.142101e+002
9.958902e+002, 1.152173e+002
9.963723e+002, 1.154991e+002
9.968544e+002, 1.154743e+002
9.973365e+002, 1.154206e+002
9.978187e+002, 1.152755e+002
9.983008e+002, 1.148547e+002
9.987829e+002, 1.141077e+002
9.992650e+002, 1.133401e+002
9.997471e+002, 1.122455e+002
1.000229e+003, 1.116407e+002
1.000711e+003, 1.125130e+002
1.001193e+003, 1.135574e+002
1.001676e+003, 1.131227e+002
1.002158e+003, 1.118337e+002
1.002640e+003, 1.118194e+002
1.003122e+003, 1.138987e+002
1.003604e+003, 1.152545e+002
1.004086e+003, 1.133336e+002
1.004568e+003, 1.110623e+002
1.005050e+003, 1.107541e+002
1.005533e+003, 1.115957e+002
1.006015e+003, 1.124984e+002
1.006497e+003, 1.133259e+002
1.006979e+003, 1.144993e+002
1.007461e+003, 1.162851e+002
1.007943e+003, 1.176064e+002
1.008425e+003, 1.172057e+002
1.008907e+003, 1.160368e+002
1.009389e+003, 1.149968e+002
1.009872e+003, 1.142720e+002
1.010354e+003, 1.142996e+002
1.010836e+003, 1.150130e+002
1.011318e+003, 1.158988e+002
1.011800e+003, 1.167308e+002
1.012282e+003, 1.169859e+002
1.012764e+003, 1.151314e+002
1.013246e+003, 1.126061e+002
1.013729e+003, 1.131143e+002
1.014211e+003, 1.158540e+002
1.014693e+003, 1.175510e+002
1.015175e+003, 1.174623e+002
1.015657e+003, 1.164766e+002
1.016139e+003, 1.150828e+002
1.016621e+003, 1.139135e+002
1.017103e+003, 1.143668e+002
1.017585e+003, 1.160095e+002
1.018068e+003, 1.168818e+002
1.018550e+003, 1.169798e+002
1.019032e+003, 1.169504e+002
1.019514e+003, 1.169755e+002
1.019996e+003, 1.170197e+002
1.020478e+003, 1.170294e+002
1.020960e+003, 1.171255e+002
1.021442e+003, 1.176768e+002
1.021924e+003, 1.186565e+002
1.022407e+003, 1.194180e+002
1.022889e+003, 1.199359e+002
1.023371e+003, 1.202807e+002
1.023853e+003, 1.204731e+002
1.024335e+003, 1.205022e+002
1.024817e+003, 1.203325e+002
1.025299e+003, 1.200383e+002
1.025781e+003, 1.197746e+002
1.026264e+003, 1.194764e+002
1.026746e+003, 1.198651e+002
1.027228e+003, 1.211695e+002
1.027710e+003, 1.221716e+002
1.028192e+003, 1.223941e+002
1.028674e+003, 1.223704e+002
1.029156e+003, 1.225951e+002
1.029638e+003, 1.230064e+002
1.030120e+003, 1.232675e+002
1.030603e+003, 1.230801e+002
1.031085e+003, 1.239867e+002
1.031567e+003, 1.266791e+002
1.032049e+003, 1.287795e+002
1.032531e+003, 1.293440e+002
1.033013e+003, 1.291923e+002
1.033495e+003, 1.288329e+002
1.033977e+003, 1.284898e+002
1.034459e+003, 1.293647e+002
1.034942e+003, 1.321884e+002
1.035424e+003, 1.344899e+002
1.035906e+003, 1.361062e+002
1.036388e+003, 1.374642e+002
1.036870e+003, 1.387746e+002
1.037352e+003, 1.398064e+002
1.037834e+003, 1.400974e+002
1.038316e+003, 1.398614e+002
1.038799e+003, 1.403956e+002
1.039281e+003, 1.423964e+002
1.039763e+003, 1.438147e+002
1.040245e+003, 1.445376e+002
1.040727e+003, 1.448339e+002
1.041209e+003, 1.448132e+002
1.041691e+003, 1.443918e+002
1.042173e+003, 1.432068e+002
1.042656e+003, 1.414764e+002
1.043138e+003, 1.403889e+002
1.043620e+003, 1.404353e+002
1.044102e+003, 1.402224e+002
1.044584e+003, 1.401244e+002
1.045066e+003, 1.391920e+002
1.045548e+003, 1.361999e+002
1.046030e+003, 1.328955e+002
1.046512e+003, 1.312810e+002
1.046995e+003, 1.309407e+002
1.047477e+003, 1.296513e+002
1.047959e+003, 1.264773e+002
1.048441e+003, 1.239613e+002
1.048923e+003, 1.229347e+002
1.049405e+003, 1.220917e+002
1.049887e+003, 1.208159e+002
1.050369e+003, 1.195327e+002
1.050851e+003, 1.190135e+002
1.051334e+003, 1.189231e+002
1.051816e+003, 1.177275e+002
1.052298e+003, 1.143651e+002
1.052780e+003, 1.121271e+002
1.053262e+003, 1.126876e+002
1.053744e+003, 1.133966e+002
1.054226e+003, 1.131783e+002
1.054708e+003, 1.123993e+002
1.055191e+003, 1.111457e+002
1.055673e+003, 1.097145e+002
1.056155e+003, 1.089747e+002
1.056637e+003, 1.093184e+002
1.057119e+003, 1.096299e+002
1.057601e+003, 1.096680e+002
1.058083e+003, 1.094830e+002
1.058565e+003, 1.088436e+002
1.059047e+003, 1.081942e+002
1.059530e+003, 1.079382e+002
1.060012e+003, 1.080671e+002
1.060494e+003, 1.084873e+002
1.060976e+003, 1.093031e+002
1.061458e+003, 1.097965e+002
1.061940e+003, 1.094638e+002
1.062422e+003, 1.090509e+002
1.062904e+003, 1.091105e+002
1.063386e+003, 1.091548e+002
1.063869e+003, 1.082533e+002
1.064351e+003, 1.069633e+002
1.064833e+003, 1.071122e+002
1.065315e+003, 1.094414e+002
1.065797e+003, 1.109823e+002
1.066279e+003, 1.099222e+002
1.066761e+003, 1.085094e+002
1.067243e+003, 1.079232e+002
1.067726e+003, 1.075756e+002
1.068208e+003, 1.070456e+002
1.068690e+003, 1.061953e+002
1.069172e+003, 1.045619e+002
1.069654e+003, 1.019418e+002
1.070136e+003, 1.004109e+002
1.070618e+003, 1.019828e+002
1.071100e+003, 1.034936e+002
1.071583e+003, 1.028612e+002
1.072065e+003, 1.017434e+002
1.072547e+003, 1.016839e+002
1.073029e+003, 1.024325e+002
1.073511e+003, 1.031886e+002
1.073993e+003, 1.037657e+002
1.074475e+003, 1.043540e+002
1.074957e+003, 1.055224e+002
1.075439e+003, 1.060983e+002
1.075922e+003, 1.048896e+002
1.076404e+003, 1.033700e+002
1.076886e+003, 1.028696e+002
1.077368e+003, 1.030403e+002
1.077850e+003, 1.028778e+002
1.078332e+003, 1.022704e+002
1.078814e+003, 1.024389e+002
1.079296e+003, 1.049972e+002
1.079779e+003, 1.069184e+002
1.080261e+003, 1.063691e+002
1.080743e+003, 1.049673e+002
1.081225e+003, 1.034956e+002
1.081707e+003, 1.023575e+002
1.082189e+003, 1.020588e+002
1.082671e+003, 1.026039e+002
1.083153e+003, 1.034261e+002
1.083635e+003, 1.047340e+002
1.084118e+003, 1.054820e+002
1.084600e+003, 1.046786e+002
1.085082e+003, 1.036839e+002
1.085564e+003, 1.034685e+002
1.086046e+003, 1.036987e+002
1.086528e+003, 1.041171e+002
1.087010e+003, 1.044875e+002
1.087492e+003, 1.039687e+002
1.087974e+003, 1.017082e+002
1.088457e+003, 1.000642e+002
1.088939e+003, 1.001934e+002
1.089421e+003, 1.010392e+002
1.089903e+003, 1.026455e+002
1.090385e+003, 1.040955e+002
1.090867e+003, 1.041944e+002
1.091349e+003, 1.031897e+002
1.091831e+003, 1.022920e+002
1.092314e+003, 1.017905e+002
1.092796e+003, 1.015431e+002
1.093278e+003, 1.015909e+002
1.093760e+003, 1.017693e+002
1.094242e+003, 1.021890e+002
1.094724e+003, 1.025350e+002
1.095206e+003, 1.025932e+002
1.095688e+003, 1.023095e+002
1.096171e+003, 1.015473e+002
1.096653e+003, 1.002033e+002
1.097135e+003, 9.900946e+001
1.097617e+003, 9.764063e+001
1.098099e+003, 9.716927e+001
1.098581e+003, 9.932288e+001
1.099063e+003, 1.012991e+002
1.099545e+003, 1.000288e+002
1.100027e+003, 9.726022e+001
1.100510e+003, 9.669920e+001
1.100992e+003, 9.889909e+001
1.101474e+003, 1.005829e+002
1.101956e+003, 1.010736e+002
1.102438e+003, 1.008657e+002
1.102920e+003, 9.919958e+001
1.103402e+003, 9.782040e+001
1.103884e+003, 9.801992e+001
1.104366e+003, 9.904877e+001
1.104849e+003, 9.984332e+001
1.105331e+003, 1.003405e+002
1.105813e+003, 1.009747e+002
1.106295e+003, 1.024509e+002
1.106777e+003, 1.030528e+002
1.107259e+003, 1.015024e+002
1.107741e+003, 1.002825e+002
1.108223e+003, 1.014325e+002
1.108706e+003, 1.027829e+002
1.109188e+003, 1.014152e+002
1.109670e+003, 9.797655e+001
1.110152e+003, 9.628279e+001
1.110634e+003, 9.750913e+001
1.111116e+003, 9.831371e+001
1.111598e+003, 9.802986e+001
1.112080e+003, 9.797522e+001
1.112563e+003, 9.872678e+001
1.113045e+003, 9.966216e+001
1.113527e+003, 1.005088e+002
1.114009e+003, 1.011227e+002
1.114491e+003, 1.010904e+002
1.114973e+003, 1.003245e+002
1.115455e+003, 9.925423e+001
1.115937e+003, 9.712472e+001
1.116419e+003, 9.604250e+001
1.116901e+003, 9.698650e+001
1.117384e+003, 9.822197e+001
1.117866e+003, 9.884836e+001
1.118348e+003, 9.901190e+001
1.118830e+003, 9.885843e+001
1.119312e+003, 9.836712e+001
1.119794e+003, 9.837857e+001
1.120276e+003, 9.940061e+001
1.120758e+003, 9.949699e+001
1.121241e+003, 9.787691e+001
1.121723e+003, 9.671317e+001
1.122205e+003, 9.732068e+001
1.122687e+003, 9.820329e+001
1.123169e+003, 9.740054e+001
1.123651e+003, 9.535550e+001
1.124133e+003, 9.474600e+001
1.124615e+003, 9.594936e+001
1.125098e+003, 9.680565e+001
1.125580e+003, 9.723473e+001
1.126062e+003, 9.726756e+001
1.126544e+003, 9.677641e+001
1.127026e+003, 9.639039e+001
1.127508e+003, 9.665007e+001
1.127990e+003, 9.737249e+001
1.128472e+003, 9.825505e+001
1.128954e+003, 9.932581e+001
1.129437e+003, 9.933437e+001
1.129919e+003, 9.819188e+001
1.130401e+003, 9.725235e+001
1.130883e+003, 9.674098e+001
1.131365e+003, 9.734789e+001
1.131847e+003, 9.968324e+001
1.132329e+003, 1.020031e+002
1.132811e+003, 1.013522e+002
1.133293e+003, 9.857860e+001
1.133776e+003, 9.804525e+001
1.134258e+003, 9.940007e+001
1.134740e+003, 9.911800e+001
1.135222e+003, 9.693921e+001
1.135704e+003, 9.523958e+001
1.136186e+003, 9.499207e+001
1.136668e+003, 9.562932e+001
1.137150e+003, 9.682006e+001
1.137633e+003, 9.797412e+001
1.138115e+003, 9.753514e+001
1.138597e+003, 9.614751e+001
1.139079e+003, 9.571714e+001
1.139561e+003, 9.625440e+001
1.140043e+003, 9.768303e+001
1.140525e+003, 9.969225e+001
1.141007e+003, 1.004757e+002
1.141490e+003, 9.875973e+001
1.141972e+003, 9.627628e+001
1.142454e+003, 9.475917e+001
1.142936e+003, 9.406764e+001
1.143418e+003, 9.420027e+001
1.143900e+003, 9.489125e+001
1.144382e+003, 9.586391e+001
1.144864e+003, 9.686838e+001
1.145346e+003, 9.718345e+001
1.145828e+003, 9.655619e+001
1.146311e+003, 9.617577e+001
1.146793e+003, 9.731718e+001
1.147275e+003, 9.870266e+001
1.147757e+003, 9.907896e+001
1.148239e+003, 9.908742e+001
1.148721e+003, 9.967424e+001
1.149203e+003, 1.004258e+002
1.149685e+003, 1.003865e+002
1.150168e+003, 9.942285e+001
1.150650e+003, 9.809721e+001
1.151132e+003, 9.609424e+001
1.151614e+003, 9.508560e+001
1.152096e+003, 9.680338e+001
1.152578e+003, 9.883617e+001
1.153060e+003, 9.948843e+001
1.153542e+003, 9.955922e+001
1.154025e+003, 1.002647e+002
1.154507e+003, 1.013316e+002
1.154989e+003, 1.014803e+002
1.155471e+003, 1.002964e+002
1.155953e+003, 9.900325e+001
1.156435e+003, 9.727737e+001
1.156917e+003, 9.631342e+001
1.157399e+003, 9.704808e+001
1.157881e+003, 9.810251e+001
1.158364e+003, 9.875984e+001
1.158846e+003, 9.899422e+001
1.159328e+003, 9.862840e+001
1.159810e+003, 9.764041e+001
1.160292e+003, 9.726962e+001
1.160774e+003, 9.797784e+001
1.161256e+003, 9.847433e+001
1.161738e+003, 9.851201e+001
1.162220e+003, 9.868354e+001
1.162703e+003, 9.950356e+001
1.163185e+003, 1.000911e+002
1.163667e+003, 9.934888e+001
1.164149e+003, 9.786568e+001
1.164631e+003, 9.776939e+001
1.165113e+003, 9.949805e+001
1.165595e+003, 9.981322e+001
1.166077e+003, 9.838112e+001
1.166560e+003, 9.679424e+001
1.167042e+003, 9.509257e+001
1.167524e+003, 9.486408e+001
1.168006e+003, 9.742205e+001
1.168488e+003, 1.004437e+002
1.168970e+003, 1.002204e+002
1.169452e+003, 9.755691e+001
1.169934e+003, 9.668974e+001
1.170417e+003, 9.747096e+001
1.170899e+003, 9.776569e+001
1.171381e+003, 9.740731e+001
1.171863e+003, 9.712836e+001
1.172345e+003, 9.718269e+001
1.172827e+003, 9.753516e+001
1.173309e+003, 9.822242e+001
1.173791e+003, 9.889913e+001
1.174273e+003, 9.896708e+001
1.174755e+003, 9.859843e+001
1.175238e+003, 9.825340e+001
1.175720e+003, 9.782035e+001
1.176202e+003, 9.661759e+001
1.176684e+003, 9.488115e+001
1.177166e+003, 9.413685e+001
1.177648e+003, 9.502446e+001
1.178130e+003, 9.613763e+001
1.178612e+003, 9.594605e+001
1.179095e+003, 9.581227e+001
1.179577e+003, 9.761994e+001
1.180059e+003, 9.986751e+001
1.180541e+003, 1.008638e+002
1.181023e+003, 1.007732e+002
1.181505e+003, 9.992640e+001
1.181987e+003, 9.863020e+001
1.182469e+003, 9.794952e+001
1.182952e+003, 9.864116e+001
1.183434e+003, 9.904689e+001
1.183916e+003, 9.767535e+001
1.184398e+003, 9.672694e+001
1.184880e+003, 9.800590e+001
1.185362e+003, 9.978607e+001
1.185844e+003, 1.004496e+002
1.186326e+003, 1.002190e+002
1.186808e+003, 9.987016e+001
1.187291e+003, 9.945910e+001
1.187773e+003, 9.913454e+001
1.188255e+003, 9.898140e+001
1.188737e+003, 9.880454e+001
1.189219e+003, 9.857475e+001
1.189701e+003, 9.830260e+001
1.190183e+003, 9.761635e+001
1.190665e+003, 9.735908e+001
1.191147e+003, 9.869543e+001
1.191630e+003, 1.011513e+002
1.192112e+003, 1.027383e+002
1.192594e+003, 1.034416e+002
1.193076e+003, 1.032951e+002
1.193558e+003, 1.021974e+002
1.194040e+003, 1.006040e+002
1.194522e+003, 9.842650e+001
1.195004e+003, 9.697363e+001
1.195487e+003, 9.710260e+001
1.195969e+003, 9.800262e+001
1.196451e+003, 9.867590e+001
1.196933e+003, 9.903704e+001
1.197415e+003, 9.850029e+001
1.197897e+003, 9.731044e+001
1.198379e+003, 9.687222e+001
1.198861e+003, 9.723619e+001
1.199344e+003, 9.805683e+001
1.199826e+003, 9.914843e+001
1.200308e+003, 9.998772e+001
1.200790e+003, 1.002671e+002
1.201272e+003, 9.985345e+001
1.201754e+003, 9.793981e+001
1.202236e+003, 9.576941e+001
1.202718e+003, 9.493467e+001
1.203200e+003, 9.522034e+001
1.203682e+003, 9.685154e+001
1.204165e+003, 9.907265e+001
1.204647e+003, 9.985323e+001
1.205129e+003, 9.873939e+001
1.205611e+003, 9.795074e+001
1.206093e+003, 9.928845e+001
1.206575e+003, 1.001719e+002
1.207057e+003, 9.842303e+001
1.207539e+003, 9.671140e+001
1.208022e+003, 9.688782e+001
1.208504e+003, 9.811723e+001
1.208986e+003, 9.988057e+001
1.209468e+003, 1.016764e+002
1.209950e+003, 1.020383e+002
1.210432e+003, 1.004074e+002
1.210914e+003, 9.902341e+001
1.211396e+003, 9.770630e+001
1.211879e+003, 9.719313e+001
1.212361e+003, 9.784324e+001
1.212843e+003, 9.896283e+001
1.213325e+003, 1.005599e+002
1.213807e+003, 1.019701e+002
1.214289e+003, 1.024176e+002
1.214771e+003, 1.019769e+002
1.215253e+003, 1.007415e+002
1.215735e+003, 9.847804e+001
1.216218e+003, 9.789101e+001
1.216700e+003, 9.920363e+001
1.217182e+003, 9.981602e+001
1.217664e+003, 9.908645e+001
1.218146e+003, 9.861093e+001
1.218628e+003, 9.934681e+001
1.219110e+003, 1.006311e+002
1.219592e+003, 1.017457e+002
1.220074e+003, 1.025974e+002
1.220557e+003, 1.029892e+002
1.221039e+003, 1.029212e+002
1.221521e+003, 1.022604e+002
1.222003e+003, 1.011594e+002
1.222485e+003, 9.977074e+001
1.222967e+003, 9.837447e+001
1.223449e+003, 9.831908e+001
1.223931e+003, 1.006799e+002
1.224414e+003, 1.023160e+002
1.224896e+003, 9.989765e+001
1.225378e+003, 9.674400e+001
1.225860e+003, 9.465488e+001
1.226342e+003, 9.402298e+001
1.226824e+003, 9.649345e+001
1.227306e+003, 1.001234e+002
1.227788e+003, 1.009859e+002
1.228271e+003, 9.873868e+001
1.228753e+003, 9.689163e+001
1.229235e+003, 9.639143e+001
1.229717e+003, 9.592394e+001
1.230199e+003, 9.456152e+001
1.230681e+003, 9.430067e+001
1.231163e+003, 9.700417e+001
1.231645e+003, 9.940729e+001
1.232127e+003, 9.873735e+001
1.232609e+003, 9.651518e+001
1.233092e+003, 9.561421e+001
1.233574e+003, 9.601517e+001
1.234056e+003, 9.700977e+001
1.234538e+003, 9.866782e+001
1.235020e+003, 1.005873e+002
1.235502e+003, 1.028247e+002
1.235984e+003, 1.035329e+002
1.236466e+003, 1.020297e+002
1.236949e+003, 1.000957e+002
1.237431e+003, 9.908873e+001
1.237913e+003, 9.865105e+001
1.238395e+003, 9.838469e+001
1.238877e+003, 9.816524e+001
1.239359e+003, 9.743525e+001
1.239841e+003, 9.660360e+001
1.240323e+003, 9.663909e+001
1.240806e+003, 9.752268e+001
1.241288e+003, 9.906798e+001
1.241770e+003, 1.010329e+002
1.242252e+003, 1.022070e+002
1.242734e+003, 1.016409e+002
1.243216e+003, 1.008776e+002
1.243698e+003, 1.008450e+002
1.244180e+003, 1.010473e+002
1.244662e+003, 1.017049e+002
1.245145e+003, 1.019395e+002
1.245627e+003, 1.003205e+002
1.246109e+003, 9.776631e+001
1.246591e+003, 9.647053e+001
1.247073e+003, 9.671840e+001
1.247555e+003, 9.680841e+001
1.248037e+003, 9.610233e+001
1.248519e+003, 9.633847e+001
1.249001e+003, 9.835722e+001
1.249484e+003, 9.970299e+001
1.249966e+003, 9.938241e+001
1.250448e+003, 9.862579e+001
1.250930e+003, 9.835503e+001
1.251412e+003, 9.836867e+001
1.251894e+003, 9.823563e+001
1.252376e+003, 9.802867e+001
1.252858e+003, 9.845954e+001
1.253341e+003, 9.940992e+001
1.253823e+003, 9.964952e+001
1.254305e+003, 9.922015e+001
1.254787e+003, 9.954745e+001
1.255269e+003, 1.009417e+002
1.255751e+003, 1.018910e+002
1.256233e+003, 1.013535e+002
1.256715e+003, 1.002776e+002
1.257198e+003, 9.937510e+001
1.257680e+003, 9.877901e+001
1.258162e+003, 9.868939e+001
1.258644e+003, 9.895605e+001
1.259126e+003, 9.951704e+001
1.259608e+003, 1.002242e+002
1.260090e+003, 1.010130e+002
1.260572e+003, 1.017730e+002
1.261054e+003, 1.017670e+002
1.261536e+003, 1.001510e+002
1.262019e+003, 9.920631e+001
1.262501e+003, 1.002200e+002
1.262983e+003, 1.007715e+002
1.263465e+003, 9.986897e+001
1.263947e+003, 9.856544e+001
1.264429e+003, 9.701747e+001
1.264911e+003, 9.605505e+001
1.265393e+003, 9.721209e+001
1.265876e+003, 1.000351e+002
1.266358e+003, 1.014400e+002
1.266840e+003, 1.013699e+002
1.267322e+003, 1.004930e+002
1.267804e+003, 9.885999e+001
1.268286e+003, 9.830344e+001
1.268768e+003, 9.917946e+001
1.269250e+003, 9.963576e+001
1.269733e+003, 9.863426e+001
1.270215e+003, 9.780129e+001
1.270697e+003, 9.937743e+001
1.271179e+003, 1.014313e+002
1.271661e+003, 1.008397e+002
1.272143e+003, 9.922985e+001
1.272625e+003, 9.835163e+001
1.273107e+003, 9.854767e+001
1.273589e+003, 1.010405e+002
1.274072e+003, 1.048548e+002
1.274554e+003, 1.061784e+002
1.275036e+003, 1.036424e+002
1.275518e+003, 1.012360e+002
1.276000e+003, 9.963419e+001
1.276482e+003, 9.916297e+001
1.276964e+003, 1.012225e+002
1.277446e+003, 1.028185e+002
1.277929e+003, 1.023298e+002
1.278411e+003, 1.009444e+002
1.278893e+003, 9.945679e+001
1.279375e+003, 9.821788e+001
1.279857e+003, 9.827041e+001
1.280339e+003, 9.963715e+001
1.280821e+003, 1.011878e+002
1.281303e+003, 1.029613e+002
1.281786e+003, 1.033805e+002
1.282268e+003, 1.022247e+002
##END=



