##NAMES=Veszelyite
##RRUFFID=R150143
##IDEAL CHEMISTRY=Cu^2+^_3_PO_4_(OH)_3_&#183;2H_2_O
##LOCALITY=Katanga, Democratic Republic of the Congo
##OWNER=University of Arizona Mineral Museum
##SOURCE=University of Arizona Mineral Museum
##DESCRIPTION=Blue single crystals scattered in matrix
##STATUS=The identification of this mineral has been confirmed by single-crystal X-ray diffraction.
##URL=rruff.info/R150143
8.758203e+001, 1.541311e+003
8.806415e+001, 1.538840e+003
8.854626e+001, 1.538495e+003
8.902838e+001, 1.541289e+003
8.951050e+001, 1.544681e+003
8.999261e+001, 1.550285e+003
9.047473e+001, 1.556925e+003
9.095685e+001, 1.558481e+003
9.143896e+001, 1.546836e+003
9.192108e+001, 1.521842e+003
9.240320e+001, 1.504080e+003
9.288531e+001, 1.482957e+003
9.336743e+001, 1.442113e+003
9.384955e+001, 1.380114e+003
9.433167e+001, 1.317391e+003
9.481378e+001, 1.253924e+003
9.529590e+001, 1.197042e+003
9.577802e+001, 1.146223e+003
9.626013e+001, 1.102913e+003
9.674225e+001, 1.068338e+003
9.722437e+001, 1.041334e+003
9.770648e+001, 1.017232e+003
9.818860e+001, 9.977734e+002
9.867072e+001, 9.782063e+002
9.915283e+001, 9.551068e+002
9.963495e+001, 9.283820e+002
1.001171e+002, 9.015223e+002
1.005992e+002, 8.792346e+002
1.010813e+002, 8.620677e+002
1.015634e+002, 8.472814e+002
1.020455e+002, 8.344153e+002
1.025277e+002, 8.226326e+002
1.030098e+002, 8.105465e+002
1.034919e+002, 7.975975e+002
1.039740e+002, 7.851705e+002
1.044561e+002, 7.780871e+002
1.049382e+002, 7.844063e+002
1.054204e+002, 7.869135e+002
1.059025e+002, 7.844846e+002
1.063846e+002, 7.769509e+002
1.068667e+002, 7.632557e+002
1.073488e+002, 7.415879e+002
1.078309e+002, 7.134545e+002
1.083131e+002, 6.916163e+002
1.087952e+002, 6.773770e+002
1.092773e+002, 6.669242e+002
1.097594e+002, 6.592289e+002
1.102415e+002, 6.540679e+002
1.107236e+002, 6.496848e+002
1.112058e+002, 6.446149e+002
1.116879e+002, 6.392541e+002
1.121700e+002, 6.349222e+002
1.126521e+002, 6.328691e+002
1.131342e+002, 6.317636e+002
1.136163e+002, 6.295858e+002
1.140985e+002, 6.264387e+002
1.145806e+002, 6.217004e+002
1.150627e+002, 6.140228e+002
1.155448e+002, 6.045267e+002
1.160269e+002, 5.958002e+002
1.165090e+002, 5.904905e+002
1.169912e+002, 5.885005e+002
1.174733e+002, 5.842295e+002
1.179554e+002, 5.740195e+002
1.184375e+002, 5.643472e+002
1.189196e+002, 5.577397e+002
1.194017e+002, 5.542209e+002
1.198839e+002, 5.524760e+002
1.203660e+002, 5.509715e+002
1.208481e+002, 5.492521e+002
1.213302e+002, 5.490615e+002
1.218123e+002, 5.543317e+002
1.222944e+002, 5.582271e+002
1.227766e+002, 5.552296e+002
1.232587e+002, 5.441928e+002
1.237408e+002, 5.291291e+002
1.242229e+002, 5.176591e+002
1.247050e+002, 5.121805e+002
1.251871e+002, 5.076044e+002
1.256693e+002, 5.036972e+002
1.261514e+002, 5.006962e+002
1.266335e+002, 4.992700e+002
1.271156e+002, 4.999259e+002
1.275977e+002, 5.017063e+002
1.280798e+002, 5.017031e+002
1.285620e+002, 4.997448e+002
1.290441e+002, 4.969189e+002
1.295262e+002, 4.937531e+002
1.300083e+002, 4.901240e+002
1.304904e+002, 4.854138e+002
1.309725e+002, 4.786734e+002
1.314547e+002, 4.709375e+002
1.319368e+002, 4.644609e+002
1.324189e+002, 4.597145e+002
1.329010e+002, 4.558208e+002
1.333831e+002, 4.519461e+002
1.338652e+002, 4.480460e+002
1.343474e+002, 4.444502e+002
1.348295e+002, 4.409103e+002
1.353116e+002, 4.378949e+002
1.357937e+002, 4.360463e+002
1.362758e+002, 4.357166e+002
1.367579e+002, 4.366312e+002
1.372401e+002, 4.384574e+002
1.377222e+002, 4.431702e+002
1.382043e+002, 4.454921e+002
1.386864e+002, 4.435037e+002
1.391685e+002, 4.384428e+002
1.396507e+002, 4.319560e+002
1.401328e+002, 4.248795e+002
1.406149e+002, 4.172371e+002
1.410970e+002, 4.107332e+002
1.415791e+002, 4.057811e+002
1.420612e+002, 4.016727e+002
1.425434e+002, 3.983687e+002
1.430255e+002, 3.958042e+002
1.435076e+002, 3.939022e+002
1.439897e+002, 3.926441e+002
1.444718e+002, 3.921558e+002
1.449539e+002, 3.916623e+002
1.454361e+002, 3.916849e+002
1.459182e+002, 3.913071e+002
1.464003e+002, 3.899839e+002
1.468824e+002, 3.876795e+002
1.473645e+002, 3.847104e+002
1.478466e+002, 3.813039e+002
1.483288e+002, 3.771432e+002
1.488109e+002, 3.737703e+002
1.492930e+002, 3.715822e+002
1.497751e+002, 3.700080e+002
1.502572e+002, 3.686607e+002
1.507393e+002, 3.675178e+002
1.512215e+002, 3.661509e+002
1.517036e+002, 3.633280e+002
1.521857e+002, 3.590149e+002
1.526678e+002, 3.560328e+002
1.531499e+002, 3.565602e+002
1.536320e+002, 3.591435e+002
1.541142e+002, 3.602088e+002
1.545963e+002, 3.587688e+002
1.550784e+002, 3.556095e+002
1.555605e+002, 3.514678e+002
1.560426e+002, 3.463681e+002
1.565247e+002, 3.413861e+002
1.570069e+002, 3.371483e+002
1.574890e+002, 3.336556e+002
1.579711e+002, 3.309377e+002
1.584532e+002, 3.293193e+002
1.589353e+002, 3.283412e+002
1.594174e+002, 3.279283e+002
1.598996e+002, 3.280443e+002
1.603817e+002, 3.282260e+002
1.608638e+002, 3.279837e+002
1.613459e+002, 3.273282e+002
1.618280e+002, 3.261667e+002
1.623102e+002, 3.243764e+002
1.627923e+002, 3.222022e+002
1.632744e+002, 3.195896e+002
1.637565e+002, 3.165577e+002
1.642386e+002, 3.135325e+002
1.647207e+002, 3.113211e+002
1.652029e+002, 3.106311e+002
1.656850e+002, 3.096841e+002
1.661671e+002, 3.078938e+002
1.666492e+002, 3.060397e+002
1.671313e+002, 3.049035e+002
1.676134e+002, 3.048282e+002
1.680956e+002, 3.054358e+002
1.685777e+002, 3.056290e+002
1.690598e+002, 3.054320e+002
1.695419e+002, 3.047418e+002
1.700240e+002, 3.032346e+002
1.705061e+002, 3.012891e+002
1.709883e+002, 2.993755e+002
1.714704e+002, 2.977097e+002
1.719525e+002, 2.962938e+002
1.724346e+002, 2.951812e+002
1.729167e+002, 2.952406e+002
1.733988e+002, 2.945960e+002
1.738810e+002, 2.919116e+002
1.743631e+002, 2.879728e+002
1.748452e+002, 2.848888e+002
1.753273e+002, 2.839671e+002
1.758094e+002, 2.847141e+002
1.762915e+002, 2.850828e+002
1.767737e+002, 2.852182e+002
1.772558e+002, 2.848730e+002
1.777379e+002, 2.835807e+002
1.782200e+002, 2.814416e+002
1.787021e+002, 2.795545e+002
1.791842e+002, 2.788306e+002
1.796664e+002, 2.786580e+002
1.801485e+002, 2.777674e+002
1.806306e+002, 2.754301e+002
1.811127e+002, 2.729734e+002
1.815948e+002, 2.721022e+002
1.820769e+002, 2.731188e+002
1.825591e+002, 2.739950e+002
1.830412e+002, 2.732251e+002
1.835233e+002, 2.718468e+002
1.840054e+002, 2.709982e+002
1.844875e+002, 2.713131e+002
1.849696e+002, 2.720454e+002
1.854518e+002, 2.718115e+002
1.859339e+002, 2.703555e+002
1.864160e+002, 2.684383e+002
1.868981e+002, 2.660221e+002
1.873802e+002, 2.634695e+002
1.878623e+002, 2.610878e+002
1.883445e+002, 2.589039e+002
1.888266e+002, 2.571541e+002
1.893087e+002, 2.568238e+002
1.897908e+002, 2.594534e+002
1.902729e+002, 2.613589e+002
1.907550e+002, 2.616023e+002
1.912372e+002, 2.606737e+002
1.917193e+002, 2.590952e+002
1.922014e+002, 2.570712e+002
1.926835e+002, 2.547669e+002
1.931656e+002, 2.533365e+002
1.936477e+002, 2.540076e+002
1.941299e+002, 2.543822e+002
1.946120e+002, 2.539441e+002
1.950941e+002, 2.529459e+002
1.955762e+002, 2.518222e+002
1.960583e+002, 2.508465e+002
1.965404e+002, 2.500175e+002
1.970226e+002, 2.493255e+002
1.975047e+002, 2.491090e+002
1.979868e+002, 2.486711e+002
1.984689e+002, 2.473160e+002
1.989510e+002, 2.455387e+002
1.994331e+002, 2.445422e+002
1.999153e+002, 2.452992e+002
2.003974e+002, 2.477402e+002
2.008795e+002, 2.491238e+002
2.013616e+002, 2.492698e+002
2.018437e+002, 2.488040e+002
2.023258e+002, 2.476849e+002
2.028080e+002, 2.460949e+002
2.032901e+002, 2.445837e+002
2.037722e+002, 2.435438e+002
2.042543e+002, 2.429600e+002
2.047364e+002, 2.422784e+002
2.052185e+002, 2.414727e+002
2.057007e+002, 2.406025e+002
2.061828e+002, 2.396106e+002
2.066649e+002, 2.385306e+002
2.071470e+002, 2.376424e+002
2.076291e+002, 2.372193e+002
2.081112e+002, 2.371792e+002
2.085934e+002, 2.370098e+002
2.090755e+002, 2.366824e+002
2.095576e+002, 2.362262e+002
2.100397e+002, 2.357077e+002
2.105218e+002, 2.351332e+002
2.110039e+002, 2.343206e+002
2.114861e+002, 2.326879e+002
2.119682e+002, 2.308013e+002
2.124503e+002, 2.298559e+002
2.129324e+002, 2.308129e+002
2.134145e+002, 2.322988e+002
2.138967e+002, 2.325440e+002
2.143788e+002, 2.313219e+002
2.148609e+002, 2.299152e+002
2.153430e+002, 2.290361e+002
2.158251e+002, 2.284214e+002
2.163072e+002, 2.277602e+002
2.167894e+002, 2.268838e+002
2.172715e+002, 2.259656e+002
2.177536e+002, 2.253121e+002
2.182357e+002, 2.249853e+002
2.187178e+002, 2.247594e+002
2.191999e+002, 2.246346e+002
2.196821e+002, 2.245168e+002
2.201642e+002, 2.243000e+002
2.206463e+002, 2.239442e+002
2.211284e+002, 2.234619e+002
2.216105e+002, 2.228245e+002
2.220926e+002, 2.218496e+002
2.225748e+002, 2.211092e+002
2.230569e+002, 2.209153e+002
2.235390e+002, 2.209652e+002
2.240211e+002, 2.209306e+002
2.245032e+002, 2.206596e+002
2.249853e+002, 2.202224e+002
2.254675e+002, 2.197764e+002
2.259496e+002, 2.191745e+002
2.264317e+002, 2.188373e+002
2.269138e+002, 2.189821e+002
2.273959e+002, 2.193493e+002
2.278780e+002, 2.196774e+002
2.283602e+002, 2.198430e+002
2.288423e+002, 2.198682e+002
2.293244e+002, 2.198219e+002
2.298065e+002, 2.196274e+002
2.302886e+002, 2.194567e+002
2.307707e+002, 2.195329e+002
2.312529e+002, 2.195692e+002
2.317350e+002, 2.191695e+002
2.322171e+002, 2.181345e+002
2.326992e+002, 2.167057e+002
2.331813e+002, 2.156667e+002
2.336634e+002, 2.153834e+002
2.341456e+002, 2.150845e+002
2.346277e+002, 2.146973e+002
2.351098e+002, 2.142671e+002
2.355919e+002, 2.138359e+002
2.360740e+002, 2.134225e+002
2.365561e+002, 2.130462e+002
2.370383e+002, 2.127637e+002
2.375204e+002, 2.123515e+002
2.380025e+002, 2.123305e+002
2.384846e+002, 2.133227e+002
2.389667e+002, 2.145375e+002
2.394488e+002, 2.148852e+002
2.399310e+002, 2.138923e+002
2.404131e+002, 2.121462e+002
2.408952e+002, 2.111413e+002
2.413773e+002, 2.117115e+002
2.418594e+002, 2.118706e+002
2.423415e+002, 2.108703e+002
2.428237e+002, 2.095340e+002
2.433058e+002, 2.090632e+002
2.437879e+002, 2.099527e+002
2.442700e+002, 2.114690e+002
2.447521e+002, 2.120247e+002
2.452342e+002, 2.112053e+002
2.457164e+002, 2.103313e+002
2.461985e+002, 2.095199e+002
2.466806e+002, 2.087817e+002
2.471627e+002, 2.081657e+002
2.476448e+002, 2.076979e+002
2.481269e+002, 2.072742e+002
2.486091e+002, 2.067644e+002
2.490912e+002, 2.063022e+002
2.495733e+002, 2.053617e+002
2.500554e+002, 2.033834e+002
2.505375e+002, 2.009780e+002
2.510196e+002, 1.990442e+002
2.515018e+002, 1.978336e+002
2.519839e+002, 1.970780e+002
2.524660e+002, 1.964708e+002
2.529481e+002, 1.959944e+002
2.534302e+002, 1.956657e+002
2.539123e+002, 1.956960e+002
2.543945e+002, 1.958231e+002
2.548766e+002, 1.956265e+002
2.553587e+002, 1.949901e+002
2.558408e+002, 1.941393e+002
2.563229e+002, 1.931555e+002
2.568051e+002, 1.920614e+002
2.572872e+002, 1.913743e+002
2.577693e+002, 1.914588e+002
2.582514e+002, 1.919758e+002
2.587335e+002, 1.924232e+002
2.592156e+002, 1.927512e+002
2.596978e+002, 1.929352e+002
2.601799e+002, 1.930163e+002
2.606620e+002, 1.929654e+002
2.611441e+002, 1.925322e+002
2.616262e+002, 1.911187e+002
2.621083e+002, 1.894332e+002
2.625905e+002, 1.888228e+002
2.630726e+002, 1.896815e+002
2.635547e+002, 1.904844e+002
2.640368e+002, 1.897787e+002
2.645189e+002, 1.881362e+002
2.650010e+002, 1.866201e+002
2.654832e+002, 1.856168e+002
2.659653e+002, 1.849181e+002
2.664474e+002, 1.841848e+002
2.669295e+002, 1.833762e+002
2.674116e+002, 1.827006e+002
2.678937e+002, 1.824911e+002
2.683759e+002, 1.824637e+002
2.688580e+002, 1.822006e+002
2.693401e+002, 1.814557e+002
2.698222e+002, 1.805271e+002
2.703043e+002, 1.799266e+002
2.707864e+002, 1.797728e+002
2.712686e+002, 1.794355e+002
2.717507e+002, 1.782380e+002
2.722328e+002, 1.768105e+002
2.727149e+002, 1.758332e+002
2.731970e+002, 1.755410e+002
2.736791e+002, 1.756348e+002
2.741613e+002, 1.757795e+002
2.746434e+002, 1.759960e+002
2.751255e+002, 1.761574e+002
2.756076e+002, 1.764956e+002
2.760897e+002, 1.766072e+002
2.765718e+002, 1.759794e+002
2.770540e+002, 1.744041e+002
2.775361e+002, 1.726667e+002
2.780182e+002, 1.716974e+002
2.785003e+002, 1.715896e+002
2.789824e+002, 1.716309e+002
2.794645e+002, 1.719173e+002
2.799467e+002, 1.721132e+002
2.804288e+002, 1.718492e+002
2.809109e+002, 1.710856e+002
2.813930e+002, 1.703814e+002
2.818751e+002, 1.704165e+002
2.823572e+002, 1.712659e+002
2.828394e+002, 1.719386e+002
2.833215e+002, 1.723725e+002
2.838036e+002, 1.724850e+002
2.842857e+002, 1.721192e+002
2.847678e+002, 1.713225e+002
2.852499e+002, 1.703989e+002
2.857321e+002, 1.694951e+002
2.862142e+002, 1.686048e+002
2.866963e+002, 1.681481e+002
2.871784e+002, 1.686228e+002
2.876605e+002, 1.690717e+002
2.881426e+002, 1.689272e+002
2.886248e+002, 1.683338e+002
2.891069e+002, 1.678190e+002
2.895890e+002, 1.678987e+002
2.900711e+002, 1.684977e+002
2.905532e+002, 1.686490e+002
2.910353e+002, 1.681386e+002
2.915175e+002, 1.673914e+002
2.919996e+002, 1.662642e+002
2.924817e+002, 1.650585e+002
2.929638e+002, 1.643859e+002
2.934459e+002, 1.648232e+002
2.939280e+002, 1.660117e+002
2.944102e+002, 1.662613e+002
2.948923e+002, 1.648826e+002
2.953744e+002, 1.636203e+002
2.958565e+002, 1.629424e+002
2.963386e+002, 1.626987e+002
2.968207e+002, 1.627496e+002
2.973029e+002, 1.630724e+002
2.977850e+002, 1.635368e+002
2.982671e+002, 1.638323e+002
2.987492e+002, 1.639696e+002
2.992313e+002, 1.638977e+002
2.997134e+002, 1.633413e+002
3.001956e+002, 1.627376e+002
3.006777e+002, 1.625398e+002
3.011598e+002, 1.629050e+002
3.016419e+002, 1.635337e+002
3.021240e+002, 1.639601e+002
3.026061e+002, 1.642014e+002
3.030883e+002, 1.641689e+002
3.035704e+002, 1.637331e+002
3.040525e+002, 1.631161e+002
3.045346e+002, 1.624008e+002
3.050167e+002, 1.616227e+002
3.054988e+002, 1.608640e+002
3.059810e+002, 1.601342e+002
3.064631e+002, 1.593272e+002
3.069452e+002, 1.590459e+002
3.074273e+002, 1.601223e+002
3.079094e+002, 1.611003e+002
3.083915e+002, 1.612447e+002
3.088737e+002, 1.605985e+002
3.093558e+002, 1.596749e+002
3.098379e+002, 1.588846e+002
3.103200e+002, 1.582230e+002
3.108021e+002, 1.577232e+002
3.112842e+002, 1.574801e+002
3.117664e+002, 1.573177e+002
3.122485e+002, 1.572150e+002
3.127306e+002, 1.571444e+002
3.132127e+002, 1.570364e+002
3.136948e+002, 1.567801e+002
3.141769e+002, 1.564543e+002
3.146591e+002, 1.566024e+002
3.151412e+002, 1.578348e+002
3.156233e+002, 1.586860e+002
3.161054e+002, 1.586212e+002
3.165875e+002, 1.580031e+002
3.170696e+002, 1.572354e+002
3.175518e+002, 1.564578e+002
3.180339e+002, 1.558175e+002
3.185160e+002, 1.557743e+002
3.189981e+002, 1.567355e+002
3.194802e+002, 1.574672e+002
3.199623e+002, 1.576867e+002
3.204445e+002, 1.576138e+002
3.209266e+002, 1.574298e+002
3.214087e+002, 1.571917e+002
3.218908e+002, 1.568339e+002
3.223729e+002, 1.562256e+002
3.228550e+002, 1.552862e+002
3.233372e+002, 1.543749e+002
3.238193e+002, 1.531938e+002
3.243014e+002, 1.523060e+002
3.247835e+002, 1.521556e+002
3.252656e+002, 1.527344e+002
3.257477e+002, 1.535842e+002
3.262299e+002, 1.543791e+002
3.267120e+002, 1.551530e+002
3.271941e+002, 1.554557e+002
3.276762e+002, 1.548481e+002
3.281583e+002, 1.541383e+002
3.286404e+002, 1.535897e+002
3.291226e+002, 1.532200e+002
3.296047e+002, 1.529902e+002
3.300868e+002, 1.528521e+002
3.305689e+002, 1.528248e+002
3.310510e+002, 1.531222e+002
3.315331e+002, 1.543069e+002
3.320153e+002, 1.549395e+002
3.324974e+002, 1.541743e+002
3.329795e+002, 1.526892e+002
3.334616e+002, 1.514671e+002
3.339437e+002, 1.510011e+002
3.344258e+002, 1.510043e+002
3.349080e+002, 1.507860e+002
3.353901e+002, 1.501426e+002
3.358722e+002, 1.498257e+002
3.363543e+002, 1.504408e+002
3.368365e+002, 1.512603e+002
3.373186e+002, 1.516742e+002
3.378007e+002, 1.515120e+002
3.382828e+002, 1.509899e+002
3.387649e+002, 1.501448e+002
3.392470e+002, 1.488450e+002
3.397292e+002, 1.482556e+002
3.402113e+002, 1.494845e+002
3.406934e+002, 1.508253e+002
3.411755e+002, 1.510962e+002
3.416576e+002, 1.503024e+002
3.421397e+002, 1.493667e+002
3.426219e+002, 1.490658e+002
3.431040e+002, 1.493335e+002
3.435861e+002, 1.494723e+002
3.440682e+002, 1.493509e+002
3.445503e+002, 1.492063e+002
3.450324e+002, 1.492995e+002
3.455146e+002, 1.494901e+002
3.459967e+002, 1.494143e+002
3.464788e+002, 1.486874e+002
3.469609e+002, 1.476271e+002
3.474430e+002, 1.470134e+002
3.479251e+002, 1.469308e+002
3.484073e+002, 1.470703e+002
3.488894e+002, 1.474581e+002
3.493715e+002, 1.479193e+002
3.498536e+002, 1.482086e+002
3.503357e+002, 1.481725e+002
3.508178e+002, 1.481281e+002
3.513000e+002, 1.486563e+002
3.517821e+002, 1.498138e+002
3.522642e+002, 1.504018e+002
3.527463e+002, 1.495814e+002
3.532284e+002, 1.483199e+002
3.537105e+002, 1.476711e+002
3.541927e+002, 1.477499e+002
3.546748e+002, 1.478849e+002
3.551569e+002, 1.476098e+002
3.556390e+002, 1.470003e+002
3.561211e+002, 1.463897e+002
3.566032e+002, 1.458428e+002
3.570854e+002, 1.452943e+002
3.575675e+002, 1.445953e+002
3.580496e+002, 1.437947e+002
3.585317e+002, 1.432007e+002
3.590138e+002, 1.429006e+002
3.594959e+002, 1.428862e+002
3.599781e+002, 1.432818e+002
3.604602e+002, 1.441746e+002
3.609423e+002, 1.449145e+002
3.614244e+002, 1.448118e+002
3.619065e+002, 1.442286e+002
3.623886e+002, 1.440924e+002
3.628708e+002, 1.449149e+002
3.633529e+002, 1.458180e+002
3.638350e+002, 1.460518e+002
3.643171e+002, 1.456936e+002
3.647992e+002, 1.452373e+002
3.652813e+002, 1.448037e+002
3.657635e+002, 1.444922e+002
3.662456e+002, 1.444920e+002
3.667277e+002, 1.448668e+002
3.672098e+002, 1.453127e+002
3.676919e+002, 1.460236e+002
3.681740e+002, 1.466688e+002
3.686562e+002, 1.464342e+002
3.691383e+002, 1.449873e+002
3.696204e+002, 1.433062e+002
3.701025e+002, 1.426579e+002
3.705846e+002, 1.431078e+002
3.710667e+002, 1.434680e+002
3.715489e+002, 1.435494e+002
3.720310e+002, 1.435172e+002
3.725131e+002, 1.435807e+002
3.729952e+002, 1.437273e+002
3.734773e+002, 1.436442e+002
3.739594e+002, 1.429653e+002
3.744416e+002, 1.418142e+002
3.749237e+002, 1.414684e+002
3.754058e+002, 1.429052e+002
3.758879e+002, 1.440162e+002
3.763700e+002, 1.435391e+002
3.768521e+002, 1.421443e+002
3.773343e+002, 1.413842e+002
3.778164e+002, 1.420347e+002
3.782985e+002, 1.433149e+002
3.787806e+002, 1.433416e+002
3.792627e+002, 1.407836e+002
3.797448e+002, 1.392180e+002
3.802270e+002, 1.394752e+002
3.807091e+002, 1.405007e+002
3.811912e+002, 1.414653e+002
3.816733e+002, 1.421470e+002
3.821554e+002, 1.425328e+002
3.826375e+002, 1.426099e+002
3.831197e+002, 1.423613e+002
3.836018e+002, 1.418241e+002
3.840839e+002, 1.407400e+002
3.845660e+002, 1.396736e+002
3.850481e+002, 1.387959e+002
3.855302e+002, 1.381446e+002
3.860124e+002, 1.377082e+002
3.864945e+002, 1.374586e+002
3.869766e+002, 1.374519e+002
3.874587e+002, 1.380161e+002
3.879408e+002, 1.406823e+002
3.884229e+002, 1.420186e+002
3.889051e+002, 1.405366e+002
3.893872e+002, 1.381181e+002
3.898693e+002, 1.367603e+002
3.903514e+002, 1.370989e+002
3.908335e+002, 1.382183e+002
3.913156e+002, 1.386101e+002
3.917978e+002, 1.378159e+002
3.922799e+002, 1.375562e+002
3.927620e+002, 1.383952e+002
3.932441e+002, 1.392670e+002
3.937262e+002, 1.397492e+002
3.942083e+002, 1.397813e+002
3.946905e+002, 1.393768e+002
3.951726e+002, 1.383482e+002
3.956547e+002, 1.368278e+002
3.961368e+002, 1.362565e+002
3.966189e+002, 1.374083e+002
3.971010e+002, 1.384289e+002
3.975832e+002, 1.387955e+002
3.980653e+002, 1.386924e+002
3.985474e+002, 1.382837e+002
3.990295e+002, 1.375809e+002
3.995116e+002, 1.368442e+002
3.999937e+002, 1.365334e+002
4.004759e+002, 1.367313e+002
4.009580e+002, 1.369278e+002
4.014401e+002, 1.370020e+002
4.019222e+002, 1.370353e+002
4.024043e+002, 1.371418e+002
4.028864e+002, 1.373092e+002
4.033686e+002, 1.373161e+002
4.038507e+002, 1.367572e+002
4.043328e+002, 1.358440e+002
4.048149e+002, 1.355757e+002
4.052970e+002, 1.362461e+002
4.057791e+002, 1.370919e+002
4.062613e+002, 1.377976e+002
4.067434e+002, 1.382909e+002
4.072255e+002, 1.383574e+002
4.077076e+002, 1.376755e+002
4.081897e+002, 1.367780e+002
4.086718e+002, 1.362150e+002
4.091540e+002, 1.359799e+002
4.096361e+002, 1.359996e+002
4.101182e+002, 1.364489e+002
4.106003e+002, 1.369592e+002
4.110824e+002, 1.368608e+002
4.115645e+002, 1.359975e+002
4.120467e+002, 1.351778e+002
4.125288e+002, 1.348287e+002
4.130109e+002, 1.347362e+002
4.134930e+002, 1.344841e+002
4.139751e+002, 1.339717e+002
4.144572e+002, 1.334768e+002
4.149394e+002, 1.332840e+002
4.154215e+002, 1.334140e+002
4.159036e+002, 1.336287e+002
4.163857e+002, 1.340846e+002
4.168678e+002, 1.344807e+002
4.173499e+002, 1.346658e+002
4.178321e+002, 1.346275e+002
4.183142e+002, 1.343372e+002
4.187963e+002, 1.337517e+002
4.192784e+002, 1.329559e+002
4.197605e+002, 1.322372e+002
4.202426e+002, 1.312247e+002
4.207248e+002, 1.307810e+002
4.212069e+002, 1.312884e+002
4.216890e+002, 1.322591e+002
4.221711e+002, 1.333644e+002
4.226532e+002, 1.344612e+002
4.231353e+002, 1.352993e+002
4.236175e+002, 1.355632e+002
4.240996e+002, 1.351693e+002
4.245817e+002, 1.346082e+002
4.250638e+002, 1.334680e+002
4.255459e+002, 1.325971e+002
4.260280e+002, 1.325155e+002
4.265102e+002, 1.329480e+002
4.269923e+002, 1.332867e+002
4.274744e+002, 1.331565e+002
4.279565e+002, 1.327654e+002
4.284386e+002, 1.328539e+002
4.289207e+002, 1.338610e+002
4.294029e+002, 1.345513e+002
4.298850e+002, 1.347383e+002
4.303671e+002, 1.346140e+002
4.308492e+002, 1.342455e+002
4.313313e+002, 1.336800e+002
4.318134e+002, 1.330692e+002
4.322956e+002, 1.324557e+002
4.327777e+002, 1.318252e+002
4.332598e+002, 1.317184e+002
4.337419e+002, 1.324669e+002
4.342241e+002, 1.333473e+002
4.347062e+002, 1.341758e+002
4.351883e+002, 1.348623e+002
4.356704e+002, 1.352336e+002
4.361525e+002, 1.351751e+002
4.366346e+002, 1.348213e+002
4.371168e+002, 1.343014e+002
4.375989e+002, 1.335889e+002
4.380810e+002, 1.329853e+002
4.385631e+002, 1.324794e+002
4.390452e+002, 1.322503e+002
4.395273e+002, 1.326351e+002
4.400095e+002, 1.337178e+002
4.404916e+002, 1.345072e+002
4.409737e+002, 1.342394e+002
4.414558e+002, 1.333515e+002
4.419379e+002, 1.327434e+002
4.424200e+002, 1.325476e+002
4.429022e+002, 1.324965e+002
4.433843e+002, 1.323663e+002
4.438664e+002, 1.321933e+002
4.443485e+002, 1.321742e+002
4.448306e+002, 1.325866e+002
4.453127e+002, 1.328982e+002
4.457949e+002, 1.327013e+002
4.462770e+002, 1.321577e+002
4.467591e+002, 1.316846e+002
4.472412e+002, 1.314449e+002
4.477233e+002, 1.313814e+002
4.482054e+002, 1.314003e+002
4.486876e+002, 1.315643e+002
4.491697e+002, 1.316700e+002
4.496518e+002, 1.316418e+002
4.501339e+002, 1.316024e+002
4.506160e+002, 1.316799e+002
4.510981e+002, 1.318540e+002
4.515803e+002, 1.319729e+002
4.520624e+002, 1.318915e+002
4.525445e+002, 1.316382e+002
4.530266e+002, 1.315924e+002
4.535087e+002, 1.321941e+002
4.539908e+002, 1.324946e+002
4.544730e+002, 1.320757e+002
4.549551e+002, 1.314129e+002
4.554372e+002, 1.310049e+002
4.559193e+002, 1.310150e+002
4.564014e+002, 1.313166e+002
4.568835e+002, 1.318427e+002
4.573657e+002, 1.327307e+002
4.578478e+002, 1.331957e+002
4.583299e+002, 1.327424e+002
4.588120e+002, 1.322978e+002
4.592941e+002, 1.323015e+002
4.597762e+002, 1.326173e+002
4.602584e+002, 1.328769e+002
4.607405e+002, 1.328762e+002
4.612226e+002, 1.326989e+002
4.617047e+002, 1.324513e+002
4.621868e+002, 1.320671e+002
4.626689e+002, 1.319434e+002
4.631511e+002, 1.325156e+002
4.636332e+002, 1.332186e+002
4.641153e+002, 1.334748e+002
4.645974e+002, 1.332242e+002
4.650795e+002, 1.328812e+002
4.655616e+002, 1.326166e+002
4.660438e+002, 1.324510e+002
4.665259e+002, 1.324450e+002
4.670080e+002, 1.326190e+002
4.674901e+002, 1.328829e+002
4.679722e+002, 1.332469e+002
4.684543e+002, 1.336522e+002
4.689365e+002, 1.338415e+002
4.694186e+002, 1.337086e+002
4.699007e+002, 1.334550e+002
4.703828e+002, 1.330602e+002
4.708649e+002, 1.326297e+002
4.713470e+002, 1.324339e+002
4.718292e+002, 1.325833e+002
4.723113e+002, 1.328582e+002
4.727934e+002, 1.329116e+002
4.732755e+002, 1.326053e+002
4.737576e+002, 1.324765e+002
4.742397e+002, 1.329126e+002
4.747219e+002, 1.331789e+002
4.752040e+002, 1.325171e+002
4.756861e+002, 1.312706e+002
4.761682e+002, 1.304842e+002
4.766503e+002, 1.308711e+002
4.771324e+002, 1.320919e+002
4.776146e+002, 1.328229e+002
4.780967e+002, 1.328419e+002
4.785788e+002, 1.326991e+002
4.790609e+002, 1.322705e+002
4.795430e+002, 1.318463e+002
4.800251e+002, 1.316497e+002
4.805073e+002, 1.317082e+002
4.809894e+002, 1.319083e+002
4.814715e+002, 1.322395e+002
4.819536e+002, 1.326716e+002
4.824357e+002, 1.327397e+002
4.829178e+002, 1.322125e+002
4.834000e+002, 1.317190e+002
4.838821e+002, 1.315643e+002
4.843642e+002, 1.315919e+002
4.848463e+002, 1.316212e+002
4.853284e+002, 1.316220e+002
4.858105e+002, 1.315486e+002
4.862927e+002, 1.313310e+002
4.867748e+002, 1.309873e+002
4.872569e+002, 1.305756e+002
4.877390e+002, 1.299801e+002
4.882211e+002, 1.295783e+002
4.887032e+002, 1.300140e+002
4.891854e+002, 1.311187e+002
4.896675e+002, 1.319108e+002
4.901496e+002, 1.320813e+002
4.906317e+002, 1.319716e+002
4.911138e+002, 1.318934e+002
4.915959e+002, 1.317831e+002
4.920781e+002, 1.312337e+002
4.925602e+002, 1.299279e+002
4.930423e+002, 1.284393e+002
4.935244e+002, 1.280959e+002
4.940065e+002, 1.299548e+002
4.944886e+002, 1.309336e+002
4.949708e+002, 1.300506e+002
4.954529e+002, 1.289195e+002
4.959350e+002, 1.288507e+002
4.964171e+002, 1.297566e+002
4.968992e+002, 1.306885e+002
4.973813e+002, 1.309322e+002
4.978635e+002, 1.305770e+002
4.983456e+002, 1.301866e+002
4.988277e+002, 1.297124e+002
4.993098e+002, 1.292689e+002
4.997919e+002, 1.287086e+002
5.002740e+002, 1.282816e+002
5.007562e+002, 1.282821e+002
5.012383e+002, 1.287255e+002
5.017204e+002, 1.292668e+002
5.022025e+002, 1.296107e+002
5.026846e+002, 1.297620e+002
5.031667e+002, 1.297366e+002
5.036489e+002, 1.294323e+002
5.041310e+002, 1.291540e+002
5.046131e+002, 1.291879e+002
5.050952e+002, 1.293184e+002
5.055773e+002, 1.292183e+002
5.060594e+002, 1.287791e+002
5.065416e+002, 1.281895e+002
5.070237e+002, 1.273534e+002
5.075058e+002, 1.264591e+002
5.079879e+002, 1.262933e+002
5.084700e+002, 1.271871e+002
5.089521e+002, 1.282843e+002
5.094343e+002, 1.286648e+002
5.099164e+002, 1.283181e+002
5.103985e+002, 1.280349e+002
5.108806e+002, 1.280343e+002
5.113627e+002, 1.279383e+002
5.118448e+002, 1.273204e+002
5.123270e+002, 1.264558e+002
5.128091e+002, 1.260301e+002
5.132912e+002, 1.263542e+002
5.137733e+002, 1.270028e+002
5.142554e+002, 1.271674e+002
5.147375e+002, 1.264670e+002
5.152197e+002, 1.261867e+002
5.157018e+002, 1.266621e+002
5.161839e+002, 1.271823e+002
5.166660e+002, 1.274308e+002
5.171481e+002, 1.274155e+002
5.176302e+002, 1.272302e+002
5.181124e+002, 1.269082e+002
5.185945e+002, 1.265162e+002
5.190766e+002, 1.262114e+002
5.195587e+002, 1.259701e+002
5.200408e+002, 1.258817e+002
5.205229e+002, 1.259857e+002
5.210051e+002, 1.262430e+002
5.214872e+002, 1.267838e+002
5.219693e+002, 1.275291e+002
5.224514e+002, 1.280303e+002
5.229335e+002, 1.277362e+002
5.234156e+002, 1.271220e+002
5.238978e+002, 1.273074e+002
5.243799e+002, 1.283725e+002
5.248620e+002, 1.288526e+002
5.253441e+002, 1.277496e+002
5.258262e+002, 1.258310e+002
5.263083e+002, 1.246888e+002
5.267905e+002, 1.244102e+002
5.272726e+002, 1.245089e+002
5.277547e+002, 1.251643e+002
5.282368e+002, 1.259466e+002
5.287189e+002, 1.264361e+002
5.292010e+002, 1.265741e+002
5.296832e+002, 1.263998e+002
5.301653e+002, 1.259023e+002
5.306474e+002, 1.251355e+002
5.311295e+002, 1.244538e+002
5.316116e+002, 1.235562e+002
5.320938e+002, 1.231408e+002
5.325759e+002, 1.235926e+002
5.330580e+002, 1.243406e+002
5.335401e+002, 1.250094e+002
5.340222e+002, 1.254615e+002
5.345043e+002, 1.255675e+002
5.349865e+002, 1.250637e+002
5.354686e+002, 1.240362e+002
5.359507e+002, 1.235548e+002
5.364328e+002, 1.239571e+002
5.369149e+002, 1.242713e+002
5.373970e+002, 1.240354e+002
5.378792e+002, 1.235908e+002
5.383613e+002, 1.233222e+002
5.388434e+002, 1.233245e+002
5.393255e+002, 1.232711e+002
5.398076e+002, 1.228195e+002
5.402897e+002, 1.221336e+002
5.407719e+002, 1.215967e+002
5.412540e+002, 1.212347e+002
5.417361e+002, 1.211671e+002
5.422182e+002, 1.215027e+002
5.427003e+002, 1.222281e+002
5.431824e+002, 1.231738e+002
5.436646e+002, 1.251269e+002
5.441467e+002, 1.262682e+002
5.446288e+002, 1.254471e+002
5.451109e+002, 1.236819e+002
5.455930e+002, 1.220452e+002
5.460751e+002, 1.208674e+002
5.465573e+002, 1.205267e+002
5.470394e+002, 1.216054e+002
5.475215e+002, 1.241663e+002
5.480036e+002, 1.255398e+002
5.484857e+002, 1.245620e+002
5.489678e+002, 1.236760e+002
5.494500e+002, 1.233887e+002
5.499321e+002, 1.233720e+002
5.504142e+002, 1.232747e+002
5.508963e+002, 1.229955e+002
5.513784e+002, 1.226046e+002
5.518605e+002, 1.220192e+002
5.523427e+002, 1.212854e+002
5.528248e+002, 1.212237e+002
5.533069e+002, 1.223159e+002
5.537890e+002, 1.231413e+002
5.542711e+002, 1.223709e+002
5.547532e+002, 1.209724e+002
5.552354e+002, 1.203857e+002
5.557175e+002, 1.210473e+002
5.561996e+002, 1.219955e+002
5.566817e+002, 1.231909e+002
5.571638e+002, 1.241213e+002
5.576459e+002, 1.232738e+002
5.581281e+002, 1.203387e+002
5.586102e+002, 1.176229e+002
5.590923e+002, 1.172571e+002
5.595744e+002, 1.191102e+002
5.600565e+002, 1.202927e+002
5.605386e+002, 1.207386e+002
5.610208e+002, 1.207202e+002
5.615029e+002, 1.197834e+002
5.619850e+002, 1.186797e+002
5.624671e+002, 1.183205e+002
5.629492e+002, 1.188522e+002
5.634313e+002, 1.196988e+002
5.639135e+002, 1.203270e+002
5.643956e+002, 1.207364e+002
5.648777e+002, 1.207728e+002
5.653598e+002, 1.202239e+002
5.658419e+002, 1.196269e+002
5.663240e+002, 1.190790e+002
5.668062e+002, 1.186062e+002
5.672883e+002, 1.182024e+002
5.677704e+002, 1.178650e+002
5.682525e+002, 1.177418e+002
5.687346e+002, 1.181888e+002
5.692167e+002, 1.189250e+002
5.696989e+002, 1.190986e+002
5.701810e+002, 1.185800e+002
5.706631e+002, 1.179573e+002
5.711452e+002, 1.175510e+002
5.716273e+002, 1.173397e+002
5.721094e+002, 1.172277e+002
5.725916e+002, 1.171833e+002
5.730737e+002, 1.172847e+002
5.735558e+002, 1.177938e+002
5.740379e+002, 1.183191e+002
5.745200e+002, 1.183469e+002
5.750021e+002, 1.178857e+002
5.754843e+002, 1.173896e+002
5.759664e+002, 1.172199e+002
5.764485e+002, 1.173314e+002
5.769306e+002, 1.174557e+002
5.774127e+002, 1.175897e+002
5.778948e+002, 1.177400e+002
5.783770e+002, 1.180364e+002
5.788591e+002, 1.182508e+002
5.793412e+002, 1.180075e+002
5.798233e+002, 1.174134e+002
5.803054e+002, 1.171728e+002
5.807875e+002, 1.181986e+002
5.812697e+002, 1.197927e+002
5.817518e+002, 1.200277e+002
5.822339e+002, 1.187548e+002
5.827161e+002, 1.174778e+002
5.831982e+002, 1.167054e+002
5.836803e+002, 1.163215e+002
5.841624e+002, 1.162745e+002
5.846445e+002, 1.166436e+002
5.851266e+002, 1.166216e+002
5.856088e+002, 1.153017e+002
5.860909e+002, 1.140404e+002
5.865730e+002, 1.143977e+002
5.870551e+002, 1.159573e+002
5.875372e+002, 1.170020e+002
5.880193e+002, 1.165950e+002
5.885015e+002, 1.154300e+002
5.889836e+002, 1.150809e+002
5.894657e+002, 1.161800e+002
5.899478e+002, 1.167175e+002
5.904299e+002, 1.163146e+002
5.909120e+002, 1.157847e+002
5.913942e+002, 1.154592e+002
5.918763e+002, 1.153190e+002
5.923584e+002, 1.152245e+002
5.928405e+002, 1.150829e+002
5.933226e+002, 1.150592e+002
5.938047e+002, 1.156286e+002
5.942869e+002, 1.167705e+002
5.947690e+002, 1.171215e+002
5.952511e+002, 1.160289e+002
5.957332e+002, 1.148273e+002
5.962153e+002, 1.150223e+002
5.966974e+002, 1.161368e+002
5.971796e+002, 1.165101e+002
5.976617e+002, 1.152547e+002
5.981438e+002, 1.138983e+002
5.986259e+002, 1.131737e+002
5.991080e+002, 1.129332e+002
5.995901e+002, 1.129717e+002
6.000723e+002, 1.132260e+002
6.005544e+002, 1.136559e+002
6.010365e+002, 1.142945e+002
6.015186e+002, 1.151615e+002
6.020007e+002, 1.154006e+002
6.024828e+002, 1.140666e+002
6.029650e+002, 1.132569e+002
6.034471e+002, 1.139036e+002
6.039292e+002, 1.148968e+002
6.044113e+002, 1.149845e+002
6.048934e+002, 1.140205e+002
6.053755e+002, 1.130424e+002
6.058577e+002, 1.130773e+002
6.063398e+002, 1.138377e+002
6.068219e+002, 1.142513e+002
6.073040e+002, 1.142668e+002
6.077861e+002, 1.141916e+002
6.082682e+002, 1.140321e+002
6.087504e+002, 1.139595e+002
6.092325e+002, 1.144021e+002
6.097146e+002, 1.155631e+002
6.101967e+002, 1.161334e+002
6.106788e+002, 1.152427e+002
6.111609e+002, 1.140172e+002
6.116431e+002, 1.134206e+002
6.121252e+002, 1.134039e+002
6.126073e+002, 1.135569e+002
6.130894e+002, 1.136751e+002
6.135715e+002, 1.137565e+002
6.140536e+002, 1.138155e+002
6.145358e+002, 1.139389e+002
6.150179e+002, 1.138239e+002
6.155000e+002, 1.130622e+002
6.159821e+002, 1.124731e+002
6.164642e+002, 1.125661e+002
6.169464e+002, 1.130536e+002
6.174285e+002, 1.133241e+002
6.179106e+002, 1.130803e+002
6.183927e+002, 1.127927e+002
6.188748e+002, 1.130771e+002
6.193569e+002, 1.138185e+002
6.198391e+002, 1.144646e+002
6.203212e+002, 1.149816e+002
6.208033e+002, 1.151506e+002
6.212854e+002, 1.146277e+002
6.217675e+002, 1.135677e+002
6.222496e+002, 1.129288e+002
6.227318e+002, 1.129300e+002
6.232139e+002, 1.130485e+002
6.236960e+002, 1.133536e+002
6.241781e+002, 1.135824e+002
6.246602e+002, 1.131969e+002
6.251423e+002, 1.123214e+002
6.256245e+002, 1.119118e+002
6.261066e+002, 1.128881e+002
6.265887e+002, 1.147602e+002
6.270708e+002, 1.151785e+002
6.275529e+002, 1.133651e+002
6.280350e+002, 1.119875e+002
6.285172e+002, 1.119454e+002
6.289993e+002, 1.122360e+002
6.294814e+002, 1.121976e+002
6.299635e+002, 1.118867e+002
6.304456e+002, 1.117887e+002
6.309277e+002, 1.123620e+002
6.314099e+002, 1.130454e+002
6.318920e+002, 1.132314e+002
6.323741e+002, 1.129877e+002
6.328562e+002, 1.125303e+002
6.333383e+002, 1.118943e+002
6.338204e+002, 1.112621e+002
6.343026e+002, 1.108495e+002
6.347847e+002, 1.106739e+002
6.352668e+002, 1.105668e+002
6.357489e+002, 1.102585e+002
6.362310e+002, 1.103245e+002
6.367131e+002, 1.113674e+002
6.371953e+002, 1.126510e+002
6.376774e+002, 1.133722e+002
6.381595e+002, 1.133407e+002
6.386416e+002, 1.127936e+002
6.391237e+002, 1.116394e+002
6.396058e+002, 1.101379e+002
6.400880e+002, 1.097785e+002
6.405701e+002, 1.108802e+002
6.410522e+002, 1.118562e+002
6.415343e+002, 1.120824e+002
6.420164e+002, 1.118753e+002
6.424985e+002, 1.116880e+002
6.429807e+002, 1.115313e+002
6.434628e+002, 1.112533e+002
6.439449e+002, 1.109364e+002
6.444270e+002, 1.103766e+002
6.449091e+002, 1.089974e+002
6.453912e+002, 1.072449e+002
6.458734e+002, 1.062502e+002
6.463555e+002, 1.064759e+002
6.468376e+002, 1.075789e+002
6.473197e+002, 1.092237e+002
6.478018e+002, 1.117225e+002
6.482839e+002, 1.130037e+002
6.487661e+002, 1.122400e+002
6.492482e+002, 1.112230e+002
6.497303e+002, 1.101776e+002
6.502124e+002, 1.093373e+002
6.506945e+002, 1.090338e+002
6.511766e+002, 1.093468e+002
6.516588e+002, 1.098223e+002
6.521409e+002, 1.102475e+002
6.526230e+002, 1.105555e+002
6.531051e+002, 1.105388e+002
6.535872e+002, 1.101967e+002
6.540693e+002, 1.098507e+002
6.545515e+002, 1.096256e+002
6.550336e+002, 1.095668e+002
6.555157e+002, 1.097864e+002
6.559978e+002, 1.104370e+002
6.564799e+002, 1.110220e+002
6.569620e+002, 1.120184e+002
6.574442e+002, 1.124716e+002
6.579263e+002, 1.113142e+002
6.584084e+002, 1.093833e+002
6.588905e+002, 1.082249e+002
6.593726e+002, 1.084672e+002
6.598547e+002, 1.092345e+002
6.603369e+002, 1.093770e+002
6.608190e+002, 1.089444e+002
6.613011e+002, 1.086292e+002
6.617832e+002, 1.083922e+002
6.622653e+002, 1.085111e+002
6.627474e+002, 1.095348e+002
6.632296e+002, 1.108485e+002
6.637117e+002, 1.111926e+002
6.641938e+002, 1.102524e+002
6.646759e+002, 1.093346e+002
6.651580e+002, 1.085844e+002
6.656401e+002, 1.082246e+002
6.661223e+002, 1.087931e+002
6.666044e+002, 1.099683e+002
6.670865e+002, 1.107699e+002
6.675686e+002, 1.106922e+002
6.680507e+002, 1.100209e+002
6.685328e+002, 1.091478e+002
6.690150e+002, 1.078492e+002
6.694971e+002, 1.073654e+002
6.699792e+002, 1.085663e+002
6.704613e+002, 1.095004e+002
6.709434e+002, 1.089289e+002
6.714255e+002, 1.077220e+002
6.719077e+002, 1.073092e+002
6.723898e+002, 1.081598e+002
6.728719e+002, 1.089011e+002
6.733540e+002, 1.082121e+002
6.738361e+002, 1.070710e+002
6.743182e+002, 1.073140e+002
6.748004e+002, 1.088639e+002
6.752825e+002, 1.098681e+002
6.757646e+002, 1.091889e+002
6.762467e+002, 1.075805e+002
6.767288e+002, 1.067847e+002
6.772109e+002, 1.072144e+002
6.776931e+002, 1.074982e+002
6.781752e+002, 1.074460e+002
6.786573e+002, 1.074597e+002
6.791394e+002, 1.078832e+002
6.796215e+002, 1.084345e+002
6.801036e+002, 1.085614e+002
6.805858e+002, 1.080459e+002
6.810679e+002, 1.075475e+002
6.815500e+002, 1.080001e+002
6.820321e+002, 1.089436e+002
6.825142e+002, 1.088994e+002
6.829963e+002, 1.077002e+002
6.834785e+002, 1.064944e+002
6.839606e+002, 1.057915e+002
6.844427e+002, 1.056294e+002
6.849248e+002, 1.062161e+002
6.854069e+002, 1.083334e+002
6.858890e+002, 1.093225e+002
6.863712e+002, 1.081461e+002
6.868533e+002, 1.068065e+002
6.873354e+002, 1.064272e+002
6.878175e+002, 1.066505e+002
6.882996e+002, 1.066904e+002
6.887817e+002, 1.062534e+002
6.892639e+002, 1.056850e+002
6.897460e+002, 1.052546e+002
6.902281e+002, 1.050121e+002
6.907102e+002, 1.054922e+002
6.911923e+002, 1.069340e+002
6.916744e+002, 1.080826e+002
6.921566e+002, 1.081999e+002
6.926387e+002, 1.077171e+002
6.931208e+002, 1.075279e+002
6.936029e+002, 1.077841e+002
6.940850e+002, 1.076337e+002
6.945671e+002, 1.064679e+002
6.950493e+002, 1.053023e+002
6.955314e+002, 1.047939e+002
6.960135e+002, 1.047785e+002
6.964956e+002, 1.049491e+002
6.969777e+002, 1.051679e+002
6.974598e+002, 1.052356e+002
6.979420e+002, 1.047349e+002
6.984241e+002, 1.037082e+002
6.989062e+002, 1.033273e+002
6.993883e+002, 1.037875e+002
6.998704e+002, 1.043409e+002
7.003525e+002, 1.045665e+002
7.008347e+002, 1.048022e+002
7.013168e+002, 1.057660e+002
7.017989e+002, 1.075932e+002
7.022810e+002, 1.084069e+002
7.027631e+002, 1.067644e+002
7.032452e+002, 1.048123e+002
7.037274e+002, 1.039750e+002
7.042095e+002, 1.040132e+002
7.046916e+002, 1.044904e+002
7.051737e+002, 1.052061e+002
7.056558e+002, 1.057491e+002
7.061379e+002, 1.055010e+002
7.066201e+002, 1.045387e+002
7.071022e+002, 1.044230e+002
7.075843e+002, 1.057010e+002
7.080664e+002, 1.065201e+002
7.085485e+002, 1.056634e+002
7.090306e+002, 1.045686e+002
7.095128e+002, 1.047796e+002
7.099949e+002, 1.062115e+002
7.104770e+002, 1.071718e+002
7.109591e+002, 1.068364e+002
7.114412e+002, 1.061222e+002
7.119233e+002, 1.055090e+002
7.124055e+002, 1.050493e+002
7.128876e+002, 1.048445e+002
7.133697e+002, 1.049107e+002
7.138518e+002, 1.051609e+002
7.143339e+002, 1.055555e+002
7.148160e+002, 1.060433e+002
7.152982e+002, 1.062130e+002
7.157803e+002, 1.059281e+002
7.162624e+002, 1.056434e+002
7.167445e+002, 1.054211e+002
7.172266e+002, 1.052555e+002
7.177087e+002, 1.052727e+002
7.181909e+002, 1.053695e+002
7.186730e+002, 1.051146e+002
7.191551e+002, 1.039385e+002
7.196372e+002, 1.029558e+002
7.201193e+002, 1.032242e+002
7.206014e+002, 1.040850e+002
7.210836e+002, 1.043266e+002
7.215657e+002, 1.038210e+002
7.220478e+002, 1.033838e+002
7.225299e+002, 1.036617e+002
7.230120e+002, 1.044045e+002
7.234941e+002, 1.046852e+002
7.239763e+002, 1.043232e+002
7.244584e+002, 1.040029e+002
7.249405e+002, 1.038107e+002
7.254226e+002, 1.036523e+002
7.259047e+002, 1.033698e+002
7.263868e+002, 1.031024e+002
7.268690e+002, 1.031805e+002
7.273511e+002, 1.038031e+002
7.278332e+002, 1.044263e+002
7.283153e+002, 1.049082e+002
7.287974e+002, 1.050990e+002
7.292795e+002, 1.044619e+002
7.297617e+002, 1.032172e+002
7.302438e+002, 1.026363e+002
7.307259e+002, 1.034735e+002
7.312080e+002, 1.048896e+002
7.316901e+002, 1.050383e+002
7.321722e+002, 1.034037e+002
7.326544e+002, 1.027187e+002
7.331365e+002, 1.038603e+002
7.336186e+002, 1.047394e+002
7.341007e+002, 1.041946e+002
7.345828e+002, 1.030731e+002
7.350649e+002, 1.024226e+002
7.355471e+002, 1.024038e+002
7.360292e+002, 1.025659e+002
7.365113e+002, 1.027784e+002
7.369934e+002, 1.030136e+002
7.374755e+002, 1.034179e+002
7.379576e+002, 1.038186e+002
7.384398e+002, 1.035820e+002
7.389219e+002, 1.025076e+002
7.394040e+002, 1.014428e+002
7.398861e+002, 1.015169e+002
7.403682e+002, 1.027048e+002
7.408503e+002, 1.034572e+002
7.413325e+002, 1.036992e+002
7.418146e+002, 1.036558e+002
7.422967e+002, 1.030715e+002
7.427788e+002, 1.024638e+002
7.432609e+002, 1.022708e+002
7.437430e+002, 1.024727e+002
7.442252e+002, 1.027832e+002
7.447073e+002, 1.032881e+002
7.451894e+002, 1.036946e+002
7.456715e+002, 1.038678e+002
7.461536e+002, 1.037957e+002
7.466357e+002, 1.032361e+002
7.471179e+002, 1.022867e+002
7.476000e+002, 1.017523e+002
7.480821e+002, 1.023459e+002
7.485642e+002, 1.036198e+002
7.490463e+002, 1.041200e+002
7.495284e+002, 1.037507e+002
7.500106e+002, 1.029877e+002
7.504927e+002, 1.013801e+002
7.509748e+002, 1.000943e+002
7.514569e+002, 1.002306e+002
7.519390e+002, 1.012170e+002
7.524211e+002, 1.018798e+002
7.529033e+002, 1.021184e+002
7.533854e+002, 1.019706e+002
7.538675e+002, 1.007303e+002
7.543496e+002, 9.966202e+001
7.548317e+002, 1.004291e+002
7.553138e+002, 1.024147e+002
7.557960e+002, 1.036581e+002
7.562781e+002, 1.032606e+002
7.567602e+002, 1.021319e+002
7.572423e+002, 1.014729e+002
7.577244e+002, 1.012803e+002
7.582065e+002, 1.014680e+002
7.586887e+002, 1.022237e+002
7.591708e+002, 1.027028e+002
7.596529e+002, 1.024380e+002
7.601350e+002, 1.017974e+002
7.606171e+002, 1.012690e+002
7.610992e+002, 1.008416e+002
7.615814e+002, 1.005904e+002
7.620635e+002, 1.006834e+002
7.625456e+002, 1.007771e+002
7.630277e+002, 1.006367e+002
7.635098e+002, 1.004455e+002
7.639919e+002, 1.004940e+002
7.644741e+002, 1.007922e+002
7.649562e+002, 1.010541e+002
7.654383e+002, 1.010226e+002
7.659204e+002, 1.008497e+002
7.664025e+002, 1.010104e+002
7.668846e+002, 1.014772e+002
7.673668e+002, 1.012983e+002
7.678489e+002, 1.000508e+002
7.683310e+002, 9.893199e+001
7.688131e+002, 9.901212e+001
7.692952e+002, 1.000715e+002
7.697773e+002, 1.008533e+002
7.702595e+002, 1.012992e+002
7.707416e+002, 1.015695e+002
7.712237e+002, 1.012737e+002
7.717058e+002, 1.011741e+002
7.721879e+002, 1.022277e+002
7.726700e+002, 1.037506e+002
7.731522e+002, 1.042474e+002
7.736343e+002, 1.031073e+002
7.741164e+002, 1.015644e+002
7.745985e+002, 1.007586e+002
7.750806e+002, 1.004251e+002
7.755627e+002, 9.995885e+001
7.760449e+002, 9.934371e+001
7.765270e+002, 9.880425e+001
7.770091e+002, 9.842209e+001
7.774912e+002, 9.825096e+001
7.779733e+002, 9.843086e+001
7.784554e+002, 9.905281e+001
7.789376e+002, 9.927805e+001
7.794197e+002, 9.862936e+001
7.799019e+002, 9.823804e+001
7.803840e+002, 9.873291e+001
7.808661e+002, 9.928289e+001
7.813482e+002, 9.882286e+001
7.818303e+002, 9.756764e+001
7.823124e+002, 9.711025e+001
7.827946e+002, 9.874104e+001
7.832767e+002, 1.006354e+002
7.837588e+002, 1.013491e+002
7.842409e+002, 1.012795e+002
7.847230e+002, 1.009286e+002
7.852051e+002, 1.004841e+002
7.856873e+002, 1.004407e+002
7.861694e+002, 1.012236e+002
7.866515e+002, 1.023186e+002
7.871336e+002, 1.023067e+002
7.876157e+002, 1.009540e+002
7.880978e+002, 9.976256e+001
7.885800e+002, 9.867966e+001
7.890621e+002, 9.803601e+001
7.895442e+002, 9.837563e+001
7.900263e+002, 9.911773e+001
7.905084e+002, 9.932667e+001
7.909905e+002, 9.888133e+001
7.914727e+002, 9.833918e+001
7.919548e+002, 9.745187e+001
7.924369e+002, 9.689909e+001
7.929190e+002, 9.734895e+001
7.934011e+002, 9.833875e+001
7.938832e+002, 9.911930e+001
7.943654e+002, 9.950034e+001
7.948475e+002, 9.976952e+001
7.953296e+002, 1.002685e+002
7.958117e+002, 1.007720e+002
7.962938e+002, 1.004689e+002
7.967759e+002, 9.938152e+001
7.972581e+002, 9.881631e+001
7.977402e+002, 9.912785e+001
7.982223e+002, 9.988292e+001
7.987044e+002, 1.009783e+002
7.991865e+002, 1.021903e+002
7.996686e+002, 1.021965e+002
8.001508e+002, 9.940942e+001
8.006329e+002, 9.769543e+001
8.011150e+002, 9.783709e+001
8.015971e+002, 9.835194e+001
8.020792e+002, 9.843066e+001
8.025613e+002, 9.826442e+001
8.030435e+002, 9.832793e+001
8.035256e+002, 9.877213e+001
8.040077e+002, 9.930033e+001
8.044898e+002, 9.995790e+001
8.049719e+002, 1.004116e+002
8.054540e+002, 9.984283e+001
8.059362e+002, 9.856716e+001
8.064183e+002, 9.797916e+001
8.069004e+002, 9.857079e+001
8.073825e+002, 9.953938e+001
8.078646e+002, 9.997157e+001
8.083467e+002, 9.990639e+001
8.088289e+002, 9.981267e+001
8.093110e+002, 9.963528e+001
8.097931e+002, 9.959768e+001
8.102752e+002, 1.000139e+002
8.107573e+002, 1.002904e+002
8.112394e+002, 9.975880e+001
8.117216e+002, 9.869405e+001
8.122037e+002, 9.802239e+001
8.126858e+002, 9.806565e+001
8.131679e+002, 9.813117e+001
8.136500e+002, 9.789799e+001
8.141321e+002, 9.766598e+001
8.146143e+002, 9.786341e+001
8.150964e+002, 9.825990e+001
8.155785e+002, 9.823648e+001
8.160606e+002, 9.754674e+001
8.165427e+002, 9.665841e+001
8.170248e+002, 9.600902e+001
8.175070e+002, 9.560398e+001
8.179891e+002, 9.550634e+001
8.184712e+002, 9.571510e+001
8.189533e+002, 9.603706e+001
8.194354e+002, 9.643185e+001
8.199175e+002, 9.681684e+001
8.203997e+002, 9.712930e+001
8.208818e+002, 9.736539e+001
8.213639e+002, 9.728261e+001
8.218460e+002, 9.643711e+001
8.223281e+002, 9.593797e+001
8.228102e+002, 9.609022e+001
8.232924e+002, 9.643527e+001
8.237745e+002, 9.677812e+001
8.242566e+002, 9.706203e+001
8.247387e+002, 9.721217e+001
8.252208e+002, 9.722156e+001
8.257029e+002, 9.705284e+001
8.261851e+002, 9.629841e+001
8.266672e+002, 9.562220e+001
8.271493e+002, 9.612343e+001
8.276314e+002, 9.741719e+001
8.281135e+002, 9.812621e+001
8.285956e+002, 9.773155e+001
8.290778e+002, 9.692833e+001
8.295599e+002, 9.653873e+001
8.300420e+002, 9.649693e+001
8.305241e+002, 9.625164e+001
8.310062e+002, 9.569234e+001
8.314883e+002, 9.576586e+001
8.319705e+002, 9.704696e+001
8.324526e+002, 9.840357e+001
8.329347e+002, 9.873445e+001
8.334168e+002, 9.813850e+001
8.338989e+002, 9.757793e+001
8.343810e+002, 9.697029e+001
8.348632e+002, 9.651086e+001
8.353453e+002, 9.626803e+001
8.358274e+002, 9.612688e+001
8.363095e+002, 9.597485e+001
8.367916e+002, 9.588115e+001
8.372737e+002, 9.602124e+001
8.377559e+002, 9.645903e+001
8.382380e+002, 9.691109e+001
8.387201e+002, 9.731625e+001
8.392022e+002, 9.751938e+001
8.396843e+002, 9.721705e+001
8.401664e+002, 9.652612e+001
8.406486e+002, 9.564949e+001
8.411307e+002, 9.469370e+001
8.416128e+002, 9.428527e+001
8.420949e+002, 9.523074e+001
8.425770e+002, 9.706131e+001
8.430591e+002, 9.740135e+001
8.435413e+002, 9.582507e+001
8.440234e+002, 9.497614e+001
8.445055e+002, 9.552418e+001
8.449876e+002, 9.639928e+001
8.454697e+002, 9.712348e+001
8.459518e+002, 9.757197e+001
8.464340e+002, 9.728790e+001
8.469161e+002, 9.570075e+001
8.473982e+002, 9.493875e+001
8.478803e+002, 9.618714e+001
8.483624e+002, 9.726497e+001
8.488445e+002, 9.674185e+001
8.493267e+002, 9.554741e+001
8.498088e+002, 9.502962e+001
8.502909e+002, 9.538653e+001
8.507730e+002, 9.579395e+001
8.512551e+002, 9.568370e+001
8.517372e+002, 9.538676e+001
8.522194e+002, 9.522768e+001
8.527015e+002, 9.520980e+001
8.531836e+002, 9.536159e+001
8.536657e+002, 9.567842e+001
8.541478e+002, 9.617012e+001
8.546299e+002, 9.691384e+001
8.551121e+002, 9.752233e+001
8.555942e+002, 9.687291e+001
8.560763e+002, 9.469877e+001
8.565584e+002, 9.360403e+001
8.570405e+002, 9.404157e+001
8.575226e+002, 9.457926e+001
8.580048e+002, 9.461100e+001
8.584869e+002, 9.441380e+001
8.589690e+002, 9.438623e+001
8.594511e+002, 9.454035e+001
8.599332e+002, 9.464052e+001
8.604153e+002, 9.474110e+001
8.608975e+002, 9.470454e+001
8.613796e+002, 9.445850e+001
8.618617e+002, 9.408802e+001
8.623438e+002, 9.336296e+001
8.628259e+002, 9.258450e+001
8.633080e+002, 9.269788e+001
8.637902e+002, 9.434882e+001
8.642723e+002, 9.591505e+001
8.647544e+002, 9.581359e+001
8.652365e+002, 9.489799e+001
8.657186e+002, 9.445847e+001
8.662007e+002, 9.445984e+001
8.666829e+002, 9.432655e+001
8.671650e+002, 9.384911e+001
8.676471e+002, 9.338817e+001
8.681292e+002, 9.341286e+001
8.686113e+002, 9.382085e+001
8.690934e+002, 9.399929e+001
8.695756e+002, 9.392424e+001
8.700577e+002, 9.375658e+001
8.705398e+002, 9.343144e+001
8.710219e+002, 9.326060e+001
8.715040e+002, 9.353736e+001
8.719861e+002, 9.415096e+001
8.724683e+002, 9.472215e+001
8.729504e+002, 9.556848e+001
8.734325e+002, 9.575082e+001
8.739146e+002, 9.471416e+001
8.743967e+002, 9.363331e+001
8.748788e+002, 9.286922e+001
8.753610e+002, 9.242133e+001
8.758431e+002, 9.238363e+001
8.763252e+002, 9.271725e+001
8.768073e+002, 9.289910e+001
8.772894e+002, 9.247758e+001
8.777715e+002, 9.202404e+001
8.782537e+002, 9.210022e+001
8.787358e+002, 9.237049e+001
8.792179e+002, 9.216772e+001
8.797000e+002, 9.158195e+001
8.801821e+002, 9.147590e+001
8.806642e+002, 9.239134e+001
8.811464e+002, 9.347973e+001
8.816285e+002, 9.326136e+001
8.821106e+002, 9.201301e+001
8.825927e+002, 9.140274e+001
8.830748e+002, 9.152744e+001
8.835569e+002, 9.131589e+001
8.840391e+002, 9.022811e+001
8.845212e+002, 8.917004e+001
8.850033e+002, 8.921013e+001
8.854854e+002, 9.030800e+001
8.859675e+002, 9.174511e+001
8.864496e+002, 9.427788e+001
8.869318e+002, 9.563045e+001
8.874139e+002, 9.478414e+001
8.878960e+002, 9.344662e+001
8.883781e+002, 9.213159e+001
8.888602e+002, 9.112621e+001
8.893423e+002, 9.112105e+001
8.898245e+002, 9.248500e+001
8.903066e+002, 9.351860e+001
8.907887e+002, 9.370078e+001
8.912708e+002, 9.348318e+001
8.917529e+002, 9.268762e+001
8.922350e+002, 9.189756e+001
8.927172e+002, 9.212193e+001
8.931993e+002, 9.327390e+001
8.936814e+002, 9.407748e+001
8.941635e+002, 9.371938e+001
8.946456e+002, 9.275924e+001
8.951277e+002, 9.140040e+001
8.956099e+002, 9.008538e+001
8.960920e+002, 9.007021e+001
8.965741e+002, 9.127598e+001
8.970562e+002, 9.248813e+001
8.975383e+002, 9.313945e+001
8.980204e+002, 9.324133e+001
8.985026e+002, 9.262377e+001
8.989847e+002, 9.139125e+001
8.994668e+002, 9.095329e+001
8.999489e+002, 9.140597e+001
9.004310e+002, 9.221330e+001
9.009131e+002, 9.355989e+001
9.013953e+002, 9.446362e+001
9.018774e+002, 9.380867e+001
9.023595e+002, 9.205026e+001
9.028416e+002, 9.129580e+001
9.033237e+002, 9.238985e+001
9.038058e+002, 9.295589e+001
9.042880e+002, 9.290292e+001
9.047701e+002, 9.245376e+001
9.052522e+002, 9.109018e+001
9.057343e+002, 8.972662e+001
9.062164e+002, 8.971557e+001
9.066985e+002, 9.108913e+001
9.071807e+002, 9.212853e+001
9.076628e+002, 9.194273e+001
9.081449e+002, 9.159843e+001
9.086270e+002, 9.181066e+001
9.091091e+002, 9.208823e+001
9.095912e+002, 9.170037e+001
9.100734e+002, 9.084920e+001
9.105555e+002, 9.034225e+001
9.110376e+002, 9.054171e+001
9.115197e+002, 9.102476e+001
9.120018e+002, 9.157803e+001
9.124839e+002, 9.199524e+001
9.129661e+002, 9.151197e+001
9.134482e+002, 9.041236e+001
9.139303e+002, 9.035629e+001
9.144124e+002, 9.175565e+001
9.148945e+002, 9.283369e+001
9.153766e+002, 9.184292e+001
9.158588e+002, 8.972713e+001
9.163409e+002, 8.972426e+001
9.168230e+002, 9.215137e+001
9.173051e+002, 9.358311e+001
9.177872e+002, 9.348713e+001
9.182693e+002, 9.324345e+001
9.187515e+002, 9.370347e+001
9.192336e+002, 9.411668e+001
9.197157e+002, 9.302666e+001
9.201978e+002, 9.009586e+001
9.206799e+002, 8.898921e+001
9.211620e+002, 9.160207e+001
9.216442e+002, 9.342021e+001
9.221263e+002, 9.336267e+001
9.226084e+002, 9.277911e+001
9.230905e+002, 9.241183e+001
9.235726e+002, 9.225499e+001
9.240547e+002, 9.220500e+001
9.245369e+002, 9.229021e+001
9.250190e+002, 9.229037e+001
9.255011e+002, 9.212066e+001
9.259832e+002, 9.184904e+001
9.264653e+002, 9.159409e+001
9.269474e+002, 9.122571e+001
9.274296e+002, 9.029401e+001
9.279117e+002, 8.896011e+001
9.283938e+002, 8.827131e+001
9.288759e+002, 8.905067e+001
9.293580e+002, 9.020799e+001
9.298401e+002, 9.044774e+001
9.303223e+002, 9.024464e+001
9.308044e+002, 9.060491e+001
9.312865e+002, 9.143947e+001
9.317686e+002, 9.195108e+001
9.322507e+002, 9.182412e+001
9.327328e+002, 9.150523e+001
9.332150e+002, 9.153331e+001
9.336971e+002, 9.177052e+001
9.341792e+002, 9.160767e+001
9.346613e+002, 9.104600e+001
9.351434e+002, 9.070838e+001
9.356255e+002, 9.072147e+001
9.361077e+002, 9.091872e+001
9.365898e+002, 9.126927e+001
9.370719e+002, 9.158755e+001
9.375540e+002, 9.141003e+001
9.380361e+002, 9.058579e+001
9.385182e+002, 9.008818e+001
9.390004e+002, 8.990862e+001
9.394825e+002, 9.010500e+001
9.399646e+002, 9.125294e+001
9.404467e+002, 9.223030e+001
9.409288e+002, 9.151842e+001
9.414109e+002, 8.965269e+001
9.418931e+002, 8.909581e+001
9.423752e+002, 9.118090e+001
9.428573e+002, 9.226295e+001
9.433394e+002, 9.090946e+001
9.438215e+002, 8.956812e+001
9.443036e+002, 8.961974e+001
9.447858e+002, 9.035029e+001
9.452679e+002, 9.083083e+001
9.457500e+002, 9.092433e+001
9.462321e+002, 9.085856e+001
9.467142e+002, 9.069511e+001
9.471964e+002, 9.044471e+001
9.476785e+002, 8.992378e+001
9.481606e+002, 8.945747e+001
9.486427e+002, 8.946439e+001
9.491248e+002, 8.984528e+001
9.496069e+002, 9.031841e+001
9.500891e+002, 9.076627e+001
9.505712e+002, 9.102940e+001
9.510533e+002, 9.078311e+001
9.515354e+002, 9.037143e+001
9.520175e+002, 9.046336e+001
9.524996e+002, 9.085457e+001
9.529818e+002, 9.086185e+001
9.534639e+002, 9.043021e+001
9.539460e+002, 9.022540e+001
9.544281e+002, 9.070018e+001
9.549102e+002, 9.132131e+001
9.553923e+002, 9.094804e+001
9.558745e+002, 8.975459e+001
9.563566e+002, 8.951490e+001
9.568387e+002, 9.029465e+001
9.573208e+002, 9.114388e+001
9.578029e+002, 9.181591e+001
9.582850e+002, 9.225728e+001
9.587672e+002, 9.235551e+001
9.592493e+002, 9.224437e+001
9.597314e+002, 9.253072e+001
9.602135e+002, 9.345374e+001
9.606956e+002, 9.385732e+001
9.611777e+002, 9.338878e+001
9.616599e+002, 9.305092e+001
9.621420e+002, 9.343530e+001
9.626241e+002, 9.397526e+001
9.631062e+002, 9.388451e+001
9.635883e+002, 9.316581e+001
9.640704e+002, 9.280511e+001
9.645526e+002, 9.315768e+001
9.650347e+002, 9.332476e+001
9.655168e+002, 9.287939e+001
9.659989e+002, 9.260058e+001
9.664810e+002, 9.326788e+001
9.669631e+002, 9.421204e+001
9.674453e+002, 9.430622e+001
9.679274e+002, 9.339319e+001
9.684095e+002, 9.252644e+001
9.688916e+002, 9.192931e+001
9.693737e+002, 9.153339e+001
9.698558e+002, 9.154237e+001
9.703380e+002, 9.154794e+001
9.708201e+002, 9.108496e+001
9.713022e+002, 9.030020e+001
9.717843e+002, 8.955005e+001
9.722664e+002, 8.893195e+001
9.727485e+002, 8.872753e+001
9.732307e+002, 8.948904e+001
9.737128e+002, 9.042324e+001
9.741949e+002, 9.078873e+001
9.746770e+002, 9.075155e+001
9.751591e+002, 9.061890e+001
9.756412e+002, 9.042955e+001
9.761234e+002, 9.000438e+001
9.766055e+002, 8.920261e+001
9.770876e+002, 8.845846e+001
9.775698e+002, 8.850581e+001
9.780519e+002, 8.890817e+001
9.785340e+002, 8.854457e+001
9.790161e+002, 8.761958e+001
9.794982e+002, 8.711267e+001
9.799803e+002, 8.728212e+001
9.804625e+002, 8.795771e+001
9.809446e+002, 8.912534e+001
9.814267e+002, 9.027808e+001
9.819088e+002, 9.017527e+001
9.823909e+002, 8.894772e+001
9.828730e+002, 8.767699e+001
9.833552e+002, 8.641358e+001
9.838373e+002, 8.603517e+001
9.843194e+002, 8.697207e+001
9.848015e+002, 8.821617e+001
9.852836e+002, 8.874998e+001
9.857657e+002, 8.864523e+001
9.862479e+002, 8.817319e+001
9.867300e+002, 8.720354e+001
9.872121e+002, 8.656822e+001
9.876942e+002, 8.636901e+001
9.881763e+002, 8.640342e+001
9.886584e+002, 8.663357e+001
9.891406e+002, 8.696806e+001
9.896227e+002, 8.728105e+001
9.901048e+002, 8.757561e+001
9.905869e+002, 8.795462e+001
9.910690e+002, 8.868560e+001
9.915511e+002, 8.896927e+001
9.920333e+002, 8.842319e+001
9.925154e+002, 8.778922e+001
9.929975e+002, 8.737481e+001
9.934796e+002, 8.715340e+001
9.939617e+002, 8.715869e+001
9.944438e+002, 8.743123e+001
9.949260e+002, 8.746303e+001
9.954081e+002, 8.684999e+001
9.958902e+002, 8.651134e+001
9.963723e+002, 8.704507e+001
9.968544e+002, 8.751743e+001
9.973365e+002, 8.719569e+001
9.978187e+002, 8.638226e+001
9.983008e+002, 8.563115e+001
9.987829e+002, 8.499678e+001
9.992650e+002, 8.475865e+001
9.997471e+002, 8.543837e+001
1.000229e+003, 8.599364e+001
1.000711e+003, 8.571814e+001
1.001193e+003, 8.527371e+001
1.001676e+003, 8.541955e+001
1.002158e+003, 8.594051e+001
1.002640e+003, 8.599742e+001
1.003122e+003, 8.525497e+001
1.003604e+003, 8.498042e+001
1.004086e+003, 8.664392e+001
1.004568e+003, 8.827686e+001
1.005050e+003, 8.815446e+001
1.005533e+003, 8.709386e+001
1.006015e+003, 8.593156e+001
1.006497e+003, 8.500965e+001
1.006979e+003, 8.484921e+001
1.007461e+003, 8.574328e+001
1.007943e+003, 8.678481e+001
1.008425e+003, 8.722241e+001
1.008907e+003, 8.731432e+001
1.009389e+003, 8.734038e+001
1.009872e+003, 8.729424e+001
1.010354e+003, 8.707747e+001
1.010836e+003, 8.672398e+001
1.011318e+003, 8.648579e+001
1.011800e+003, 8.653040e+001
1.012282e+003, 8.656417e+001
1.012764e+003, 8.612378e+001
1.013246e+003, 8.544633e+001
1.013729e+003, 8.489269e+001
1.014211e+003, 8.456937e+001
1.014693e+003, 8.500731e+001
1.015175e+003, 8.621340e+001
1.015657e+003, 8.723528e+001
1.016139e+003, 8.742352e+001
1.016621e+003, 8.698326e+001
1.017103e+003, 8.599680e+001
1.017585e+003, 8.467677e+001
1.018068e+003, 8.399984e+001
1.018550e+003, 8.396191e+001
1.019032e+003, 8.425957e+001
1.019514e+003, 8.480502e+001
1.019996e+003, 8.518481e+001
1.020478e+003, 8.501717e+001
1.020960e+003, 8.462118e+001
1.021442e+003, 8.476989e+001
1.021924e+003, 8.544185e+001
1.022407e+003, 8.621184e+001
1.022889e+003, 8.710055e+001
1.023371e+003, 8.736184e+001
1.023853e+003, 8.669692e+001
1.024335e+003, 8.571864e+001
1.024817e+003, 8.487614e+001
1.025299e+003, 8.430991e+001
1.025781e+003, 8.460123e+001
1.026264e+003, 8.591188e+001
1.026746e+003, 8.674410e+001
1.027228e+003, 8.703127e+001
1.027710e+003, 8.692456e+001
1.028192e+003, 8.640573e+001
1.028674e+003, 8.566873e+001
1.029156e+003, 8.479281e+001
1.029638e+003, 8.392688e+001
1.030120e+003, 8.374208e+001
1.030603e+003, 8.453252e+001
1.031085e+003, 8.486240e+001
1.031567e+003, 8.443373e+001
1.032049e+003, 8.424452e+001
1.032531e+003, 8.476025e+001
1.033013e+003, 8.545375e+001
1.033495e+003, 8.586124e+001
1.033977e+003, 8.598714e+001
1.034459e+003, 8.582378e+001
1.034942e+003, 8.511295e+001
1.035424e+003, 8.474507e+001
1.035906e+003, 8.501130e+001
1.036388e+003, 8.511644e+001
1.036870e+003, 8.453885e+001
1.037352e+003, 8.395291e+001
1.037834e+003, 8.414410e+001
1.038316e+003, 8.494564e+001
1.038799e+003, 8.535467e+001
1.039281e+003, 8.515250e+001
1.039763e+003, 8.498463e+001
1.040245e+003, 8.463635e+001
1.040727e+003, 8.459761e+001
1.041209e+003, 8.537215e+001
1.041691e+003, 8.625294e+001
1.042173e+003, 8.666369e+001
1.042656e+003, 8.661256e+001
1.043138e+003, 8.611455e+001
1.043620e+003, 8.477597e+001
1.044102e+003, 8.378410e+001
1.044584e+003, 8.307125e+001
1.045066e+003, 8.288378e+001
1.045548e+003, 8.361458e+001
1.046030e+003, 8.468172e+001
1.046512e+003, 8.585523e+001
1.046995e+003, 8.690871e+001
1.047477e+003, 8.688145e+001
1.047959e+003, 8.482803e+001
1.048441e+003, 8.364528e+001
1.048923e+003, 8.462697e+001
1.049405e+003, 8.550478e+001
1.049887e+003, 8.506277e+001
1.050369e+003, 8.429465e+001
1.050851e+003, 8.427589e+001
1.051334e+003, 8.486972e+001
1.051816e+003, 8.526566e+001
1.052298e+003, 8.529184e+001
1.052780e+003, 8.522131e+001
1.053262e+003, 8.526569e+001
1.053744e+003, 8.504475e+001
1.054226e+003, 8.397536e+001
1.054708e+003, 8.286854e+001
1.055191e+003, 8.256731e+001
1.055673e+003, 8.297360e+001
1.056155e+003, 8.359684e+001
1.056637e+003, 8.455974e+001
1.057119e+003, 8.494168e+001
1.057601e+003, 8.381680e+001
1.058083e+003, 8.282354e+001
1.058565e+003, 8.280543e+001
1.059047e+003, 8.329688e+001
1.059530e+003, 8.418111e+001
1.060012e+003, 8.509254e+001
1.060494e+003, 8.506960e+001
1.060976e+003, 8.365231e+001
1.061458e+003, 8.240084e+001
1.061940e+003, 8.166286e+001
1.062422e+003, 8.146195e+001
1.062904e+003, 8.222374e+001
1.063386e+003, 8.319267e+001
1.063869e+003, 8.371848e+001
1.064351e+003, 8.379160e+001
1.064833e+003, 8.354453e+001
1.065315e+003, 8.295818e+001
1.065797e+003, 8.246786e+001
1.066279e+003, 8.235918e+001
1.066761e+003, 8.226241e+001
1.067243e+003, 8.184486e+001
1.067726e+003, 8.145932e+001
1.068208e+003, 8.148170e+001
1.068690e+003, 8.182474e+001
1.069172e+003, 8.222241e+001
1.069654e+003, 8.260945e+001
1.070136e+003, 8.302377e+001
1.070618e+003, 8.392821e+001
1.071100e+003, 8.430824e+001
1.071583e+003, 8.300893e+001
1.072065e+003, 8.146426e+001
1.072547e+003, 8.119209e+001
1.073029e+003, 8.170766e+001
1.073511e+003, 8.171371e+001
1.073993e+003, 8.092143e+001
1.074475e+003, 8.023721e+001
1.074957e+003, 7.995688e+001
1.075439e+003, 8.001046e+001
1.075922e+003, 8.048283e+001
1.076404e+003, 8.116454e+001
1.076886e+003, 8.212281e+001
1.077368e+003, 8.305074e+001
1.077850e+003, 8.354620e+001
1.078332e+003, 8.350484e+001
1.078814e+003, 8.271268e+001
1.079296e+003, 7.995085e+001
1.079779e+003, 7.800343e+001
1.080261e+003, 7.876571e+001
1.080743e+003, 8.034310e+001
1.081225e+003, 8.158447e+001
1.081707e+003, 8.236994e+001
1.082189e+003, 8.271716e+001
1.082671e+003, 8.264172e+001
1.083153e+003, 8.218745e+001
1.083635e+003, 8.100601e+001
1.084118e+003, 8.013580e+001
1.084600e+003, 8.047110e+001
1.085082e+003, 8.084702e+001
1.085564e+003, 8.006033e+001
1.086046e+003, 7.899467e+001
1.086528e+003, 7.902783e+001
1.087010e+003, 8.011469e+001
1.087492e+003, 8.107854e+001
1.087974e+003, 8.154076e+001
1.088457e+003, 8.184464e+001
1.088939e+003, 8.213188e+001
1.089421e+003, 8.231219e+001
1.089903e+003, 8.227434e+001
1.090385e+003, 8.213860e+001
1.090867e+003, 8.223840e+001
1.091349e+003, 8.237630e+001
1.091831e+003, 8.168166e+001
1.092314e+003, 7.956424e+001
1.092796e+003, 7.811520e+001
1.093278e+003, 7.865842e+001
1.093760e+003, 7.938799e+001
1.094242e+003, 7.936758e+001
1.094724e+003, 7.909951e+001
1.095206e+003, 7.890853e+001
1.095688e+003, 7.894732e+001
1.096171e+003, 7.955537e+001
1.096653e+003, 8.090163e+001
1.097135e+003, 8.196958e+001
1.097617e+003, 8.254372e+001
1.098099e+003, 8.267513e+001
1.098581e+003, 8.181163e+001
1.099063e+003, 8.105804e+001
1.099545e+003, 8.186544e+001
1.100027e+003, 8.320796e+001
1.100510e+003, 8.282516e+001
1.100992e+003, 8.036796e+001
1.101474e+003, 7.862515e+001
1.101956e+003, 7.843929e+001
1.102438e+003, 7.874497e+001
1.102920e+003, 7.988162e+001
1.103402e+003, 8.077346e+001
1.103884e+003, 8.045561e+001
1.104366e+003, 7.965841e+001
1.104849e+003, 7.950665e+001
1.105331e+003, 8.001979e+001
1.105813e+003, 8.022551e+001
1.106295e+003, 7.972439e+001
1.106777e+003, 7.931230e+001
1.107259e+003, 7.909586e+001
1.107741e+003, 7.898793e+001
1.108223e+003, 7.893571e+001
1.108706e+003, 7.898176e+001
1.109188e+003, 7.926981e+001
1.109670e+003, 7.972081e+001
1.110152e+003, 7.991122e+001
1.110634e+003, 7.966750e+001
1.111116e+003, 7.950040e+001
1.111598e+003, 7.980080e+001
1.112080e+003, 7.969643e+001
1.112563e+003, 7.816712e+001
1.113045e+003, 7.685423e+001
1.113527e+003, 7.735719e+001
1.114009e+003, 7.900322e+001
1.114491e+003, 8.004607e+001
1.114973e+003, 8.046491e+001
1.115455e+003, 8.034808e+001
1.115937e+003, 7.917734e+001
1.116419e+003, 7.839149e+001
1.116901e+003, 7.853781e+001
1.117384e+003, 7.870432e+001
1.117866e+003, 7.825505e+001
1.118348e+003, 7.756303e+001
1.118830e+003, 7.724903e+001
1.119312e+003, 7.731980e+001
1.119794e+003, 7.746627e+001
1.120276e+003, 7.753682e+001
1.120758e+003, 7.819734e+001
1.121241e+003, 8.020084e+001
1.121723e+003, 8.117576e+001
1.122205e+003, 7.957812e+001
1.122687e+003, 7.730379e+001
1.123169e+003, 7.664650e+001
1.123651e+003, 7.729602e+001
1.124133e+003, 7.739571e+001
1.124615e+003, 7.668098e+001
1.125098e+003, 7.681641e+001
1.125580e+003, 7.814217e+001
1.126062e+003, 7.917690e+001
1.126544e+003, 7.949333e+001
1.127026e+003, 7.912480e+001
1.127508e+003, 7.790589e+001
1.127990e+003, 7.641614e+001
1.128472e+003, 7.621761e+001
1.128954e+003, 7.735512e+001
1.129437e+003, 7.814516e+001
1.129919e+003, 7.859174e+001
1.130401e+003, 7.860753e+001
1.130883e+003, 7.814674e+001
1.131365e+003, 7.758286e+001
1.131847e+003, 7.713856e+001
1.132329e+003, 7.667616e+001
1.132811e+003, 7.578262e+001
1.133293e+003, 7.479632e+001
1.133776e+003, 7.585133e+001
1.134258e+003, 7.859365e+001
1.134740e+003, 7.954337e+001
1.135222e+003, 7.841959e+001
1.135704e+003, 7.728310e+001
1.136186e+003, 7.697761e+001
1.136668e+003, 7.710402e+001
1.137150e+003, 7.734626e+001
1.137633e+003, 7.758495e+001
1.138115e+003, 7.761028e+001
1.138597e+003, 7.742439e+001
1.139079e+003, 7.683153e+001
1.139561e+003, 7.602285e+001
1.140043e+003, 7.583860e+001
1.140525e+003, 7.640579e+001
1.141007e+003, 7.701530e+001
1.141490e+003, 7.721309e+001
1.141972e+003, 7.727831e+001
1.142454e+003, 7.763688e+001
1.142936e+003, 7.801952e+001
1.143418e+003, 7.777934e+001
1.143900e+003, 7.730514e+001
1.144382e+003, 7.770633e+001
1.144864e+003, 7.872262e+001
1.145346e+003, 7.871379e+001
1.145828e+003, 7.708168e+001
1.146311e+003, 7.577122e+001
1.146793e+003, 7.682253e+001
1.147275e+003, 7.824182e+001
1.147757e+003, 7.798717e+001
1.148239e+003, 7.722454e+001
1.148721e+003, 7.751165e+001
1.149203e+003, 7.832803e+001
1.149685e+003, 7.832248e+001
1.150168e+003, 7.734144e+001
1.150650e+003, 7.647222e+001
1.151132e+003, 7.608377e+001
1.151614e+003, 7.614462e+001
1.152096e+003, 7.716016e+001
1.152578e+003, 7.803745e+001
1.153060e+003, 7.779719e+001
1.153542e+003, 7.716838e+001
1.154025e+003, 7.711992e+001
1.154507e+003, 7.749293e+001
1.154989e+003, 7.738591e+001
1.155471e+003, 7.644846e+001
1.155953e+003, 7.590437e+001
1.156435e+003, 7.613515e+001
1.156917e+003, 7.666654e+001
1.157399e+003, 7.788131e+001
1.157881e+003, 7.880099e+001
1.158364e+003, 7.859315e+001
1.158846e+003, 7.773186e+001
1.159328e+003, 7.696364e+001
1.159810e+003, 7.631837e+001
1.160292e+003, 7.577331e+001
1.160774e+003, 7.518148e+001
1.161256e+003, 7.497194e+001
1.161738e+003, 7.544641e+001
1.162220e+003, 7.583934e+001
1.162703e+003, 7.582947e+001
1.163185e+003, 7.569423e+001
1.163667e+003, 7.572450e+001
1.164149e+003, 7.581728e+001
1.164631e+003, 7.551967e+001
1.165113e+003, 7.459658e+001
1.165595e+003, 7.493666e+001
1.166077e+003, 7.703776e+001
1.166560e+003, 7.811590e+001
1.167042e+003, 7.740186e+001
1.167524e+003, 7.651095e+001
1.168006e+003, 7.642420e+001
1.168488e+003, 7.655110e+001
1.168970e+003, 7.591013e+001
1.169452e+003, 7.478373e+001
1.169934e+003, 7.472165e+001
1.170417e+003, 7.565055e+001
1.170899e+003, 7.669152e+001
1.171381e+003, 7.771512e+001
1.171863e+003, 7.810095e+001
1.172345e+003, 7.765806e+001
1.172827e+003, 7.693692e+001
1.173309e+003, 7.628103e+001
1.173791e+003, 7.607829e+001
1.174273e+003, 7.756705e+001
1.174755e+003, 7.972983e+001
1.175238e+003, 7.993118e+001
1.175720e+003, 7.875010e+001
1.176202e+003, 7.796809e+001
1.176684e+003, 7.779744e+001
1.177166e+003, 7.752775e+001
1.177648e+003, 7.685106e+001
1.178130e+003, 7.621181e+001
1.178612e+003, 7.610929e+001
1.179095e+003, 7.607459e+001
1.179577e+003, 7.518693e+001
1.180059e+003, 7.445033e+001
1.180541e+003, 7.555190e+001
1.181023e+003, 7.759306e+001
1.181505e+003, 7.869922e+001
1.181987e+003, 7.861805e+001
1.182469e+003, 7.832776e+001
1.182952e+003, 7.820898e+001
1.183434e+003, 7.793472e+001
1.183916e+003, 7.695219e+001
1.184398e+003, 7.626625e+001
1.184880e+003, 7.703320e+001
1.185362e+003, 7.784431e+001
1.185844e+003, 7.683570e+001
1.186326e+003, 7.489687e+001
1.186808e+003, 7.449763e+001
1.187291e+003, 7.611548e+001
1.187773e+003, 7.711935e+001
1.188255e+003, 7.681020e+001
1.188737e+003, 7.657588e+001
1.189219e+003, 7.654407e+001
1.189701e+003, 7.665035e+001
1.190183e+003, 7.695116e+001
1.190665e+003, 7.729613e+001
1.191147e+003, 7.763127e+001
1.191630e+003, 7.783723e+001
1.192112e+003, 7.727665e+001
1.192594e+003, 7.561579e+001
1.193076e+003, 7.496125e+001
1.193558e+003, 7.552253e+001
1.194040e+003, 7.611146e+001
1.194522e+003, 7.656020e+001
1.195004e+003, 7.624630e+001
1.195487e+003, 7.460780e+001
1.195969e+003, 7.304626e+001
1.196451e+003, 7.377292e+001
1.196933e+003, 7.597441e+001
1.197415e+003, 7.634295e+001
1.197897e+003, 7.527532e+001
1.198379e+003, 7.516230e+001
1.198861e+003, 7.599320e+001
1.199344e+003, 7.625233e+001
1.199826e+003, 7.555695e+001
1.200308e+003, 7.479424e+001
1.200790e+003, 7.453125e+001
1.201272e+003, 7.468261e+001
1.201754e+003, 7.546349e+001
1.202236e+003, 7.633104e+001
1.202718e+003, 7.625426e+001
1.203200e+003, 7.585365e+001
1.203682e+003, 7.648496e+001
1.204165e+003, 7.775915e+001
1.204647e+003, 7.805999e+001
1.205129e+003, 7.701303e+001
1.205611e+003, 7.621614e+001
1.206093e+003, 7.682697e+001
1.206575e+003, 7.736180e+001
1.207057e+003, 7.681341e+001
1.207539e+003, 7.620051e+001
1.208022e+003, 7.638162e+001
1.208504e+003, 7.677370e+001
1.208986e+003, 7.645525e+001
1.209468e+003, 7.569106e+001
1.209950e+003, 7.570908e+001
1.210432e+003, 7.699031e+001
1.210914e+003, 7.759901e+001
1.211396e+003, 7.704613e+001
1.211879e+003, 7.631091e+001
1.212361e+003, 7.487781e+001
1.212843e+003, 7.437565e+001
1.213325e+003, 7.632040e+001
1.213807e+003, 7.862206e+001
1.214289e+003, 7.866905e+001
1.214771e+003, 7.692260e+001
1.215253e+003, 7.547787e+001
1.215735e+003, 7.430047e+001
1.216218e+003, 7.386562e+001
1.216700e+003, 7.421411e+001
1.217182e+003, 7.507809e+001
1.217664e+003, 7.643671e+001
1.218146e+003, 7.727410e+001
1.218628e+003, 7.697002e+001
1.219110e+003, 7.614252e+001
1.219592e+003, 7.546985e+001
1.220074e+003, 7.502082e+001
1.220557e+003, 7.513206e+001
1.221039e+003, 7.554762e+001
1.221521e+003, 7.560683e+001
1.222003e+003, 7.532920e+001
1.222485e+003, 7.490627e+001
1.222967e+003, 7.443871e+001
1.223449e+003, 7.413142e+001
1.223931e+003, 7.412086e+001
1.224414e+003, 7.413515e+001
1.224896e+003, 7.373814e+001
1.225378e+003, 7.353570e+001
1.225860e+003, 7.432971e+001
1.226342e+003, 7.531017e+001
1.226824e+003, 7.539468e+001
1.227306e+003, 7.508044e+001
1.227788e+003, 7.582035e+001
1.228271e+003, 7.764110e+001
1.228753e+003, 7.803770e+001
1.229235e+003, 7.496603e+001
1.229717e+003, 7.320877e+001
1.230199e+003, 7.411702e+001
1.230681e+003, 7.549261e+001
1.231163e+003, 7.744250e+001
1.231645e+003, 7.858335e+001
1.232127e+003, 7.730430e+001
1.232609e+003, 7.511954e+001
1.233092e+003, 7.521321e+001
1.233574e+003, 7.749368e+001
1.234056e+003, 7.755616e+001
1.234538e+003, 7.496140e+001
1.235020e+003, 7.405856e+001
1.235502e+003, 7.537940e+001
1.235984e+003, 7.627660e+001
1.236466e+003, 7.583098e+001
1.236949e+003, 7.505198e+001
1.237431e+003, 7.468417e+001
1.237913e+003, 7.469409e+001
1.238395e+003, 7.528796e+001
1.238877e+003, 7.608811e+001
1.239359e+003, 7.610069e+001
1.239841e+003, 7.561962e+001
1.240323e+003, 7.531057e+001
1.240806e+003, 7.521420e+001
1.241288e+003, 7.516253e+001
1.241770e+003, 7.509037e+001
1.242252e+003, 7.489220e+001
1.242734e+003, 7.428806e+001
1.243216e+003, 7.414063e+001
1.243698e+003, 7.591897e+001
1.244180e+003, 7.728834e+001
1.244662e+003, 7.579031e+001
1.245145e+003, 7.377809e+001
1.245627e+003, 7.389037e+001
1.246109e+003, 7.539834e+001
1.246591e+003, 7.630863e+001
1.247073e+003, 7.639803e+001
1.247555e+003, 7.641068e+001
1.248037e+003, 7.647367e+001
1.248519e+003, 7.630679e+001
1.249001e+003, 7.594799e+001
1.249484e+003, 7.517221e+001
1.249966e+003, 7.356400e+001
1.250448e+003, 7.234772e+001
1.250930e+003, 7.258936e+001
1.251412e+003, 7.360987e+001
1.251894e+003, 7.411822e+001
1.252376e+003, 7.418631e+001
1.252858e+003, 7.426965e+001
1.253341e+003, 7.439169e+001
1.253823e+003, 7.491477e+001
1.254305e+003, 7.576438e+001
1.254787e+003, 7.616028e+001
1.255269e+003, 7.588900e+001
1.255751e+003, 7.533031e+001
1.256233e+003, 7.466479e+001
1.256715e+003, 7.428394e+001
1.257198e+003, 7.498638e+001
1.257680e+003, 7.582179e+001
1.258162e+003, 7.557167e+001
1.258644e+003, 7.491479e+001
1.259126e+003, 7.471711e+001
1.259608e+003, 7.485738e+001
1.260090e+003, 7.480329e+001
1.260572e+003, 7.452781e+001
1.261054e+003, 7.466280e+001
1.261536e+003, 7.564528e+001
1.262019e+003, 7.644621e+001
1.262501e+003, 7.704038e+001
1.262983e+003, 7.717585e+001
1.263465e+003, 7.662671e+001
1.263947e+003, 7.576876e+001
1.264429e+003, 7.459657e+001
1.264911e+003, 7.352811e+001
1.265393e+003, 7.326641e+001
1.265876e+003, 7.366482e+001
1.266358e+003, 7.356081e+001
1.266840e+003, 7.287903e+001
1.267322e+003, 7.342599e+001
1.267804e+003, 7.525948e+001
1.268286e+003, 7.628902e+001
1.268768e+003, 7.604733e+001
1.269250e+003, 7.537961e+001
1.269733e+003, 7.475060e+001
1.270215e+003, 7.414700e+001
1.270697e+003, 7.348155e+001
1.271179e+003, 7.293337e+001
1.271661e+003, 7.270145e+001
1.272143e+003, 7.279134e+001
1.272625e+003, 7.357628e+001
1.273107e+003, 7.449833e+001
1.273589e+003, 7.425404e+001
1.274072e+003, 7.315655e+001
1.274554e+003, 7.308647e+001
1.275036e+003, 7.473024e+001
1.275518e+003, 7.598894e+001
1.276000e+003, 7.595908e+001
1.276482e+003, 7.581888e+001
1.276964e+003, 7.596807e+001
1.277446e+003, 7.596600e+001
1.277929e+003, 7.537984e+001
1.278411e+003, 7.479651e+001
1.278893e+003, 7.486717e+001
1.279375e+003, 7.529374e+001
1.279857e+003, 7.521783e+001
1.280339e+003, 7.462882e+001
1.280821e+003, 7.426878e+001
1.281303e+003, 7.414395e+001
1.281786e+003, 7.444519e+001
1.282268e+003, 7.519883e+001
##END=



