##NAMES=Vigezzite
##RRUFFID=R120132
##IDEAL CHEMISTRY=(Ca,Ce^3+^)(Nb^5+^,Ta^5+^,Ti^4+^)_2_O_6_
##LOCALITY=Jacupiranga mine, Cajati, SÃ£o Paulo, Southeast Region, Brazil
##OWNER=RRUFF
##SOURCE=Luiz Menezes
##DESCRIPTION=Brown transparent crystals associated with black tochilinite, strontianite, and dolomite
##STATUS=The identification of this mineral has been confirmed only by single crystal X-ray diffraction.
##URL=rruff.info/R120132
8.975323e+001, 0.000000e+000
9.023535e+001, 3.008714e+003
9.071747e+001, 2.898001e+003
9.119958e+001, 2.847249e+003
9.168170e+001, 2.954408e+003
9.216382e+001, 3.079616e+003
9.264594e+001, 3.185333e+003
9.312805e+001, 3.272637e+003
9.361017e+001, 3.353510e+003
9.409229e+001, 3.429348e+003
9.457440e+001, 3.501613e+003
9.505651e+001, 3.565501e+003
9.553863e+001, 3.619146e+003
9.602074e+001, 3.670078e+003
9.650286e+001, 3.725675e+003
9.698498e+001, 3.786765e+003
9.746709e+001, 3.843601e+003
9.794921e+001, 3.897072e+003
9.843133e+001, 3.943136e+003
9.891344e+001, 3.993305e+003
9.939556e+001, 4.050966e+003
9.987768e+001, 4.114206e+003
1.003598e+002, 4.178240e+003
1.008419e+002, 4.239921e+003
1.013240e+002, 4.300557e+003
1.018061e+002, 4.363817e+003
1.022883e+002, 4.434346e+003
1.027704e+002, 4.504294e+003
1.032525e+002, 4.566894e+003
1.037346e+002, 4.622448e+003
1.042167e+002, 4.670000e+003
1.046988e+002, 4.706523e+003
1.051810e+002, 4.734049e+003
1.056631e+002, 4.753972e+003
1.061452e+002, 4.769707e+003
1.066273e+002, 4.778786e+003
1.071094e+002, 4.770662e+003
1.075915e+002, 4.737850e+003
1.080737e+002, 4.694202e+003
1.085558e+002, 4.645429e+003
1.090379e+002, 4.591532e+003
1.095200e+002, 4.532061e+003
1.100021e+002, 4.465063e+003
1.104842e+002, 4.388784e+003
1.109664e+002, 4.315500e+003
1.114485e+002, 4.247759e+003
1.119306e+002, 4.180552e+003
1.124127e+002, 4.111147e+003
1.128948e+002, 4.039568e+003
1.133769e+002, 3.967026e+003
1.138591e+002, 3.895743e+003
1.143412e+002, 3.822122e+003
1.148233e+002, 3.756317e+003
1.153054e+002, 3.700537e+003
1.157875e+002, 3.650759e+003
1.162696e+002, 3.603194e+003
1.167517e+002, 3.556322e+003
1.172339e+002, 3.510892e+003
1.177160e+002, 3.469227e+003
1.181981e+002, 3.429890e+003
1.186802e+002, 3.395279e+003
1.191623e+002, 3.367338e+003
1.196444e+002, 3.344887e+003
1.201266e+002, 3.324512e+003
1.206087e+002, 3.304745e+003
1.210908e+002, 3.286633e+003
1.215729e+002, 3.271342e+003
1.220550e+002, 3.259436e+003
1.225371e+002, 3.249311e+003
1.230193e+002, 3.240168e+003
1.235014e+002, 3.232104e+003
1.239835e+002, 3.223966e+003
1.244656e+002, 3.213447e+003
1.249477e+002, 3.203266e+003
1.254298e+002, 3.196137e+003
1.259120e+002, 3.193329e+003
1.263941e+002, 3.193815e+003
1.268762e+002, 3.195276e+003
1.273583e+002, 3.197125e+003
1.278404e+002, 3.201359e+003
1.283225e+002, 3.210028e+003
1.288047e+002, 3.220749e+003
1.292868e+002, 3.230305e+003
1.297689e+002, 3.236554e+003
1.302510e+002, 3.239750e+003
1.307331e+002, 3.243482e+003
1.312152e+002, 3.246579e+003
1.316974e+002, 3.251456e+003
1.321795e+002, 3.258890e+003
1.326616e+002, 3.268694e+003
1.331437e+002, 3.280240e+003
1.336258e+002, 3.293087e+003
1.341079e+002, 3.307438e+003
1.345901e+002, 3.322439e+003
1.350722e+002, 3.338110e+003
1.355543e+002, 3.354290e+003
1.360364e+002, 3.370598e+003
1.365185e+002, 3.387085e+003
1.370006e+002, 3.404402e+003
1.374828e+002, 3.423033e+003
1.379649e+002, 3.443233e+003
1.384470e+002, 3.464752e+003
1.389291e+002, 3.488455e+003
1.394112e+002, 3.513212e+003
1.398933e+002, 3.537549e+003
1.403755e+002, 3.560844e+003
1.408576e+002, 3.584508e+003
1.413397e+002, 3.610760e+003
1.418218e+002, 3.639290e+003
1.423039e+002, 3.667533e+003
1.427860e+002, 3.694074e+003
1.432681e+002, 3.719364e+003
1.437503e+002, 3.745352e+003
1.442324e+002, 3.773000e+003
1.447145e+002, 3.800759e+003
1.451966e+002, 3.827649e+003
1.456787e+002, 3.853573e+003
1.461608e+002, 3.878461e+003
1.466430e+002, 3.902323e+003
1.471251e+002, 3.925223e+003
1.476072e+002, 3.946678e+003
1.480893e+002, 3.968930e+003
1.485714e+002, 3.988207e+003
1.490535e+002, 4.000931e+003
1.495357e+002, 4.006584e+003
1.500178e+002, 4.009378e+003
1.504999e+002, 4.015829e+003
1.509820e+002, 4.028965e+003
1.514641e+002, 4.039227e+003
1.519462e+002, 4.044554e+003
1.524284e+002, 4.047964e+003
1.529105e+002, 4.051833e+003
1.533926e+002, 4.057030e+003
1.538747e+002, 4.062855e+003
1.543568e+002, 4.067488e+003
1.548389e+002, 4.067974e+003
1.553211e+002, 4.070872e+003
1.558032e+002, 4.076120e+003
1.562853e+002, 4.083986e+003
1.567674e+002, 4.095025e+003
1.572495e+002, 4.109608e+003
1.577316e+002, 4.127117e+003
1.582138e+002, 4.145100e+003
1.586959e+002, 4.161749e+003
1.591780e+002, 4.180728e+003
1.596601e+002, 4.202501e+003
1.601422e+002, 4.227195e+003
1.606243e+002, 4.255304e+003
1.611065e+002, 4.287219e+003
1.615886e+002, 4.322795e+003
1.620707e+002, 4.359525e+003
1.625528e+002, 4.397935e+003
1.630349e+002, 4.436732e+003
1.635170e+002, 4.473295e+003
1.639991e+002, 4.508239e+003
1.644813e+002, 4.547168e+003
1.649634e+002, 4.595307e+003
1.654455e+002, 4.649876e+003
1.659276e+002, 4.703683e+003
1.664097e+002, 4.754678e+003
1.668918e+002, 4.805964e+003
1.673740e+002, 4.861577e+003
1.678561e+002, 4.922359e+003
1.683382e+002, 4.983017e+003
1.688203e+002, 5.036200e+003
1.693024e+002, 5.087975e+003
1.697845e+002, 5.147161e+003
1.702667e+002, 5.219282e+003
1.707488e+002, 5.299248e+003
1.712309e+002, 5.375111e+003
1.717130e+002, 5.444317e+003
1.721951e+002, 5.513979e+003
1.726772e+002, 5.586597e+003
1.731594e+002, 5.661862e+003
1.736415e+002, 5.739835e+003
1.741236e+002, 5.820311e+003
1.746057e+002, 5.903311e+003
1.750878e+002, 5.987990e+003
1.755699e+002, 6.075305e+003
1.760521e+002, 6.163721e+003
1.765342e+002, 6.252198e+003
1.770163e+002, 6.341397e+003
1.774984e+002, 6.431619e+003
1.779805e+002, 6.523651e+003
1.784626e+002, 6.617704e+003
1.789448e+002, 6.711429e+003
1.794269e+002, 6.799998e+003
1.799090e+002, 6.893032e+003
1.803911e+002, 6.995083e+003
1.808732e+002, 7.104421e+003
1.813553e+002, 7.215213e+003
1.818375e+002, 7.322617e+003
1.823196e+002, 7.426046e+003
1.828017e+002, 7.531155e+003
1.832838e+002, 7.638528e+003
1.837659e+002, 7.746496e+003
1.842480e+002, 7.854716e+003
1.847301e+002, 7.962675e+003
1.852123e+002, 8.069244e+003
1.856944e+002, 8.173049e+003
1.861765e+002, 8.273762e+003
1.866586e+002, 8.370562e+003
1.871407e+002, 8.462401e+003
1.876228e+002, 8.550509e+003
1.881050e+002, 8.636051e+003
1.885871e+002, 8.718749e+003
1.890692e+002, 8.797616e+003
1.895513e+002, 8.870947e+003
1.900334e+002, 8.938439e+003
1.905155e+002, 9.003981e+003
1.909977e+002, 9.073490e+003
1.914798e+002, 9.138378e+003
1.919619e+002, 9.188958e+003
1.924440e+002, 9.223589e+003
1.929261e+002, 9.247161e+003
1.934082e+002, 9.263636e+003
1.938904e+002, 9.273263e+003
1.943725e+002, 9.271308e+003
1.948546e+002, 9.254815e+003
1.953367e+002, 9.226000e+003
1.958188e+002, 9.188563e+003
1.963009e+002, 9.141783e+003
1.967831e+002, 9.087926e+003
1.972652e+002, 9.031755e+003
1.977473e+002, 8.971079e+003
1.982294e+002, 8.899560e+003
1.987115e+002, 8.809192e+003
1.991936e+002, 8.703682e+003
1.996758e+002, 8.600811e+003
2.001579e+002, 8.505916e+003
2.006400e+002, 8.405565e+003
2.011221e+002, 8.292627e+003
2.016042e+002, 8.169696e+003
2.020863e+002, 8.044457e+003
2.025685e+002, 7.920443e+003
2.030506e+002, 7.797639e+003
2.035327e+002, 7.680387e+003
2.040148e+002, 7.573227e+003
2.044969e+002, 7.468022e+003
2.049790e+002, 7.364149e+003
2.054612e+002, 7.260498e+003
2.059433e+002, 7.154057e+003
2.064254e+002, 7.041598e+003
2.069075e+002, 6.922497e+003
2.073896e+002, 6.809456e+003
2.078717e+002, 6.706242e+003
2.083539e+002, 6.605977e+003
2.088360e+002, 6.507162e+003
2.093181e+002, 6.409901e+003
2.098002e+002, 6.315304e+003
2.102823e+002, 6.224646e+003
2.107644e+002, 6.139173e+003
2.112466e+002, 6.051505e+003
2.117287e+002, 5.957182e+003
2.122108e+002, 5.865243e+003
2.126929e+002, 5.778606e+003
2.131750e+002, 5.697537e+003
2.136571e+002, 5.620281e+003
2.141393e+002, 5.545583e+003
2.146214e+002, 5.473550e+003
2.151035e+002, 5.403125e+003
2.155856e+002, 5.331729e+003
2.160677e+002, 5.263557e+003
2.165498e+002, 5.201861e+003
2.170320e+002, 5.145897e+003
2.175141e+002, 5.090489e+003
2.179962e+002, 5.030616e+003
2.184783e+002, 4.965252e+003
2.189604e+002, 4.907439e+003
2.194425e+002, 4.857833e+003
2.199247e+002, 4.813865e+003
2.204068e+002, 4.776084e+003
2.208889e+002, 4.743548e+003
2.213710e+002, 4.711411e+003
2.218531e+002, 4.674739e+003
2.223352e+002, 4.633353e+003
2.228174e+002, 4.597836e+003
2.232995e+002, 4.569966e+003
2.237816e+002, 4.546455e+003
2.242637e+002, 4.525478e+003
2.247458e+002, 4.506791e+003
2.252279e+002, 4.490367e+003
2.257100e+002, 4.477014e+003
2.261922e+002, 4.466375e+003
2.266743e+002, 4.454586e+003
2.271564e+002, 4.438156e+003
2.276385e+002, 4.422538e+003
2.281206e+002, 4.413173e+003
2.286027e+002, 4.410419e+003
2.290849e+002, 4.410871e+003
2.295670e+002, 4.414068e+003
2.300491e+002, 4.418669e+003
2.305312e+002, 4.420900e+003
2.310133e+002, 4.418161e+003
2.314954e+002, 4.413868e+003
2.319776e+002, 4.411419e+003
2.324597e+002, 4.410788e+003
2.329418e+002, 4.412199e+003
2.334239e+002, 4.416377e+003
2.339060e+002, 4.422700e+003
2.343881e+002, 4.430675e+003
2.348703e+002, 4.441338e+003
2.353524e+002, 4.452627e+003
2.358345e+002, 4.461931e+003
2.363166e+002, 4.469181e+003
2.367987e+002, 4.474847e+003
2.372808e+002, 4.478328e+003
2.377630e+002, 4.480620e+003
2.382451e+002, 4.482574e+003
2.387272e+002, 4.484131e+003
2.392093e+002, 4.485919e+003
2.396914e+002, 4.488956e+003
2.401735e+002, 4.493438e+003
2.406557e+002, 4.498643e+003
2.411378e+002, 4.504794e+003
2.416199e+002, 4.511302e+003
2.421020e+002, 4.517333e+003
2.425841e+002, 4.522297e+003
2.430662e+002, 4.527612e+003
2.435484e+002, 4.535673e+003
2.440305e+002, 4.546782e+003
2.445126e+002, 4.560005e+003
2.449947e+002, 4.575075e+003
2.454768e+002, 4.591885e+003
2.459589e+002, 4.610580e+003
2.464410e+002, 4.631274e+003
2.469232e+002, 4.653460e+003
2.474053e+002, 4.676932e+003
2.478874e+002, 4.702539e+003
2.483695e+002, 4.727220e+003
2.488516e+002, 4.750175e+003
2.493337e+002, 4.772180e+003
2.498159e+002, 4.792728e+003
2.502980e+002, 4.811873e+003
2.507801e+002, 4.832015e+003
2.512622e+002, 4.857681e+003
2.517443e+002, 4.890727e+003
2.522264e+002, 4.925148e+003
2.527086e+002, 4.959124e+003
2.531907e+002, 4.994745e+003
2.536728e+002, 5.034530e+003
2.541549e+002, 5.078716e+003
2.546370e+002, 5.124720e+003
2.551191e+002, 5.168414e+003
2.556013e+002, 5.206447e+003
2.560834e+002, 5.249471e+003
2.565655e+002, 5.298459e+003
2.570476e+002, 5.350803e+003
2.575297e+002, 5.406217e+003
2.580118e+002, 5.463961e+003
2.584940e+002, 5.522282e+003
2.589761e+002, 5.578703e+003
2.594582e+002, 5.632198e+003
2.599403e+002, 5.686386e+003
2.604224e+002, 5.738625e+003
2.609045e+002, 5.793820e+003
2.613867e+002, 5.856624e+003
2.618688e+002, 5.926692e+003
2.623509e+002, 5.997761e+003
2.628330e+002, 6.062331e+003
2.633151e+002, 6.116275e+003
2.637972e+002, 6.179380e+003
2.642794e+002, 6.256711e+003
2.647615e+002, 6.336815e+003
2.652436e+002, 6.411776e+003
2.657257e+002, 6.482151e+003
2.662078e+002, 6.554677e+003
2.666899e+002, 6.636058e+003
2.671721e+002, 6.727212e+003
2.676542e+002, 6.821190e+003
2.681363e+002, 6.922021e+003
2.686184e+002, 7.021432e+003
2.691005e+002, 7.113435e+003
2.695826e+002, 7.199430e+003
2.700648e+002, 7.285648e+003
2.705469e+002, 7.377772e+003
2.710290e+002, 7.475572e+003
2.715111e+002, 7.568612e+003
2.719932e+002, 7.652003e+003
2.724753e+002, 7.736264e+003
2.729575e+002, 7.828834e+003
2.734396e+002, 7.926281e+003
2.739217e+002, 8.018448e+003
2.744038e+002, 8.098206e+003
2.748859e+002, 8.166516e+003
2.753680e+002, 8.233065e+003
2.758501e+002, 8.307763e+003
2.763322e+002, 8.371137e+003
2.768144e+002, 8.413962e+003
2.772965e+002, 8.440701e+003
2.777786e+002, 8.462201e+003
2.782607e+002, 8.485248e+003
2.787428e+002, 8.506344e+003
2.792249e+002, 8.508753e+003
2.797071e+002, 8.488235e+003
2.801892e+002, 8.458587e+003
2.806713e+002, 8.424611e+003
2.811534e+002, 8.383650e+003
2.816355e+002, 8.330274e+003
2.821176e+002, 8.261801e+003
2.825998e+002, 8.180912e+003
2.830819e+002, 8.094528e+003
2.835640e+002, 7.999220e+003
2.840461e+002, 7.905274e+003
2.845282e+002, 7.816579e+003
2.850103e+002, 7.730044e+003
2.854925e+002, 7.641547e+003
2.859746e+002, 7.549685e+003
2.864567e+002, 7.454869e+003
2.869388e+002, 7.355507e+003
2.874209e+002, 7.249406e+003
2.879030e+002, 7.147890e+003
2.883852e+002, 7.053404e+003
2.888673e+002, 6.964717e+003
2.893494e+002, 6.881857e+003
2.898315e+002, 6.804895e+003
2.903136e+002, 6.731628e+003
2.907957e+002, 6.658852e+003
2.912779e+002, 6.586761e+003
2.917600e+002, 6.515630e+003
2.922421e+002, 6.444518e+003
2.927242e+002, 6.374896e+003
2.932063e+002, 6.307417e+003
2.936884e+002, 6.241967e+003
2.941706e+002, 6.181130e+003
2.946527e+002, 6.128476e+003
2.951348e+002, 6.084248e+003
2.956169e+002, 6.038410e+003
2.960990e+002, 5.986513e+003
2.965811e+002, 5.935876e+003
2.970633e+002, 5.892940e+003
2.975454e+002, 5.857677e+003
2.980275e+002, 5.824548e+003
2.985096e+002, 5.790101e+003
2.989917e+002, 5.754620e+003
2.994738e+002, 5.719889e+003
2.999560e+002, 5.684796e+003
3.004381e+002, 5.651692e+003
3.009202e+002, 5.621922e+003
3.014023e+002, 5.595261e+003
3.018844e+002, 5.569964e+003
3.023665e+002, 5.544584e+003
3.028487e+002, 5.520351e+003
3.033308e+002, 5.500625e+003
3.038129e+002, 5.488468e+003
3.042950e+002, 5.475249e+003
3.047771e+002, 5.454725e+003
3.052592e+002, 5.430005e+003
3.057414e+002, 5.409524e+003
3.062235e+002, 5.397120e+003
3.067056e+002, 5.389261e+003
3.071877e+002, 5.379118e+003
3.076698e+002, 5.365860e+003
3.081519e+002, 5.353965e+003
3.086341e+002, 5.344475e+003
3.091162e+002, 5.337391e+003
3.095983e+002, 5.333607e+003
3.100804e+002, 5.333916e+003
3.105625e+002, 5.335177e+003
3.110446e+002, 5.332052e+003
3.115268e+002, 5.324138e+003
3.120089e+002, 5.320317e+003
3.124910e+002, 5.323852e+003
3.129731e+002, 5.331681e+003
3.134552e+002, 5.340178e+003
3.139373e+002, 5.348769e+003
3.144195e+002, 5.359173e+003
3.149016e+002, 5.374295e+003
3.153837e+002, 5.393683e+003
3.158658e+002, 5.409789e+003
3.163479e+002, 5.415936e+003
3.168300e+002, 5.422859e+003
3.173121e+002, 5.440551e+003
3.177943e+002, 5.468815e+003
3.182764e+002, 5.499271e+003
3.187585e+002, 5.526493e+003
3.192406e+002, 5.551442e+003
3.197227e+002, 5.579196e+003
3.202048e+002, 5.608420e+003
3.206870e+002, 5.641775e+003
3.211691e+002, 5.682124e+003
3.216512e+002, 5.728129e+003
3.221333e+002, 5.776229e+003
3.226154e+002, 5.825290e+003
3.230975e+002, 5.874477e+003
3.235797e+002, 5.920146e+003
3.240618e+002, 5.960447e+003
3.245439e+002, 6.002190e+003
3.250260e+002, 6.044998e+003
3.255081e+002, 6.091316e+003
3.259902e+002, 6.147741e+003
3.264724e+002, 6.217747e+003
3.269545e+002, 6.293599e+003
3.274366e+002, 6.362705e+003
3.279187e+002, 6.423186e+003
3.284008e+002, 6.488400e+003
3.288829e+002, 6.564070e+003
3.293651e+002, 6.643992e+003
3.298472e+002, 6.720458e+003
3.303293e+002, 6.792117e+003
3.308114e+002, 6.863357e+003
3.312935e+002, 6.938281e+003
3.317756e+002, 7.017184e+003
3.322578e+002, 7.100648e+003
3.327399e+002, 7.192034e+003
3.332220e+002, 7.284838e+003
3.337041e+002, 7.373914e+003
3.341862e+002, 7.459194e+003
3.346683e+002, 7.546428e+003
3.351505e+002, 7.639594e+003
3.356326e+002, 7.738002e+003
3.361147e+002, 7.833167e+003
3.365968e+002, 7.923250e+003
3.370789e+002, 8.013475e+003
3.375610e+002, 8.106896e+003
3.380432e+002, 8.202497e+003
3.385253e+002, 8.296839e+003
3.390074e+002, 8.388290e+003
3.394895e+002, 8.477521e+003
3.399716e+002, 8.565498e+003
3.404537e+002, 8.649626e+003
3.409359e+002, 8.737048e+003
3.414180e+002, 8.833333e+003
3.419001e+002, 8.932296e+003
3.423822e+002, 9.024515e+003
3.428643e+002, 9.106935e+003
3.433464e+002, 9.185858e+003
3.438286e+002, 9.270457e+003
3.443107e+002, 9.365359e+003
3.447928e+002, 9.451309e+003
3.452749e+002, 9.521203e+003
3.457570e+002, 9.586249e+003
3.462391e+002, 9.655462e+003
3.467213e+002, 9.728816e+003
3.472034e+002, 9.801920e+003
3.476855e+002, 9.871028e+003
3.481676e+002, 9.936457e+003
3.486497e+002, 9.989775e+003
3.491318e+002, 1.002078e+004
3.496140e+002, 1.005214e+004
3.500961e+002, 1.009595e+004
3.505782e+002, 1.014756e+004
3.510603e+002, 1.019597e+004
3.515424e+002, 1.023480e+004
3.520245e+002, 1.026492e+004
3.525067e+002, 1.029007e+004
3.529888e+002, 1.030637e+004
3.534709e+002, 1.032245e+004
3.539530e+002, 1.034018e+004
3.544351e+002, 1.035780e+004
3.549172e+002, 1.037454e+004
3.553994e+002, 1.038986e+004
3.558815e+002, 1.040119e+004
3.563636e+002, 1.040421e+004
3.568457e+002, 1.039637e+004
3.573278e+002, 1.038394e+004
3.578099e+002, 1.036332e+004
3.582920e+002, 1.034116e+004
3.587741e+002, 1.032402e+004
3.592563e+002, 1.031107e+004
3.597384e+002, 1.029500e+004
3.602205e+002, 1.026787e+004
3.607026e+002, 1.022816e+004
3.611847e+002, 1.019187e+004
3.616668e+002, 1.016531e+004
3.621490e+002, 1.013555e+004
3.626311e+002, 1.009736e+004
3.631132e+002, 1.005270e+004
3.635953e+002, 1.000639e+004
3.640774e+002, 9.961214e+003
3.645595e+002, 9.916658e+003
3.650417e+002, 9.870778e+003
3.655238e+002, 9.827271e+003
3.660059e+002, 9.776650e+003
3.664880e+002, 9.711748e+003
3.669701e+002, 9.642875e+003
3.674522e+002, 9.580816e+003
3.679344e+002, 9.529013e+003
3.684165e+002, 9.481181e+003
3.688986e+002, 9.426452e+003
3.693807e+002, 9.360153e+003
3.698628e+002, 9.300146e+003
3.703449e+002, 9.254025e+003
3.708271e+002, 9.208006e+003
3.713092e+002, 9.153887e+003
3.717913e+002, 9.092333e+003
3.722734e+002, 9.028470e+003
3.727555e+002, 8.966891e+003
3.732376e+002, 8.907661e+003
3.737198e+002, 8.847675e+003
3.742019e+002, 8.781973e+003
3.746840e+002, 8.722072e+003
3.751661e+002, 8.676096e+003
3.756482e+002, 8.636968e+003
3.761303e+002, 8.593741e+003
3.766125e+002, 8.539917e+003
3.770946e+002, 8.481021e+003
3.775767e+002, 8.428661e+003
3.780588e+002, 8.383243e+003
3.785409e+002, 8.343379e+003
3.790230e+002, 8.313956e+003
3.795052e+002, 8.286569e+003
3.799873e+002, 8.254207e+003
3.804694e+002, 8.215502e+003
3.809515e+002, 8.175394e+003
3.814336e+002, 8.137549e+003
3.819157e+002, 8.101929e+003
3.823979e+002, 8.072210e+003
3.828800e+002, 8.051915e+003
3.833621e+002, 8.034314e+003
3.838442e+002, 8.014758e+003
3.843263e+002, 7.993761e+003
3.848084e+002, 7.972865e+003
3.852906e+002, 7.954148e+003
3.857727e+002, 7.936075e+003
3.862548e+002, 7.913970e+003
3.867369e+002, 7.886295e+003
3.872190e+002, 7.860379e+003
3.877011e+002, 7.841658e+003
3.881833e+002, 7.826990e+003
3.886654e+002, 7.811681e+003
3.891475e+002, 7.792978e+003
3.896296e+002, 7.776949e+003
3.901117e+002, 7.770313e+003
3.905938e+002, 7.772058e+003
3.910760e+002, 7.774563e+003
3.915581e+002, 7.776163e+003
3.920402e+002, 7.776529e+003
3.925223e+002, 7.774623e+003
3.930044e+002, 7.770202e+003
3.934865e+002, 7.767235e+003
3.939687e+002, 7.767677e+003
3.944508e+002, 7.770446e+003
3.949329e+002, 7.772904e+003
3.954150e+002, 7.774361e+003
3.958971e+002, 7.779107e+003
3.963792e+002, 7.791233e+003
3.968614e+002, 7.810750e+003
3.973435e+002, 7.833002e+003
3.978256e+002, 7.858814e+003
3.983077e+002, 7.886580e+003
3.987898e+002, 7.916346e+003
3.992719e+002, 7.947413e+003
3.997540e+002, 7.977018e+003
4.002361e+002, 8.003021e+003
4.007183e+002, 8.027775e+003
4.012004e+002, 8.058148e+003
4.016825e+002, 8.095842e+003
4.021646e+002, 8.135084e+003
4.026467e+002, 8.172257e+003
4.031288e+002, 8.211720e+003
4.036110e+002, 8.260522e+003
4.040931e+002, 8.319491e+003
4.045752e+002, 8.380288e+003
4.050573e+002, 8.432659e+003
4.055394e+002, 8.473661e+003
4.060215e+002, 8.519496e+003
4.065037e+002, 8.567296e+003
4.069858e+002, 8.621720e+003
4.074679e+002, 8.687698e+003
4.079500e+002, 8.762521e+003
4.084321e+002, 8.839522e+003
4.089142e+002, 8.915304e+003
4.093964e+002, 8.990379e+003
4.098785e+002, 9.068450e+003
4.103606e+002, 9.150295e+003
4.108427e+002, 9.234236e+003
4.113248e+002, 9.320356e+003
4.118069e+002, 9.408271e+003
4.122891e+002, 9.497886e+003
4.127712e+002, 9.589111e+003
4.132533e+002, 9.681714e+003
4.137354e+002, 9.775386e+003
4.142175e+002, 9.870769e+003
4.146996e+002, 9.966304e+003
4.151818e+002, 1.006198e+004
4.156639e+002, 1.015740e+004
4.161460e+002, 1.025150e+004
4.166281e+002, 1.034553e+004
4.171102e+002, 1.044023e+004
4.175923e+002, 1.053618e+004
4.180745e+002, 1.063400e+004
4.185566e+002, 1.073807e+004
4.190387e+002, 1.085030e+004
4.195208e+002, 1.096354e+004
4.200029e+002, 1.107793e+004
4.204850e+002, 1.119040e+004
4.209672e+002, 1.129686e+004
4.214493e+002, 1.139611e+004
4.219314e+002, 1.149201e+004
4.224135e+002, 1.158807e+004
4.228956e+002, 1.168409e+004
4.233777e+002, 1.177879e+004
4.238599e+002, 1.187012e+004
4.243420e+002, 1.196263e+004
4.248241e+002, 1.206104e+004
4.253062e+002, 1.216391e+004
4.257883e+002, 1.226674e+004
4.262704e+002, 1.236874e+004
4.267526e+002, 1.246940e+004
4.272347e+002, 1.256662e+004
4.277168e+002, 1.266083e+004
4.281989e+002, 1.275474e+004
4.286810e+002, 1.284823e+004
4.291631e+002, 1.294298e+004
4.296453e+002, 1.304157e+004
4.301274e+002, 1.314552e+004
4.306095e+002, 1.325009e+004
4.310916e+002, 1.335584e+004
4.315737e+002, 1.345959e+004
4.320558e+002, 1.355392e+004
4.325380e+002, 1.363558e+004
4.330201e+002, 1.371401e+004
4.335022e+002, 1.380126e+004
4.339843e+002, 1.389904e+004
4.344664e+002, 1.398832e+004
4.349485e+002, 1.405906e+004
4.354307e+002, 1.412893e+004
4.359128e+002, 1.421072e+004
4.363949e+002, 1.430191e+004
4.368770e+002, 1.439186e+004
4.373591e+002, 1.447401e+004
4.378412e+002, 1.455083e+004
4.383234e+002, 1.463042e+004
4.388055e+002, 1.471328e+004
4.392876e+002, 1.479876e+004
4.397697e+002, 1.488913e+004
4.402518e+002, 1.498067e+004
4.407339e+002, 1.507059e+004
4.412160e+002, 1.515748e+004
4.416982e+002, 1.524016e+004
4.421803e+002, 1.531544e+004
4.426624e+002, 1.538155e+004
4.431445e+002, 1.545476e+004
4.436266e+002, 1.554852e+004
4.441087e+002, 1.563532e+004
4.445909e+002, 1.570205e+004
4.450730e+002, 1.575642e+004
4.455551e+002, 1.581281e+004
4.460372e+002, 1.587841e+004
4.465193e+002, 1.594811e+004
4.470014e+002, 1.601015e+004
4.474836e+002, 1.606205e+004
4.479657e+002, 1.611348e+004
4.484478e+002, 1.617350e+004
4.489299e+002, 1.622849e+004
4.494120e+002, 1.626763e+004
4.498941e+002, 1.629137e+004
4.503763e+002, 1.631058e+004
4.508584e+002, 1.633328e+004
4.513405e+002, 1.635826e+004
4.518226e+002, 1.638055e+004
4.523047e+002, 1.640116e+004
4.527868e+002, 1.641590e+004
4.532690e+002, 1.642091e+004
4.537511e+002, 1.641859e+004
4.542332e+002, 1.641090e+004
4.547153e+002, 1.639679e+004
4.551974e+002, 1.638009e+004
4.556795e+002, 1.636660e+004
4.561617e+002, 1.635399e+004
4.566438e+002, 1.633219e+004
4.571259e+002, 1.629843e+004
4.576080e+002, 1.625417e+004
4.580901e+002, 1.619989e+004
4.585722e+002, 1.613644e+004
4.590544e+002, 1.606494e+004
4.595365e+002, 1.598155e+004
4.600186e+002, 1.589345e+004
4.605007e+002, 1.580796e+004
4.609828e+002, 1.572436e+004
4.614649e+002, 1.563642e+004
4.619471e+002, 1.553941e+004
4.624292e+002, 1.543538e+004
4.629113e+002, 1.533009e+004
4.633934e+002, 1.523135e+004
4.638755e+002, 1.512135e+004
4.643576e+002, 1.498677e+004
4.648398e+002, 1.484492e+004
4.653219e+002, 1.471558e+004
4.658040e+002, 1.460109e+004
4.662861e+002, 1.448926e+004
4.667682e+002, 1.436724e+004
4.672503e+002, 1.423322e+004
4.677325e+002, 1.409587e+004
4.682146e+002, 1.395187e+004
4.686967e+002, 1.380771e+004
4.691788e+002, 1.366415e+004
4.696609e+002, 1.352203e+004
4.701430e+002, 1.338426e+004
4.706252e+002, 1.325223e+004
4.711073e+002, 1.312214e+004
4.715894e+002, 1.298727e+004
4.720715e+002, 1.284706e+004
4.725536e+002, 1.270553e+004
4.730357e+002, 1.256011e+004
4.735179e+002, 1.241699e+004
4.740000e+002, 1.228059e+004
4.744821e+002, 1.215068e+004
4.749642e+002, 1.202153e+004
4.754463e+002, 1.188863e+004
4.759284e+002, 1.175560e+004
4.764106e+002, 1.162946e+004
4.768927e+002, 1.151154e+004
4.773748e+002, 1.139504e+004
4.778569e+002, 1.127434e+004
4.783390e+002, 1.115477e+004
4.788211e+002, 1.104597e+004
4.793033e+002, 1.095129e+004
4.797854e+002, 1.085711e+004
4.802675e+002, 1.075484e+004
4.807496e+002, 1.064891e+004
4.812317e+002, 1.054671e+004
4.817138e+002, 1.044954e+004
4.821959e+002, 1.035594e+004
4.826780e+002, 1.026428e+004
4.831602e+002, 1.017492e+004
4.836423e+002, 1.008796e+004
4.841244e+002, 1.000253e+004
4.846065e+002, 9.920436e+003
4.850886e+002, 9.842247e+003
4.855707e+002, 9.767540e+003
4.860529e+002, 9.696063e+003
4.865350e+002, 9.627469e+003
4.870171e+002, 9.561146e+003
4.874992e+002, 9.496899e+003
4.879813e+002, 9.435514e+003
4.884634e+002, 9.372780e+003
4.889456e+002, 9.304427e+003
4.894277e+002, 9.239166e+003
4.899098e+002, 9.183513e+003
4.903919e+002, 9.134573e+003
4.908740e+002, 9.084677e+003
4.913561e+002, 9.028604e+003
4.918383e+002, 8.970919e+003
4.923204e+002, 8.925465e+003
4.928025e+002, 8.897560e+003
4.932846e+002, 8.867560e+003
4.937667e+002, 8.826894e+003
4.942488e+002, 8.786275e+003
4.947310e+002, 8.753372e+003
4.952131e+002, 8.728324e+003
4.956952e+002, 8.705200e+003
4.961773e+002, 8.679985e+003
4.966594e+002, 8.653770e+003
4.971415e+002, 8.630240e+003
4.976237e+002, 8.610126e+003
4.981058e+002, 8.589302e+003
4.985879e+002, 8.564155e+003
4.990700e+002, 8.537085e+003
4.995521e+002, 8.512257e+003
5.000342e+002, 8.488688e+003
5.005164e+002, 8.470081e+003
5.009985e+002, 8.459379e+003
5.014806e+002, 8.454455e+003
5.019627e+002, 8.452116e+003
5.024448e+002, 8.451774e+003
5.029269e+002, 8.452021e+003
5.034091e+002, 8.451536e+003
5.038912e+002, 8.450295e+003
5.043733e+002, 8.449357e+003
5.048554e+002, 8.446621e+003
5.053375e+002, 8.446479e+003
5.058196e+002, 8.452198e+003
5.063018e+002, 8.461027e+003
5.067839e+002, 8.468248e+003
5.072660e+002, 8.472284e+003
5.077481e+002, 8.476205e+003
5.082302e+002, 8.484550e+003
5.087123e+002, 8.497646e+003
5.091945e+002, 8.514037e+003
5.096766e+002, 8.538815e+003
5.101587e+002, 8.561731e+003
5.106408e+002, 8.576441e+003
5.111229e+002, 8.586801e+003
5.116050e+002, 8.599839e+003
5.120872e+002, 8.618698e+003
5.125693e+002, 8.643251e+003
5.130514e+002, 8.675269e+003
5.135335e+002, 8.716317e+003
5.140156e+002, 8.753610e+003
5.144977e+002, 8.782400e+003
5.149799e+002, 8.808628e+003
5.154620e+002, 8.838113e+003
5.159441e+002, 8.870065e+003
5.164262e+002, 8.898893e+003
5.169083e+002, 8.916788e+003
5.173904e+002, 8.933507e+003
5.178726e+002, 8.962400e+003
5.183547e+002, 9.003018e+003
5.188368e+002, 9.047172e+003
5.193189e+002, 9.092123e+003
5.198010e+002, 9.137027e+003
5.202831e+002, 9.179363e+003
5.207653e+002, 9.220139e+003
5.212474e+002, 9.256763e+003
5.217295e+002, 9.284212e+003
5.222116e+002, 9.310339e+003
5.226937e+002, 9.342048e+003
5.231758e+002, 9.379237e+003
5.236580e+002, 9.417623e+003
5.241401e+002, 9.453522e+003
5.246222e+002, 9.488377e+003
5.251043e+002, 9.531275e+003
5.255864e+002, 9.594245e+003
5.260685e+002, 9.647408e+003
5.265507e+002, 9.686266e+003
5.270328e+002, 9.716511e+003
5.275149e+002, 9.740002e+003
5.279970e+002, 9.758630e+003
5.284791e+002, 9.777358e+003
5.289612e+002, 9.801697e+003
5.294434e+002, 9.830096e+003
5.299255e+002, 9.852544e+003
5.304076e+002, 9.866093e+003
5.308897e+002, 9.880464e+003
5.313718e+002, 9.902593e+003
5.318539e+002, 9.926381e+003
5.323361e+002, 9.945925e+003
5.328182e+002, 9.960202e+003
5.333003e+002, 9.971172e+003
5.337824e+002, 9.980788e+003
5.342645e+002, 9.987965e+003
5.347466e+002, 9.988285e+003
5.352288e+002, 9.980513e+003
5.357109e+002, 9.975569e+003
5.361930e+002, 9.984474e+003
5.366751e+002, 1.000351e+004
5.371572e+002, 1.000960e+004
5.376393e+002, 9.986331e+003
5.381215e+002, 9.971282e+003
5.386036e+002, 9.982663e+003
5.390857e+002, 1.000458e+004
5.395678e+002, 1.001826e+004
5.400499e+002, 1.001942e+004
5.405320e+002, 1.001332e+004
5.410142e+002, 1.000471e+004
5.414963e+002, 9.993438e+003
5.419784e+002, 9.983846e+003
5.424604e+002, 9.979629e+003
5.429426e+002, 9.972622e+003
5.434247e+002, 9.957846e+003
5.439068e+002, 9.941034e+003
5.443889e+002, 9.930253e+003
5.448710e+002, 9.927241e+003
5.453531e+002, 9.923663e+003
5.458353e+002, 9.907347e+003
5.463174e+002, 9.879923e+003
5.467995e+002, 9.862568e+003
5.472816e+002, 9.859594e+003
5.477637e+002, 9.859957e+003
5.482458e+002, 9.856870e+003
5.487280e+002, 9.852608e+003
5.492101e+002, 9.851771e+003
5.496922e+002, 9.858432e+003
5.501743e+002, 9.861562e+003
5.506564e+002, 9.851889e+003
5.511385e+002, 9.834154e+003
5.516207e+002, 9.817321e+003
5.521028e+002, 9.803226e+003
5.525849e+002, 9.792248e+003
5.530670e+002, 9.785693e+003
5.535491e+002, 9.783595e+003
5.540313e+002, 9.777235e+003
5.545134e+002, 9.759957e+003
5.549955e+002, 9.747113e+003
5.554776e+002, 9.749467e+003
5.559597e+002, 9.755607e+003
5.564418e+002, 9.749087e+003
5.569240e+002, 9.726837e+003
5.574061e+002, 9.702334e+003
5.578882e+002, 9.691846e+003
5.583703e+002, 9.696020e+003
5.588524e+002, 9.696143e+003
5.593345e+002, 9.687519e+003
5.598167e+002, 9.681459e+003
5.602988e+002, 9.685101e+003
5.607809e+002, 9.691511e+003
5.612630e+002, 9.690915e+003
5.617451e+002, 9.680150e+003
5.622272e+002, 9.669729e+003
5.627094e+002, 9.670710e+003
5.631915e+002, 9.679537e+003
5.636736e+002, 9.683572e+003
5.641557e+002, 9.680396e+003
5.646378e+002, 9.677511e+003
5.651199e+002, 9.681299e+003
5.656021e+002, 9.689857e+003
5.660842e+002, 9.694259e+003
5.665663e+002, 9.690249e+003
5.670484e+002, 9.688295e+003
5.675305e+002, 9.692127e+003
5.680126e+002, 9.700002e+003
5.684948e+002, 9.711685e+003
5.689769e+002, 9.726145e+003
5.694590e+002, 9.738228e+003
5.699411e+002, 9.742012e+003
5.704232e+002, 9.738339e+003
5.709053e+002, 9.742678e+003
5.713875e+002, 9.761418e+003
5.718696e+002, 9.780041e+003
5.723517e+002, 9.793670e+003
5.728338e+002, 9.807870e+003
5.733159e+002, 9.829059e+003
5.737980e+002, 9.857647e+003
5.742802e+002, 9.887015e+003
5.747623e+002, 9.911386e+003
5.752444e+002, 9.931751e+003
5.757265e+002, 9.951613e+003
5.762086e+002, 9.970291e+003
5.766907e+002, 9.991217e+003
5.771729e+002, 1.001601e+004
5.776550e+002, 1.004400e+004
5.781371e+002, 1.007292e+004
5.786192e+002, 1.010180e+004
5.791013e+002, 1.013588e+004
5.795834e+002, 1.018149e+004
5.800656e+002, 1.023075e+004
5.805477e+002, 1.027514e+004
5.810298e+002, 1.031412e+004
5.815119e+002, 1.035050e+004
5.819940e+002, 1.038511e+004
5.824761e+002, 1.042028e+004
5.829583e+002, 1.046437e+004
5.834404e+002, 1.052583e+004
5.839225e+002, 1.058380e+004
5.844046e+002, 1.063680e+004
5.848867e+002, 1.068750e+004
5.853688e+002, 1.073578e+004
5.858510e+002, 1.078321e+004
5.863331e+002, 1.083346e+004
5.868152e+002, 1.088895e+004
5.872973e+002, 1.094827e+004
5.877794e+002, 1.100725e+004
5.882615e+002, 1.106547e+004
5.887437e+002, 1.112720e+004
5.892258e+002, 1.119643e+004
5.897079e+002, 1.126669e+004
5.901900e+002, 1.132952e+004
5.906721e+002, 1.138660e+004
5.911542e+002, 1.144835e+004
5.916364e+002, 1.152111e+004
5.921185e+002, 1.159699e+004
5.926006e+002, 1.166889e+004
5.930827e+002, 1.173771e+004
5.935648e+002, 1.180591e+004
5.940469e+002, 1.187388e+004
5.945291e+002, 1.194486e+004
5.950112e+002, 1.202445e+004
5.954933e+002, 1.211561e+004
5.959754e+002, 1.220318e+004
5.964575e+002, 1.228714e+004
5.969396e+002, 1.236830e+004
5.974218e+002, 1.244141e+004
5.979039e+002, 1.251431e+004
5.983860e+002, 1.259816e+004
5.988681e+002, 1.269682e+004
5.993502e+002, 1.280435e+004
5.998323e+002, 1.291615e+004
6.003145e+002, 1.303235e+004
6.007966e+002, 1.314500e+004
6.012787e+002, 1.325022e+004
6.017608e+002, 1.335827e+004
6.022429e+002, 1.347576e+004
6.027250e+002, 1.359937e+004
6.032072e+002, 1.372259e+004
6.036893e+002, 1.384527e+004
6.041714e+002, 1.396700e+004
6.046535e+002, 1.408661e+004
6.051356e+002, 1.420630e+004
6.056177e+002, 1.432772e+004
6.060999e+002, 1.445127e+004
6.065820e+002, 1.458016e+004
6.070641e+002, 1.471687e+004
6.075462e+002, 1.485928e+004
6.080283e+002, 1.499921e+004
6.085104e+002, 1.513072e+004
6.089926e+002, 1.526793e+004
6.094747e+002, 1.541485e+004
6.099568e+002, 1.556469e+004
6.104389e+002, 1.571150e+004
6.109210e+002, 1.585663e+004
6.114031e+002, 1.600623e+004
6.118853e+002, 1.616509e+004
6.123674e+002, 1.632958e+004
6.128495e+002, 1.649285e+004
6.133316e+002, 1.665547e+004
6.138137e+002, 1.682130e+004
6.142958e+002, 1.699145e+004
6.147780e+002, 1.716618e+004
6.152601e+002, 1.735004e+004
6.157422e+002, 1.754141e+004
6.162243e+002, 1.772803e+004
6.167064e+002, 1.790075e+004
6.171885e+002, 1.807426e+004
6.176707e+002, 1.825668e+004
6.181528e+002, 1.844675e+004
6.186349e+002, 1.864347e+004
6.191170e+002, 1.884628e+004
6.195991e+002, 1.905168e+004
6.200812e+002, 1.925463e+004
6.205634e+002, 1.945530e+004
6.210455e+002, 1.966250e+004
6.215276e+002, 1.988128e+004
6.220097e+002, 2.010105e+004
6.224918e+002, 2.032237e+004
6.229739e+002, 2.054115e+004
6.234561e+002, 2.074686e+004
6.239382e+002, 2.093875e+004
6.244203e+002, 2.113873e+004
6.249023e+002, 2.137390e+004
6.253845e+002, 2.162846e+004
6.258666e+002, 2.185480e+004
6.263487e+002, 2.204995e+004
6.268308e+002, 2.224650e+004
6.273129e+002, 2.246155e+004
6.277950e+002, 2.268569e+004
6.282772e+002, 2.290356e+004
6.287593e+002, 2.311335e+004
6.292414e+002, 2.332386e+004
6.297235e+002, 2.353753e+004
6.302056e+002, 2.375198e+004
6.306877e+002, 2.396560e+004
6.311699e+002, 2.417956e+004
6.316520e+002, 2.440043e+004
6.321341e+002, 2.463028e+004
6.326162e+002, 2.485978e+004
6.330983e+002, 2.506966e+004
6.335804e+002, 2.525561e+004
6.340626e+002, 2.544979e+004
6.345447e+002, 2.566332e+004
6.350268e+002, 2.586969e+004
6.355089e+002, 2.604864e+004
6.359910e+002, 2.621644e+004
6.364731e+002, 2.640004e+004
6.369553e+002, 2.660809e+004
6.374374e+002, 2.681826e+004
6.379195e+002, 2.701619e+004
6.384016e+002, 2.720310e+004
6.388837e+002, 2.738205e+004
6.393658e+002, 2.755284e+004
6.398480e+002, 2.772187e+004
6.403301e+002, 2.789400e+004
6.408122e+002, 2.806616e+004
6.412943e+002, 2.822982e+004
6.417764e+002, 2.837771e+004
6.422585e+002, 2.852615e+004
6.427407e+002, 2.867129e+004
6.432228e+002, 2.881978e+004
6.437049e+002, 2.898371e+004
6.441870e+002, 2.915471e+004
6.446691e+002, 2.931213e+004
6.451512e+002, 2.944303e+004
6.456334e+002, 2.956214e+004
6.461155e+002, 2.969534e+004
6.465976e+002, 2.984253e+004
6.470797e+002, 2.997755e+004
6.475618e+002, 3.009304e+004
6.480439e+002, 3.020271e+004
6.485261e+002, 3.031819e+004
6.490082e+002, 3.043619e+004
6.494903e+002, 3.054284e+004
6.499724e+002, 3.063730e+004
6.504545e+002, 3.072007e+004
6.509366e+002, 3.078340e+004
6.514188e+002, 3.083902e+004
6.519009e+002, 3.090368e+004
6.523830e+002, 3.097675e+004
6.528651e+002, 3.104074e+004
6.533472e+002, 3.108089e+004
6.538293e+002, 3.110543e+004
6.543115e+002, 3.114704e+004
6.547936e+002, 3.121421e+004
6.552757e+002, 3.127711e+004
6.557578e+002, 3.133822e+004
6.562399e+002, 3.138772e+004
6.567220e+002, 3.141568e+004
6.572042e+002, 3.142676e+004
6.576863e+002, 3.143553e+004
6.581684e+002, 3.144935e+004
6.586505e+002, 3.145994e+004
6.591326e+002, 3.145907e+004
6.596147e+002, 3.144878e+004
6.600969e+002, 3.143476e+004
6.605790e+002, 3.141834e+004
6.610611e+002, 3.139719e+004
6.615432e+002, 3.136883e+004
6.620253e+002, 3.133375e+004
6.625074e+002, 3.129736e+004
6.629896e+002, 3.126574e+004
6.634717e+002, 3.122484e+004
6.639538e+002, 3.116585e+004
6.644359e+002, 3.110298e+004
6.649180e+002, 3.104844e+004
6.654001e+002, 3.100118e+004
6.658823e+002, 3.095284e+004
6.663644e+002, 3.090008e+004
6.668465e+002, 3.083965e+004
6.673286e+002, 3.076335e+004
6.678107e+002, 3.067149e+004
6.682928e+002, 3.057359e+004
6.687750e+002, 3.046912e+004
6.692571e+002, 3.036691e+004
6.697392e+002, 3.028459e+004
6.702213e+002, 3.021656e+004
6.707034e+002, 3.011671e+004
6.711855e+002, 2.995421e+004
6.716677e+002, 2.979655e+004
6.721498e+002, 2.967360e+004
6.726319e+002, 2.956222e+004
6.731140e+002, 2.943722e+004
6.735961e+002, 2.929573e+004
6.740782e+002, 2.914876e+004
6.745604e+002, 2.900479e+004
6.750425e+002, 2.885975e+004
6.755246e+002, 2.869721e+004
6.760067e+002, 2.851244e+004
6.764888e+002, 2.833184e+004
6.769709e+002, 2.816076e+004
6.774531e+002, 2.799418e+004
6.779352e+002, 2.783513e+004
6.784173e+002, 2.767854e+004
6.788994e+002, 2.750609e+004
6.793815e+002, 2.731218e+004
6.798636e+002, 2.710359e+004
6.803458e+002, 2.687012e+004
6.808279e+002, 2.663029e+004
6.813100e+002, 2.641526e+004
6.817921e+002, 2.622888e+004
6.822742e+002, 2.604644e+004
6.827563e+002, 2.584843e+004
6.832385e+002, 2.563669e+004
6.837206e+002, 2.541740e+004
6.842027e+002, 2.518464e+004
6.846848e+002, 2.495786e+004
6.851669e+002, 2.474542e+004
6.856490e+002, 2.453580e+004
6.861312e+002, 2.432513e+004
6.866133e+002, 2.411220e+004
6.870954e+002, 2.389287e+004
6.875775e+002, 2.366518e+004
6.880596e+002, 2.343268e+004
6.885417e+002, 2.319450e+004
6.890239e+002, 2.295545e+004
6.895060e+002, 2.273088e+004
6.899881e+002, 2.252196e+004
6.904702e+002, 2.231469e+004
6.909523e+002, 2.209631e+004
6.914344e+002, 2.186979e+004
6.919166e+002, 2.164552e+004
6.923987e+002, 2.142738e+004
6.928808e+002, 2.120490e+004
6.933629e+002, 2.096831e+004
6.938450e+002, 2.073727e+004
6.943271e+002, 2.052903e+004
6.948093e+002, 2.033488e+004
6.952914e+002, 2.013184e+004
6.957735e+002, 1.990701e+004
6.962556e+002, 1.967820e+004
6.967377e+002, 1.946133e+004
6.972198e+002, 1.925641e+004
6.977020e+002, 1.906254e+004
6.981841e+002, 1.888157e+004
6.986662e+002, 1.870098e+004
6.991483e+002, 1.851308e+004
6.996304e+002, 1.831831e+004
7.001125e+002, 1.812084e+004
7.005947e+002, 1.791098e+004
7.010768e+002, 1.771510e+004
7.015589e+002, 1.753928e+004
7.020410e+002, 1.737245e+004
7.025231e+002, 1.721215e+004
7.030052e+002, 1.705522e+004
7.034874e+002, 1.689428e+004
7.039695e+002, 1.672684e+004
7.044516e+002, 1.655894e+004
7.049337e+002, 1.639903e+004
7.054158e+002, 1.624710e+004
7.058979e+002, 1.610205e+004
7.063801e+002, 1.596468e+004
7.068622e+002, 1.583092e+004
7.073442e+002, 1.569993e+004
7.078264e+002, 1.556882e+004
7.083085e+002, 1.542830e+004
7.087906e+002, 1.527014e+004
7.092727e+002, 1.512349e+004
7.097548e+002, 1.499501e+004
7.102369e+002, 1.487266e+004
7.107191e+002, 1.475492e+004
7.112012e+002, 1.463695e+004
7.116833e+002, 1.450975e+004
7.121654e+002, 1.436965e+004
7.126475e+002, 1.423100e+004
7.131296e+002, 1.411082e+004
7.136118e+002, 1.400652e+004
7.140939e+002, 1.390174e+004
7.145760e+002, 1.379709e+004
7.150581e+002, 1.368814e+004
7.155402e+002, 1.356819e+004
7.160223e+002, 1.344931e+004
7.165045e+002, 1.335554e+004
7.169866e+002, 1.329296e+004
7.174687e+002, 1.321801e+004
7.179508e+002, 1.312074e+004
7.184329e+002, 1.301734e+004
7.189150e+002, 1.291075e+004
7.193972e+002, 1.280535e+004
7.198793e+002, 1.270625e+004
7.203614e+002, 1.261476e+004
7.208435e+002, 1.252716e+004
7.213256e+002, 1.244002e+004
7.218077e+002, 1.235356e+004
7.222899e+002, 1.226986e+004
7.227720e+002, 1.218846e+004
7.232541e+002, 1.210927e+004
7.237362e+002, 1.203346e+004
7.242183e+002, 1.195840e+004
7.247004e+002, 1.188067e+004
7.251826e+002, 1.179983e+004
7.256647e+002, 1.172429e+004
7.261468e+002, 1.165835e+004
7.266289e+002, 1.159278e+004
7.271110e+002, 1.152000e+004
7.275931e+002, 1.144827e+004
7.280753e+002, 1.139125e+004
7.285574e+002, 1.134763e+004
7.290395e+002, 1.130159e+004
7.295216e+002, 1.124049e+004
7.300037e+002, 1.117142e+004
7.304858e+002, 1.111039e+004
7.309680e+002, 1.105780e+004
7.314501e+002, 1.100510e+004
7.319322e+002, 1.095011e+004
7.324143e+002, 1.089598e+004
7.328964e+002, 1.084680e+004
7.333785e+002, 1.080083e+004
7.338607e+002, 1.074875e+004
7.343428e+002, 1.067961e+004
7.348249e+002, 1.062166e+004
7.353070e+002, 1.058755e+004
7.357891e+002, 1.056100e+004
7.362712e+002, 1.053071e+004
7.367534e+002, 1.049563e+004
7.372355e+002, 1.045716e+004
7.377176e+002, 1.041534e+004
7.381997e+002, 1.037316e+004
7.386818e+002, 1.033389e+004
7.391639e+002, 1.029778e+004
7.396461e+002, 1.026769e+004
7.401282e+002, 1.024554e+004
7.406103e+002, 1.022212e+004
7.410924e+002, 1.019109e+004
7.415745e+002, 1.015663e+004
7.420566e+002, 1.012828e+004
7.425388e+002, 1.010747e+004
7.430209e+002, 1.008723e+004
7.435030e+002, 1.006932e+004
7.439851e+002, 1.004950e+004
7.444672e+002, 1.002099e+004
7.449493e+002, 9.990835e+003
7.454315e+002, 9.971749e+003
7.459136e+002, 9.966455e+003
7.463957e+002, 9.962475e+003
7.468778e+002, 9.946768e+003
7.473599e+002, 9.923209e+003
7.478420e+002, 9.904038e+003
7.483242e+002, 9.889334e+003
7.488063e+002, 9.873939e+003
7.492884e+002, 9.855728e+003
7.497705e+002, 9.836993e+003
7.502526e+002, 9.819116e+003
7.507347e+002, 9.801901e+003
7.512169e+002, 9.792387e+003
7.516990e+002, 9.800983e+003
7.521811e+002, 9.803136e+003
7.526632e+002, 9.787649e+003
7.531453e+002, 9.767645e+003
7.536274e+002, 9.752975e+003
7.541096e+002, 9.745412e+003
7.545917e+002, 9.745088e+003
7.550738e+002, 9.755363e+003
7.555559e+002, 9.765967e+003
7.560380e+002, 9.757750e+003
7.565201e+002, 9.736393e+003
7.570023e+002, 9.729489e+003
7.574844e+002, 9.742439e+003
7.579665e+002, 9.754171e+003
7.584486e+002, 9.747853e+003
7.589307e+002, 9.730947e+003
7.594128e+002, 9.729020e+003
7.598950e+002, 9.755363e+003
7.603771e+002, 9.772589e+003
7.608592e+002, 9.775994e+003
7.613413e+002, 9.775747e+003
7.618234e+002, 9.773999e+003
7.623055e+002, 9.772691e+003
7.627877e+002, 9.775246e+003
7.632698e+002, 9.782813e+003
7.637519e+002, 9.788972e+003
7.642340e+002, 9.786278e+003
7.647161e+002, 9.780577e+003
7.651982e+002, 9.780979e+003
7.656804e+002, 9.787266e+003
7.661625e+002, 9.797568e+003
7.666446e+002, 9.811728e+003
7.671267e+002, 9.822580e+003
7.676088e+002, 9.819169e+003
7.680909e+002, 9.800537e+003
7.685731e+002, 9.791926e+003
7.690552e+002, 9.802166e+003
7.695373e+002, 9.807916e+003
7.700194e+002, 9.797343e+003
7.705015e+002, 9.785814e+003
7.709836e+002, 9.788310e+003
7.714658e+002, 9.801990e+003
7.719479e+002, 9.809354e+003
7.724300e+002, 9.800481e+003
7.729121e+002, 9.788678e+003
7.733942e+002, 9.779292e+003
7.738763e+002, 9.774729e+003
7.743585e+002, 9.782783e+003
7.748406e+002, 9.801569e+003
7.753227e+002, 9.816165e+003
7.758048e+002, 9.816507e+003
7.762869e+002, 9.807854e+003
7.767690e+002, 9.802473e+003
7.772512e+002, 9.801044e+003
7.777333e+002, 9.799104e+003
7.782154e+002, 9.798290e+003
7.786975e+002, 9.793436e+003
7.791796e+002, 9.778453e+003
7.796617e+002, 9.759017e+003
7.801439e+002, 9.744876e+003
7.806260e+002, 9.737075e+003
7.811081e+002, 9.729938e+003
7.815902e+002, 9.723806e+003
7.820723e+002, 9.716072e+003
7.825544e+002, 9.704537e+003
7.830366e+002, 9.690277e+003
7.835187e+002, 9.674610e+003
7.840008e+002, 9.658183e+003
7.844829e+002, 9.642489e+003
7.849650e+002, 9.629745e+003
7.854471e+002, 9.618245e+003
7.859293e+002, 9.602868e+003
7.864114e+002, 9.583620e+003
7.868935e+002, 9.563169e+003
7.873756e+002, 9.541843e+003
7.878577e+002, 9.520423e+003
7.883398e+002, 9.498811e+003
7.888220e+002, 9.477626e+003
7.893040e+002, 9.462700e+003
7.897861e+002, 9.468186e+003
7.902682e+002, 9.459342e+003
7.907504e+002, 9.427614e+003
7.912325e+002, 9.386400e+003
7.917146e+002, 9.338501e+003
7.921967e+002, 9.289089e+003
7.926788e+002, 9.246449e+003
7.931609e+002, 9.214106e+003
7.936431e+002, 9.185317e+003
7.941252e+002, 9.156870e+003
7.946073e+002, 9.126771e+003
7.950894e+002, 9.091436e+003
7.955715e+002, 9.050709e+003
7.960536e+002, 9.005793e+003
7.965358e+002, 8.956591e+003
7.970179e+002, 8.907481e+003
7.975000e+002, 8.865065e+003
7.979821e+002, 8.829480e+003
7.984642e+002, 8.791232e+003
7.989464e+002, 8.749650e+003
7.994285e+002, 8.706345e+003
7.999106e+002, 8.662475e+003
8.003927e+002, 8.616465e+003
8.008748e+002, 8.565598e+003
8.013569e+002, 8.511253e+003
8.018391e+002, 8.460939e+003
8.023212e+002, 8.420135e+003
8.028033e+002, 8.378775e+003
8.032854e+002, 8.330755e+003
8.037675e+002, 8.280436e+003
8.042496e+002, 8.232707e+003
8.047318e+002, 8.187968e+003
8.052139e+002, 8.144805e+003
8.056960e+002, 8.103016e+003
8.061781e+002, 8.059663e+003
8.066602e+002, 8.008013e+003
8.071423e+002, 7.949015e+003
8.076245e+002, 7.898817e+003
8.081066e+002, 7.859950e+003
8.085887e+002, 7.819134e+003
8.090708e+002, 7.770640e+003
8.095529e+002, 7.717206e+003
8.100350e+002, 7.661698e+003
8.105172e+002, 7.602937e+003
8.109993e+002, 7.550578e+003
8.114814e+002, 7.510905e+003
8.119635e+002, 7.469812e+003
8.124456e+002, 7.422883e+003
8.129277e+002, 7.373407e+003
8.134099e+002, 7.324275e+003
8.138920e+002, 7.276122e+003
8.143741e+002, 7.228833e+003
8.148562e+002, 7.181198e+003
8.153383e+002, 7.137044e+003
8.158204e+002, 7.105762e+003
8.163026e+002, 7.080153e+003
8.167847e+002, 7.042278e+003
8.172668e+002, 6.991352e+003
8.177489e+002, 6.940549e+003
8.182310e+002, 6.897219e+003
8.187131e+002, 6.859269e+003
8.191953e+002, 6.824062e+003
8.196774e+002, 6.793205e+003
8.201595e+002, 6.753417e+003
8.206416e+002, 6.697718e+003
8.211237e+002, 6.645536e+003
8.216058e+002, 6.605339e+003
8.220880e+002, 6.571565e+003
8.225701e+002, 6.540606e+003
8.230522e+002, 6.512026e+003
8.235343e+002, 6.478233e+003
8.240164e+002, 6.433064e+003
8.244985e+002, 6.388200e+003
8.249807e+002, 6.343696e+003
8.254628e+002, 6.305238e+003
8.259449e+002, 6.284588e+003
8.264270e+002, 6.277142e+003
8.269091e+002, 6.263380e+003
8.273912e+002, 6.231460e+003
8.278734e+002, 6.192391e+003
8.283555e+002, 6.161187e+003
8.288376e+002, 6.136221e+003
8.293197e+002, 6.111144e+003
8.298018e+002, 6.085546e+003
8.302839e+002, 6.058093e+003
8.307661e+002, 6.027431e+003
8.312482e+002, 5.997005e+003
8.317303e+002, 5.972720e+003
8.322124e+002, 5.955897e+003
8.326945e+002, 5.936347e+003
8.331766e+002, 5.910938e+003
8.336588e+002, 5.887500e+003
8.341409e+002, 5.867491e+003
8.346230e+002, 5.850375e+003
8.351051e+002, 5.838100e+003
8.355872e+002, 5.828839e+003
8.360693e+002, 5.814005e+003
8.365515e+002, 5.786802e+003
8.370336e+002, 5.760289e+003
8.375157e+002, 5.741317e+003
8.379978e+002, 5.726944e+003
8.384799e+002, 5.713990e+003
8.389620e+002, 5.702320e+003
8.394442e+002, 5.693666e+003
8.399263e+002, 5.688894e+003
8.404084e+002, 5.684639e+003
8.408905e+002, 5.676100e+003
8.413726e+002, 5.663988e+003
8.418547e+002, 5.651247e+003
8.423369e+002, 5.637662e+003
8.428190e+002, 5.629871e+003
8.433011e+002, 5.632136e+003
8.437832e+002, 5.635910e+003
8.442653e+002, 5.630560e+003
8.447474e+002, 5.616376e+003
8.452296e+002, 5.607024e+003
8.457117e+002, 5.605407e+003
8.461938e+002, 5.604487e+003
8.466759e+002, 5.602833e+003
8.471580e+002, 5.602384e+003
8.476401e+002, 5.605098e+003
8.481223e+002, 5.609814e+003
8.486044e+002, 5.613610e+003
8.490865e+002, 5.615246e+003
8.495686e+002, 5.618195e+003
8.500507e+002, 5.625862e+003
8.505328e+002, 5.634585e+003
8.510150e+002, 5.640517e+003
8.514971e+002, 5.644493e+003
8.519792e+002, 5.649597e+003
8.524613e+002, 5.656451e+003
8.529434e+002, 5.661490e+003
8.534255e+002, 5.659708e+003
8.539077e+002, 5.654657e+003
8.543898e+002, 5.657526e+003
8.548719e+002, 5.668305e+003
8.553540e+002, 5.683057e+003
8.558361e+002, 5.701516e+003
8.563182e+002, 5.721628e+003
8.568004e+002, 5.742911e+003
8.572825e+002, 5.763729e+003
8.577646e+002, 5.778969e+003
8.582467e+002, 5.787277e+003
8.587288e+002, 5.792641e+003
8.592109e+002, 5.786122e+003
8.596931e+002, 5.787112e+003
8.601752e+002, 5.808515e+003
8.606573e+002, 5.837760e+003
8.611394e+002, 5.859233e+003
8.616215e+002, 5.871524e+003
8.621036e+002, 5.884935e+003
8.625858e+002, 5.906397e+003
8.630679e+002, 5.927626e+003
8.635500e+002, 5.943657e+003
8.640321e+002, 5.955569e+003
8.645142e+002, 5.961356e+003
8.649963e+002, 5.963845e+003
8.654785e+002, 5.974380e+003
8.659606e+002, 6.000475e+003
8.664427e+002, 6.030459e+003
8.669248e+002, 6.044107e+003
8.674069e+002, 6.044990e+003
8.678890e+002, 6.053512e+003
8.683712e+002, 6.071083e+003
8.688533e+002, 6.086343e+003
8.693354e+002, 6.094005e+003
8.698175e+002, 6.099651e+003
8.702996e+002, 6.111347e+003
8.707817e+002, 6.129210e+003
8.712639e+002, 6.140159e+003
8.717459e+002, 6.137759e+003
8.722280e+002, 6.139749e+003
8.727101e+002, 6.152338e+003
8.731923e+002, 6.167068e+003
8.736744e+002, 6.180214e+003
8.741565e+002, 6.191433e+003
8.746386e+002, 6.200420e+003
8.751207e+002, 6.206823e+003
8.756028e+002, 6.211718e+003
8.760850e+002, 6.215432e+003
8.765671e+002, 6.217780e+003
8.770492e+002, 6.218405e+003
8.775313e+002, 6.217632e+003
8.780134e+002, 6.215217e+003
8.784955e+002, 6.211576e+003
8.789777e+002, 6.209477e+003
8.794598e+002, 6.212486e+003
8.799419e+002, 6.216618e+003
8.804240e+002, 6.214812e+003
8.809061e+002, 6.208423e+003
8.813882e+002, 6.202530e+003
8.818704e+002, 6.197894e+003
8.823525e+002, 6.191826e+003
8.828346e+002, 6.182086e+003
8.833167e+002, 6.172346e+003
8.837988e+002, 6.171975e+003
8.842809e+002, 6.183422e+003
8.847631e+002, 6.185634e+003
8.852452e+002, 6.176745e+003
8.857273e+002, 6.162943e+003
8.862094e+002, 6.144894e+003
8.866915e+002, 6.124299e+003
8.871736e+002, 6.101497e+003
8.876558e+002, 6.076874e+003
8.881379e+002, 6.055646e+003
8.886200e+002, 6.042637e+003
8.891021e+002, 6.026435e+003
8.895842e+002, 6.000669e+003
8.900663e+002, 5.975140e+003
8.905485e+002, 5.960466e+003
8.910306e+002, 5.950135e+003
8.915127e+002, 5.929830e+003
8.919948e+002, 5.895123e+003
8.924769e+002, 5.859549e+003
8.929590e+002, 5.832370e+003
8.934412e+002, 5.808056e+003
8.939233e+002, 5.780354e+003
8.944054e+002, 5.751117e+003
8.948875e+002, 5.726354e+003
8.953696e+002, 5.706352e+003
8.958517e+002, 5.683107e+003
8.963339e+002, 5.649883e+003
8.968160e+002, 5.613141e+003
8.972981e+002, 5.586902e+003
8.977802e+002, 5.570147e+003
8.982623e+002, 5.553016e+003
8.987444e+002, 5.535125e+003
8.992266e+002, 5.510242e+003
8.997087e+002, 5.474035e+003
9.001908e+002, 5.432650e+003
9.006729e+002, 5.394774e+003
9.011550e+002, 5.360470e+003
9.016371e+002, 5.327928e+003
9.021193e+002, 5.296820e+003
9.026014e+002, 5.267831e+003
9.030835e+002, 5.243051e+003
9.035656e+002, 5.218464e+003
9.040477e+002, 5.191261e+003
9.045298e+002, 5.162244e+003
9.050120e+002, 5.134271e+003
9.054941e+002, 5.109440e+003
9.059762e+002, 5.080864e+003
9.064583e+002, 5.044912e+003
9.069404e+002, 5.007031e+003
9.074225e+002, 4.970516e+003
9.079047e+002, 4.934521e+003
9.083868e+002, 4.895702e+003
9.088689e+002, 4.854895e+003
9.093510e+002, 4.818769e+003
9.098331e+002, 4.792315e+003
9.103152e+002, 4.770883e+003
9.107974e+002, 4.751915e+003
9.112795e+002, 4.733502e+003
9.117616e+002, 4.713100e+003
9.122437e+002, 4.689939e+003
9.127258e+002, 4.661639e+003
9.132079e+002, 4.627058e+003
9.136901e+002, 4.590500e+003
9.141722e+002, 4.556499e+003
9.146543e+002, 4.525494e+003
9.151364e+002, 4.500857e+003
9.156185e+002, 4.482896e+003
9.161006e+002, 4.459327e+003
9.165828e+002, 4.425300e+003
9.170649e+002, 4.392603e+003
9.175470e+002, 4.372338e+003
9.180291e+002, 4.359635e+003
9.185112e+002, 4.335751e+003
9.189933e+002, 4.293046e+003
9.194755e+002, 4.258575e+003
9.199576e+002, 4.240460e+003
9.204397e+002, 4.219083e+003
9.209218e+002, 4.180760e+003
9.214039e+002, 4.139221e+003
9.218860e+002, 4.111431e+003
9.223682e+002, 4.096909e+003
9.228503e+002, 4.078040e+003
9.233324e+002, 4.049922e+003
9.238145e+002, 4.020567e+003
9.242966e+002, 3.988230e+003
9.247787e+002, 3.959089e+003
9.252609e+002, 3.940931e+003
9.257430e+002, 3.929114e+003
9.262251e+002, 3.913629e+003
9.267072e+002, 3.891464e+003
9.271893e+002, 3.868114e+003
9.276714e+002, 3.846865e+003
9.281536e+002, 3.826609e+003
9.286357e+002, 3.807172e+003
9.291178e+002, 3.787314e+003
9.295999e+002, 3.763787e+003
9.300820e+002, 3.736760e+003
9.305641e+002, 3.710353e+003
9.310463e+002, 3.687118e+003
9.315284e+002, 3.666303e+003
9.320105e+002, 3.648036e+003
9.324926e+002, 3.631391e+003
9.329747e+002, 3.612070e+003
9.334568e+002, 3.590066e+003
9.339390e+002, 3.568079e+003
9.344211e+002, 3.547156e+003
9.349032e+002, 3.528049e+003
9.353853e+002, 3.512058e+003
9.358674e+002, 3.498381e+003
9.363495e+002, 3.482083e+003
9.368317e+002, 3.462550e+003
9.373138e+002, 3.442727e+003
9.377959e+002, 3.421888e+003
9.382780e+002, 3.403103e+003
9.387601e+002, 3.388966e+003
9.392422e+002, 3.376923e+003
9.397244e+002, 3.362410e+003
9.402065e+002, 3.345164e+003
9.406886e+002, 3.326974e+003
9.411707e+002, 3.305796e+003
9.416528e+002, 3.286361e+003
9.421349e+002, 3.269915e+003
9.426171e+002, 3.255148e+003
9.430992e+002, 3.242239e+003
9.435813e+002, 3.230062e+003
9.440634e+002, 3.215746e+003
9.445455e+002, 3.197689e+003
9.450276e+002, 3.181505e+003
9.455098e+002, 3.171086e+003
9.459919e+002, 3.161111e+003
9.464740e+002, 3.147599e+003
9.469561e+002, 3.132773e+003
9.474382e+002, 3.120688e+003
9.479203e+002, 3.111089e+003
9.484025e+002, 3.099048e+003
9.488846e+002, 3.080685e+003
9.493667e+002, 3.062247e+003
9.498488e+002, 3.049814e+003
9.503309e+002, 3.040996e+003
9.508130e+002, 3.033177e+003
9.512952e+002, 3.025384e+003
9.517773e+002, 3.014972e+003
9.522594e+002, 3.001364e+003
9.527415e+002, 2.988788e+003
9.532236e+002, 2.982004e+003
9.537057e+002, 2.978138e+003
9.541878e+002, 2.969732e+003
9.546699e+002, 2.957539e+003
9.551520e+002, 2.946949e+003
9.556342e+002, 2.938661e+003
9.561163e+002, 2.928891e+003
9.565984e+002, 2.915148e+003
9.570805e+002, 2.901231e+003
9.575626e+002, 2.894183e+003
9.580447e+002, 2.893750e+003
9.585269e+002, 2.886932e+003
9.590090e+002, 2.871947e+003
9.594911e+002, 2.857706e+003
9.599732e+002, 2.844845e+003
9.604553e+002, 2.836582e+003
9.609374e+002, 2.838446e+003
9.614196e+002, 2.844923e+003
9.619017e+002, 2.839722e+003
9.623838e+002, 2.817137e+003
9.628659e+002, 2.800404e+003
9.633480e+002, 2.792403e+003
9.638301e+002, 2.786444e+003
9.643123e+002, 2.779626e+003
9.647944e+002, 2.774918e+003
9.652765e+002, 2.777361e+003
9.657586e+002, 2.784638e+003
9.662407e+002, 2.786331e+003
9.667228e+002, 2.780763e+003
9.672050e+002, 2.770372e+003
9.676871e+002, 2.748457e+003
9.681692e+002, 2.729645e+003
9.686513e+002, 2.724232e+003
9.691334e+002, 2.726007e+003
9.696155e+002, 2.728434e+003
9.700977e+002, 2.729607e+003
9.705798e+002, 2.726156e+003
9.710619e+002, 2.714344e+003
9.715440e+002, 2.701262e+003
9.720261e+002, 2.689256e+003
9.725082e+002, 2.679922e+003
9.729904e+002, 2.677115e+003
9.734725e+002, 2.678000e+003
9.739546e+002, 2.675997e+003
9.744367e+002, 2.669305e+003
9.749188e+002, 2.661754e+003
9.754009e+002, 2.655250e+003
9.758831e+002, 2.650779e+003
9.763652e+002, 2.651839e+003
9.768473e+002, 2.655207e+003
9.773294e+002, 2.652822e+003
9.778115e+002, 2.645054e+003
9.782936e+002, 2.639086e+003
9.787758e+002, 2.638294e+003
9.792579e+002, 2.639579e+003
9.797400e+002, 2.638594e+003
9.802221e+002, 2.636749e+003
9.807042e+002, 2.640986e+003
9.811863e+002, 2.649896e+003
9.816685e+002, 2.650728e+003
9.821506e+002, 2.640998e+003
9.826327e+002, 2.629886e+003
9.831148e+002, 2.623215e+003
9.835969e+002, 2.619589e+003
9.840790e+002, 2.616914e+003
9.845612e+002, 2.615230e+003
9.850433e+002, 2.610905e+003
9.855254e+002, 2.603250e+003
9.860075e+002, 2.597104e+003
9.864896e+002, 2.593900e+003
9.869717e+002, 2.591872e+003
9.874539e+002, 2.589652e+003
9.879360e+002, 2.587430e+003
9.884181e+002, 2.585806e+003
9.889002e+002, 2.584749e+003
9.893823e+002, 2.584679e+003
9.898644e+002, 2.588044e+003
9.903466e+002, 2.587395e+003
9.908287e+002, 2.577140e+003
9.913108e+002, 2.565502e+003
9.917929e+002, 2.559951e+003
9.922750e+002, 2.559902e+003
9.927571e+002, 2.562057e+003
9.932393e+002, 2.569051e+003
9.937214e+002, 2.573539e+003
9.942035e+002, 2.573632e+003
9.946856e+002, 2.573402e+003
9.951677e+002, 2.576256e+003
9.956498e+002, 2.578304e+003
9.961320e+002, 2.573117e+003
9.966141e+002, 2.562087e+003
9.970962e+002, 2.556814e+003
9.975783e+002, 2.563094e+003
9.980604e+002, 2.569227e+003
9.985425e+002, 2.573621e+003
9.990247e+002, 2.575543e+003
9.995068e+002, 2.573212e+003
9.999889e+002, 2.568728e+003
1.000471e+003, 2.564587e+003
1.000953e+003, 2.561284e+003
1.001435e+003, 2.558965e+003
1.001917e+003, 2.558058e+003
1.002399e+003, 2.557598e+003
1.002882e+003, 2.556691e+003
1.003364e+003, 2.556313e+003
1.003846e+003, 2.557441e+003
1.004328e+003, 2.559813e+003
1.004810e+003, 2.564434e+003
1.005292e+003, 2.570723e+003
1.005774e+003, 2.571709e+003
1.006256e+003, 2.557797e+003
1.006739e+003, 2.543787e+003
1.007221e+003, 2.546496e+003
1.007703e+003, 2.556031e+003
1.008185e+003, 2.558219e+003
1.008667e+003, 2.554163e+003
1.009149e+003, 2.551884e+003
1.009631e+003, 2.554060e+003
1.010113e+003, 2.556290e+003
1.010595e+003, 2.553957e+003
1.011078e+003, 2.550259e+003
1.011560e+003, 2.550914e+003
1.012042e+003, 2.553721e+003
1.012524e+003, 2.552220e+003
1.013006e+003, 2.547140e+003
1.013488e+003, 2.545564e+003
1.013970e+003, 2.550561e+003
1.014452e+003, 2.558803e+003
1.014935e+003, 2.567723e+003
1.015417e+003, 2.576195e+003
1.015899e+003, 2.582015e+003
1.016381e+003, 2.584923e+003
1.016863e+003, 2.582094e+003
1.017345e+003, 2.573797e+003
1.017827e+003, 2.566808e+003
1.018309e+003, 2.564574e+003
1.018791e+003, 2.566218e+003
1.019274e+003, 2.571521e+003
1.019756e+003, 2.579387e+003
1.020238e+003, 2.584838e+003
1.020720e+003, 2.587858e+003
1.021202e+003, 2.587563e+003
1.021684e+003, 2.583613e+003
1.022166e+003, 2.579553e+003
1.022648e+003, 2.577083e+003
1.023130e+003, 2.577386e+003
1.023613e+003, 2.583338e+003
1.024095e+003, 2.594368e+003
1.024577e+003, 2.600435e+003
1.025059e+003, 2.600961e+003
1.025541e+003, 2.600974e+003
1.026023e+003, 2.601375e+003
1.026505e+003, 2.600792e+003
1.026987e+003, 2.597188e+003
1.027469e+003, 2.594751e+003
1.027952e+003, 2.602324e+003
1.028434e+003, 2.620615e+003
1.028916e+003, 2.632483e+003
1.029398e+003, 2.637163e+003
1.029880e+003, 2.637658e+003
1.030362e+003, 2.632531e+003
1.030844e+003, 2.628185e+003
1.031326e+003, 2.629411e+003
1.031809e+003, 2.633532e+003
1.032291e+003, 2.635098e+003
1.032773e+003, 2.633823e+003
1.033255e+003, 2.632321e+003
1.033737e+003, 2.628349e+003
1.034219e+003, 2.629604e+003
1.034701e+003, 2.641826e+003
1.035183e+003, 2.653056e+003
1.035666e+003, 2.654157e+003
1.036148e+003, 2.649586e+003
1.036630e+003, 2.648601e+003
1.037112e+003, 2.651815e+003
1.037594e+003, 2.655126e+003
1.038076e+003, 2.659177e+003
1.038558e+003, 2.662142e+003
1.039040e+003, 2.661623e+003
1.039522e+003, 2.662117e+003
1.040005e+003, 2.667306e+003
1.040487e+003, 2.675278e+003
1.040969e+003, 2.681983e+003
1.041451e+003, 2.687161e+003
1.041933e+003, 2.692509e+003
1.042415e+003, 2.700981e+003
1.042897e+003, 2.705568e+003
1.043379e+003, 2.701188e+003
1.043861e+003, 2.696362e+003
1.044344e+003, 2.695856e+003
1.044826e+003, 2.699082e+003
1.045308e+003, 2.705711e+003
1.045790e+003, 2.716737e+003
1.046272e+003, 2.723884e+003
1.046754e+003, 2.723057e+003
1.047236e+003, 2.722766e+003
1.047718e+003, 2.725056e+003
1.048201e+003, 2.728590e+003
1.048683e+003, 2.732312e+003
1.049165e+003, 2.736621e+003
1.049647e+003, 2.743032e+003
1.050129e+003, 2.752017e+003
1.050611e+003, 2.758740e+003
1.051093e+003, 2.761578e+003
1.051575e+003, 2.762866e+003
1.052057e+003, 2.760082e+003
1.052540e+003, 2.759027e+003
1.053022e+003, 2.764921e+003
1.053504e+003, 2.775123e+003
1.053986e+003, 2.785253e+003
1.054468e+003, 2.794766e+003
1.054950e+003, 2.801699e+003
1.055432e+003, 2.803737e+003
1.055914e+003, 2.805559e+003
1.056396e+003, 2.806742e+003
1.056879e+003, 2.810265e+003
1.057361e+003, 2.821397e+003
1.057843e+003, 2.835150e+003
1.058325e+003, 2.842116e+003
1.058807e+003, 2.841032e+003
1.059289e+003, 2.841446e+003
1.059771e+003, 2.848899e+003
1.060253e+003, 2.855122e+003
1.060736e+003, 2.855937e+003
1.061218e+003, 2.855399e+003
1.061700e+003, 2.855387e+003
1.062182e+003, 2.856782e+003
1.062664e+003, 2.861520e+003
1.063146e+003, 2.869467e+003
1.063628e+003, 2.875421e+003
1.064110e+003, 2.874675e+003
1.064593e+003, 2.875647e+003
1.065075e+003, 2.883098e+003
1.065557e+003, 2.892297e+003
1.066039e+003, 2.901256e+003
1.066521e+003, 2.908696e+003
1.067003e+003, 2.911557e+003
1.067485e+003, 2.910397e+003
1.067967e+003, 2.912822e+003
1.068449e+003, 2.923852e+003
1.068932e+003, 2.935136e+003
1.069414e+003, 2.944008e+003
1.069896e+003, 2.950640e+003
1.070378e+003, 2.954130e+003
1.070860e+003, 2.956079e+003
1.071342e+003, 2.958462e+003
1.071824e+003, 2.961594e+003
1.072306e+003, 2.964939e+003
1.072788e+003, 2.967127e+003
1.073271e+003, 2.972146e+003
1.073753e+003, 2.986300e+003
1.074235e+003, 2.999301e+003
1.074717e+003, 3.001503e+003
1.075199e+003, 2.999352e+003
1.075681e+003, 3.001293e+003
1.076163e+003, 3.007970e+003
1.076645e+003, 3.016159e+003
1.077127e+003, 3.025683e+003
1.077610e+003, 3.033674e+003
1.078092e+003, 3.038136e+003
1.078574e+003, 3.041402e+003
1.079056e+003, 3.042644e+003
1.079538e+003, 3.045325e+003
1.080020e+003, 3.055804e+003
1.080502e+003, 3.071508e+003
1.080984e+003, 3.082146e+003
1.081467e+003, 3.083563e+003
1.081949e+003, 3.084717e+003
1.082431e+003, 3.089397e+003
1.082913e+003, 3.095328e+003
1.083395e+003, 3.102793e+003
1.083877e+003, 3.109464e+003
1.084359e+003, 3.110471e+003
1.084841e+003, 3.108950e+003
1.085323e+003, 3.114285e+003
1.085806e+003, 3.129653e+003
1.086288e+003, 3.144207e+003
1.086770e+003, 3.152636e+003
1.087252e+003, 3.159976e+003
1.087734e+003, 3.169086e+003
1.088216e+003, 3.178203e+003
1.088698e+003, 3.186222e+003
1.089180e+003, 3.192671e+003
1.089662e+003, 3.195969e+003
1.090145e+003, 3.195811e+003
1.090627e+003, 3.197995e+003
1.091109e+003, 3.203088e+003
1.091591e+003, 3.213139e+003
1.092073e+003, 3.234250e+003
1.092555e+003, 3.255622e+003
1.093037e+003, 3.270382e+003
1.093519e+003, 3.278441e+003
1.094002e+003, 3.278892e+003
1.094484e+003, 3.272433e+003
1.094966e+003, 3.268007e+003
1.095448e+003, 3.267411e+003
1.095930e+003, 3.270787e+003
1.096412e+003, 3.281756e+003
1.096894e+003, 3.292864e+003
1.097376e+003, 3.297727e+003
1.097859e+003, 3.300914e+003
1.098341e+003, 3.308842e+003
1.098823e+003, 3.321628e+003
1.099305e+003, 3.335602e+003
1.099787e+003, 3.352523e+003
1.100269e+003, 3.365109e+003
1.100751e+003, 3.368973e+003
1.101233e+003, 3.370984e+003
1.101715e+003, 3.373314e+003
1.102198e+003, 3.376447e+003
1.102680e+003, 3.380679e+003
1.103162e+003, 3.386006e+003
1.103644e+003, 3.392251e+003
1.104126e+003, 3.399282e+003
1.104608e+003, 3.407675e+003
1.105090e+003, 3.419199e+003
1.105572e+003, 3.429932e+003
1.106054e+003, 3.437583e+003
1.106537e+003, 3.444803e+003
1.107019e+003, 3.454709e+003
1.107501e+003, 3.465699e+003
1.107983e+003, 3.472774e+003
1.108465e+003, 3.474021e+003
1.108947e+003, 3.480431e+003
1.109429e+003, 3.498688e+003
1.109911e+003, 3.514005e+003
1.110394e+003, 3.522471e+003
1.110876e+003, 3.528095e+003
1.111358e+003, 3.530188e+003
1.111840e+003, 3.532458e+003
1.112322e+003, 3.542649e+003
1.112804e+003, 3.561465e+003
1.113286e+003, 3.573762e+003
1.113768e+003, 3.571923e+003
1.114250e+003, 3.576228e+003
1.114733e+003, 3.592761e+003
1.115215e+003, 3.609234e+003
1.115697e+003, 3.621807e+003
1.116179e+003, 3.630447e+003
1.116661e+003, 3.633099e+003
1.117143e+003, 3.631251e+003
1.117625e+003, 3.635933e+003
1.118107e+003, 3.649059e+003
1.118589e+003, 3.664530e+003
1.119072e+003, 3.685167e+003
1.119554e+003, 3.702317e+003
1.120036e+003, 3.712408e+003
1.120518e+003, 3.719564e+003
1.121000e+003, 3.726613e+003
1.121482e+003, 3.734024e+003
1.121964e+003, 3.743411e+003
1.122446e+003, 3.755428e+003
1.122929e+003, 3.764592e+003
1.123411e+003, 3.768524e+003
1.123893e+003, 3.778695e+003
1.124375e+003, 3.800216e+003
1.124857e+003, 3.819954e+003
1.125339e+003, 3.828777e+003
1.125821e+003, 3.832496e+003
1.126303e+003, 3.841056e+003
1.126786e+003, 3.854136e+003
1.127268e+003, 3.866534e+003
1.127750e+003, 3.878500e+003
1.128232e+003, 3.885951e+003
1.128714e+003, 3.887422e+003
1.129196e+003, 3.891111e+003
1.129678e+003, 3.900728e+003
1.130160e+003, 3.914124e+003
1.130642e+003, 3.929394e+003
1.131125e+003, 3.945657e+003
1.131607e+003, 3.960052e+003
1.132089e+003, 3.972542e+003
1.132571e+003, 3.980978e+003
1.133053e+003, 3.985507e+003
1.133535e+003, 3.992734e+003
1.134017e+003, 4.004693e+003
1.134499e+003, 4.018914e+003
1.134981e+003, 4.033742e+003
1.135464e+003, 4.048324e+003
1.135946e+003, 4.060082e+003
1.136428e+003, 4.070375e+003
1.136910e+003, 4.085446e+003
1.137392e+003, 4.104158e+003
1.137874e+003, 4.120333e+003
1.138356e+003, 4.133259e+003
1.138838e+003, 4.147433e+003
1.139321e+003, 4.165245e+003
1.139803e+003, 4.181682e+003
1.140285e+003, 4.190421e+003
1.140767e+003, 4.194963e+003
1.141249e+003, 4.199990e+003
1.141731e+003, 4.206635e+003
1.142213e+003, 4.217547e+003
1.142695e+003, 4.232548e+003
1.143177e+003, 4.251652e+003
1.143660e+003, 4.273966e+003
1.144142e+003, 4.292833e+003
1.144624e+003, 4.302217e+003
1.145106e+003, 4.309724e+003
1.145588e+003, 4.325546e+003
1.146070e+003, 4.342370e+003
1.146552e+003, 4.347685e+003
1.147034e+003, 4.348424e+003
1.147516e+003, 4.359020e+003
1.147999e+003, 4.379755e+003
1.148481e+003, 4.400022e+003
1.148963e+003, 4.415467e+003
1.149445e+003, 4.429490e+003
1.149927e+003, 4.442573e+003
1.150409e+003, 4.456855e+003
1.150891e+003, 4.476345e+003
1.151373e+003, 4.495800e+003
1.151856e+003, 4.507296e+003
1.152338e+003, 4.514581e+003
1.152820e+003, 4.527880e+003
1.153302e+003, 4.549292e+003
1.153784e+003, 4.569642e+003
1.154266e+003, 4.588406e+003
1.154748e+003, 4.602095e+003
1.155230e+003, 4.601688e+003
1.155713e+003, 4.604523e+003
1.156195e+003, 4.626100e+003
1.156677e+003, 4.654286e+003
1.157159e+003, 4.673072e+003
1.157641e+003, 4.682790e+003
1.158123e+003, 4.692808e+003
1.158605e+003, 4.701981e+003
1.159087e+003, 4.716132e+003
1.159569e+003, 4.739889e+003
1.160052e+003, 4.762994e+003
1.160534e+003, 4.784076e+003
1.161016e+003, 4.802138e+003
1.161498e+003, 4.813467e+003
1.161980e+003, 4.822922e+003
1.162462e+003, 4.842388e+003
1.162944e+003, 4.873611e+003
1.163426e+003, 4.895739e+003
1.163908e+003, 4.904592e+003
1.164391e+003, 4.915931e+003
1.164873e+003, 4.930767e+003
1.165355e+003, 4.951748e+003
1.165837e+003, 4.982354e+003
1.166319e+003, 5.014015e+003
1.166801e+003, 5.036335e+003
1.167283e+003, 5.051600e+003
1.167765e+003, 5.070058e+003
1.168247e+003, 5.091928e+003
1.168730e+003, 5.109993e+003
1.169212e+003, 5.123844e+003
1.169694e+003, 5.133577e+003
1.170176e+003, 5.138896e+003
1.170658e+003, 5.152854e+003
1.171140e+003, 5.185155e+003
1.171622e+003, 5.226497e+003
1.172104e+003, 5.265772e+003
1.172587e+003, 5.300495e+003
1.173069e+003, 5.318887e+003
1.173551e+003, 5.325597e+003
1.174033e+003, 5.338529e+003
1.174515e+003, 5.358868e+003
1.174997e+003, 5.378706e+003
1.175479e+003, 5.395250e+003
1.175961e+003, 5.412195e+003
1.176443e+003, 5.432708e+003
1.176926e+003, 5.455139e+003
1.177408e+003, 5.476921e+003
1.177890e+003, 5.499690e+003
1.178372e+003, 5.527603e+003
1.178854e+003, 5.557679e+003
1.179336e+003, 5.584845e+003
1.179818e+003, 5.608038e+003
1.180300e+003, 5.626342e+003
1.180782e+003, 5.638745e+003
1.181265e+003, 5.651792e+003
1.181747e+003, 5.666517e+003
1.182229e+003, 5.686698e+003
1.182711e+003, 5.719767e+003
1.183193e+003, 5.754985e+003
1.183675e+003, 5.783253e+003
1.184157e+003, 5.805391e+003
1.184639e+003, 5.821433e+003
1.185122e+003, 5.832463e+003
1.185604e+003, 5.854278e+003
1.186086e+003, 5.899621e+003
1.186568e+003, 5.941233e+003
1.187050e+003, 5.971375e+003
1.187532e+003, 6.000968e+003
1.188014e+003, 6.038338e+003
1.188496e+003, 6.073625e+003
1.188979e+003, 6.094077e+003
1.189461e+003, 6.106148e+003
1.189943e+003, 6.128458e+003
1.190425e+003, 6.163097e+003
1.190907e+003, 6.195086e+003
1.191389e+003, 6.222181e+003
1.191871e+003, 6.252930e+003
1.192353e+003, 6.289838e+003
1.192835e+003, 6.327130e+003
1.193318e+003, 6.362511e+003
1.193800e+003, 6.394503e+003
1.194282e+003, 6.419305e+003
1.194764e+003, 6.441260e+003
1.195246e+003, 6.481319e+003
1.195728e+003, 6.538255e+003
1.196210e+003, 6.575638e+003
1.196692e+003, 6.592735e+003
1.197174e+003, 6.613474e+003
1.197657e+003, 6.643766e+003
1.198139e+003, 6.678747e+003
1.198621e+003, 6.715537e+003
1.199103e+003, 6.753117e+003
1.199585e+003, 6.790842e+003
1.200067e+003, 6.827492e+003
1.200549e+003, 6.858935e+003
1.201031e+003, 6.888606e+003
1.201514e+003, 6.925092e+003
1.201996e+003, 6.967211e+003
1.202478e+003, 7.008721e+003
1.202960e+003, 7.048162e+003
1.203442e+003, 7.088853e+003
1.203924e+003, 7.135375e+003
1.204406e+003, 7.175933e+003
1.204888e+003, 7.196852e+003
1.205370e+003, 7.213060e+003
1.205853e+003, 7.234422e+003
1.206335e+003, 7.260085e+003
1.206817e+003, 7.287709e+003
1.207299e+003, 7.318282e+003
1.207781e+003, 7.355753e+003
1.208263e+003, 7.401182e+003
1.208745e+003, 7.446242e+003
1.209227e+003, 7.488753e+003
1.209709e+003, 7.530592e+003
1.210192e+003, 7.568079e+003
1.210674e+003, 7.610257e+003
1.211156e+003, 7.669056e+003
1.211638e+003, 7.728149e+003
1.212120e+003, 7.768785e+003
1.212602e+003, 7.796515e+003
1.213084e+003, 7.832617e+003
1.213566e+003, 7.879906e+003
1.214049e+003, 7.920643e+003
1.214531e+003, 7.952770e+003
1.215013e+003, 7.986710e+003
1.215495e+003, 8.025012e+003
1.215977e+003, 8.062240e+003
1.216459e+003, 8.095112e+003
1.216941e+003, 8.126885e+003
1.217423e+003, 8.161026e+003
1.217906e+003, 8.198023e+003
1.218388e+003, 8.239139e+003
1.218870e+003, 8.284145e+003
1.219352e+003, 8.335157e+003
1.219834e+003, 8.389872e+003
1.220316e+003, 8.433224e+003
1.220798e+003, 8.464362e+003
1.221280e+003, 8.501526e+003
1.221762e+003, 8.554858e+003
1.222245e+003, 8.613438e+003
1.222727e+003, 8.665900e+003
1.223209e+003, 8.718226e+003
1.223691e+003, 8.777544e+003
1.224173e+003, 8.840775e+003
1.224655e+003, 8.909826e+003
1.225137e+003, 8.976206e+003
1.225619e+003, 9.023551e+003
1.226101e+003, 9.050916e+003
1.226584e+003, 9.072324e+003
1.227066e+003, 9.089415e+003
1.227548e+003, 9.109855e+003
1.228030e+003, 9.131467e+003
1.228512e+003, 9.163257e+003
1.228994e+003, 9.215408e+003
1.229476e+003, 9.273114e+003
1.229958e+003, 9.326604e+003
1.230441e+003, 9.376936e+003
1.230923e+003, 9.425896e+003
1.231405e+003, 9.473763e+003
1.231887e+003, 9.525219e+003
1.232369e+003, 9.584530e+003
1.232851e+003, 9.632281e+003
1.233333e+003, 9.662134e+003
1.233815e+003, 9.700768e+003
1.234297e+003, 9.757212e+003
1.234780e+003, 9.820749e+003
1.235262e+003, 9.885056e+003
1.235744e+003, 9.946807e+003
1.236226e+003, 9.999321e+003
1.236708e+003, 1.004487e+004
1.237190e+003, 1.009562e+004
1.237672e+003, 1.014892e+004
1.238154e+003, 1.019125e+004
1.238636e+003, 1.022476e+004
1.239119e+003, 1.026832e+004
1.239601e+003, 1.032586e+004
1.240083e+003, 1.038173e+004
1.240565e+003, 1.042487e+004
1.241047e+003, 1.046968e+004
1.241529e+003, 1.053224e+004
1.242011e+003, 1.060092e+004
1.242493e+003, 1.066956e+004
1.242975e+003, 1.073432e+004
1.243458e+003, 1.078539e+004
1.243940e+003, 1.083162e+004
1.244422e+003, 1.089361e+004
1.244904e+003, 1.097362e+004
1.245386e+003, 1.104844e+004
1.245868e+003, 1.111383e+004
1.246350e+003, 1.117013e+004
1.246832e+003, 1.120040e+004
1.247315e+003, 1.124510e+004
1.247797e+003, 1.132680e+004
1.248279e+003, 1.141646e+004
1.248761e+003, 1.149550e+004
1.249243e+003, 1.156745e+004
1.249725e+003, 1.163844e+004
1.250207e+003, 1.170841e+004
1.250689e+003, 1.178174e+004
1.251172e+003, 1.185916e+004
1.251654e+003, 1.192797e+004
1.252136e+003, 1.198684e+004
1.252618e+003, 1.205073e+004
1.253100e+003, 1.212414e+004
1.253582e+003, 1.220774e+004
1.254064e+003, 1.230235e+004
1.254546e+003, 1.239871e+004
1.255028e+003, 1.248231e+004
1.255510e+003, 1.255861e+004
1.255993e+003, 1.263475e+004
1.256475e+003, 1.271233e+004
1.256957e+003, 1.279104e+004
1.257439e+003, 1.287324e+004
1.257921e+003, 1.296704e+004
1.258403e+003, 1.307127e+004
1.258885e+003, 1.317210e+004
1.259367e+003, 1.326211e+004
1.259850e+003, 1.335299e+004
1.260332e+003, 1.345028e+004
1.260814e+003, 1.354951e+004
1.261296e+003, 1.364155e+004
1.261778e+003, 1.374247e+004
1.262260e+003, 1.387108e+004
1.262742e+003, 1.401344e+004
1.263224e+003, 1.414955e+004
1.263707e+003, 1.427908e+004
1.264189e+003, 1.439111e+004
1.264671e+003, 1.447759e+004
1.265153e+003, 1.457499e+004
1.265635e+003, 1.468487e+004
1.266117e+003, 1.479663e+004
1.266599e+003, 1.490695e+004
1.267081e+003, 1.502818e+004
1.267563e+003, 1.516829e+004
1.268046e+003, 1.531343e+004
1.268528e+003, 1.545025e+004
1.269010e+003, 1.557746e+004
1.269492e+003, 1.567954e+004
1.269974e+003, 1.577606e+004
1.270456e+003, 1.592672e+004
1.270938e+003, 1.611430e+004
1.271420e+003, 1.628627e+004
1.271902e+003, 1.643661e+004
1.272385e+003, 1.658619e+004
1.272867e+003, 1.674280e+004
1.273349e+003, 1.689850e+004
1.273831e+003, 1.704471e+004
1.274313e+003, 1.719512e+004
1.274795e+003, 1.735267e+004
1.275277e+003, 1.752319e+004
1.275759e+003, 1.772501e+004
1.276242e+003, 1.793204e+004
1.276724e+003, 1.811306e+004
1.277206e+003, 1.827551e+004
1.277688e+003, 1.844177e+004
1.278170e+003, 1.861144e+004
1.278652e+003, 1.878946e+004
1.279134e+003, 1.897485e+004
1.279616e+003, 1.917168e+004
1.280099e+003, 1.938031e+004
1.280581e+003, 1.960035e+004
1.281063e+003, 1.983343e+004
1.281545e+003, 2.006009e+004
1.282027e+003, 2.026440e+004
1.282509e+003, 2.046848e+004
1.282991e+003, 2.071721e+004
1.283473e+003, 2.098879e+004
1.283955e+003, 2.124034e+004
##END=



