##NAMES=Vigezzite
##RRUFFID=R060584
##IDEAL CHEMISTRY=(Ca,Ce^3+^)(Nb^5+^,Ta^5+^,Ti^4+^)_2_O_6_
##LOCALITY=Jacupiranga mine, Cajati, SÃ£o Paulo, Southeast Region, Brazil
##OWNER=RRUFF
##SOURCE=Luiz Menezes and Michael Scott
##DESCRIPTION=Brown flattened plates on white calcite
##STATUS=The identification of this mineral has been confirmed only by single crystal X-ray diffraction.
##URL=rruff.info/R060584
9.001007e+001, 0.000000e+000
9.049219e+001, 7.573399e+001
9.097430e+001, 7.644599e+001
9.145642e+001, 7.629206e+001
9.193854e+001, 7.533873e+001
9.242065e+001, 7.414182e+001
9.290277e+001, 7.287231e+001
9.338489e+001, 7.167471e+001
9.386700e+001, 7.092036e+001
9.434912e+001, 7.107193e+001
9.483124e+001, 7.165559e+001
9.531335e+001, 7.165900e+001
9.579547e+001, 7.103772e+001
9.627759e+001, 7.014454e+001
9.675970e+001, 6.927013e+001
9.724182e+001, 6.842715e+001
9.772394e+001, 6.773038e+001
9.820605e+001, 6.725643e+001
9.868817e+001, 6.699034e+001
9.917029e+001, 6.681367e+001
9.965240e+001, 6.679095e+001
1.001345e+002, 6.674535e+001
1.006166e+002, 6.620087e+001
1.010988e+002, 6.499097e+001
1.015809e+002, 6.398924e+001
1.020630e+002, 6.387948e+001
1.025451e+002, 6.498241e+001
1.030272e+002, 6.530721e+001
1.035093e+002, 6.445579e+001
1.039915e+002, 6.276442e+001
1.044736e+002, 6.146076e+001
1.049557e+002, 6.015449e+001
1.054378e+002, 5.982683e+001
1.059199e+002, 6.156225e+001
1.064020e+002, 6.787328e+001
1.068842e+002, 7.155212e+001
1.073663e+002, 7.084927e+001
1.078484e+002, 6.569998e+001
1.083305e+002, 6.193262e+001
1.088126e+002, 6.018343e+001
1.092947e+002, 5.948731e+001
1.097769e+002, 5.896361e+001
1.102590e+002, 5.872836e+001
1.107411e+002, 5.854885e+001
1.112232e+002, 5.845755e+001
1.117053e+002, 5.853789e+001
1.121874e+002, 5.834249e+001
1.126696e+002, 5.748554e+001
1.131517e+002, 5.642577e+001
1.136338e+002, 5.575767e+001
1.141159e+002, 5.621730e+001
1.145980e+002, 5.655300e+001
1.150801e+002, 5.623009e+001
1.155623e+002, 5.484408e+001
1.160444e+002, 5.363436e+001
1.165265e+002, 5.305869e+001
1.170086e+002, 5.288504e+001
1.174907e+002, 5.265525e+001
1.179728e+002, 5.194515e+001
1.184550e+002, 5.128225e+001
1.189371e+002, 5.104465e+001
1.194192e+002, 5.160805e+001
1.199013e+002, 5.214941e+001
1.203834e+002, 5.223957e+001
1.208655e+002, 5.194740e+001
1.213477e+002, 5.154042e+001
1.218298e+002, 5.091842e+001
1.223119e+002, 5.034919e+001
1.227940e+002, 5.015197e+001
1.232761e+002, 5.088346e+001
1.237582e+002, 5.160957e+001
1.242404e+002, 5.121956e+001
1.247225e+002, 4.982098e+001
1.252046e+002, 4.873876e+001
1.256867e+002, 4.955785e+001
1.261688e+002, 5.138119e+001
1.266509e+002, 5.257507e+001
1.271331e+002, 5.205807e+001
1.276152e+002, 5.070043e+001
1.280973e+002, 4.966206e+001
1.285794e+002, 4.893816e+001
1.290615e+002, 4.859226e+001
1.295436e+002, 4.900012e+001
1.300258e+002, 4.996834e+001
1.305079e+002, 5.064194e+001
1.309900e+002, 5.030590e+001
1.314721e+002, 4.934649e+001
1.319542e+002, 4.902811e+001
1.324363e+002, 4.950376e+001
1.329185e+002, 5.027111e+001
1.334006e+002, 5.073614e+001
1.338827e+002, 5.089643e+001
1.343648e+002, 5.059515e+001
1.348469e+002, 4.926463e+001
1.353290e+002, 4.704245e+001
1.358112e+002, 4.609986e+001
1.362933e+002, 4.694505e+001
1.367754e+002, 4.872738e+001
1.372575e+002, 4.941444e+001
1.377396e+002, 4.879367e+001
1.382217e+002, 4.804322e+001
1.387039e+002, 4.792086e+001
1.391860e+002, 4.851472e+001
1.396681e+002, 4.916257e+001
1.401502e+002, 4.991766e+001
1.406323e+002, 5.065568e+001
1.411144e+002, 5.077890e+001
1.415966e+002, 5.005002e+001
1.420787e+002, 4.915607e+001
1.425608e+002, 4.862693e+001
1.430429e+002, 4.858410e+001
1.435250e+002, 4.856387e+001
1.440071e+002, 4.848327e+001
1.444893e+002, 4.834911e+001
1.449714e+002, 4.834874e+001
1.454535e+002, 4.864442e+001
1.459356e+002, 4.891480e+001
1.464177e+002, 4.882487e+001
1.468998e+002, 4.804552e+001
1.473820e+002, 4.742128e+001
1.478641e+002, 4.710720e+001
1.483462e+002, 4.713324e+001
1.488283e+002, 4.728084e+001
1.493104e+002, 4.760485e+001
1.497925e+002, 4.802484e+001
1.502747e+002, 4.845465e+001
1.507568e+002, 4.878349e+001
1.512389e+002, 4.922478e+001
1.517210e+002, 4.991730e+001
1.522031e+002, 5.105979e+001
1.526852e+002, 5.181022e+001
1.531674e+002, 5.146991e+001
1.536495e+002, 5.088320e+001
1.541316e+002, 5.126693e+001
1.546137e+002, 5.323082e+001
1.550958e+002, 5.573170e+001
1.555779e+002, 5.849438e+001
1.560601e+002, 6.156192e+001
1.565422e+002, 6.472112e+001
1.570243e+002, 6.753428e+001
1.575064e+002, 7.042025e+001
1.579885e+002, 7.419008e+001
1.584706e+002, 7.905231e+001
1.589528e+002, 8.481245e+001
1.594349e+002, 9.136999e+001
1.599170e+002, 9.863382e+001
1.603991e+002, 1.068294e+002
1.608812e+002, 1.158003e+002
1.613633e+002, 1.257203e+002
1.618455e+002, 1.370453e+002
1.623276e+002, 1.497949e+002
1.628097e+002, 1.640066e+002
1.632918e+002, 1.799262e+002
1.637739e+002, 1.971233e+002
1.642560e+002, 2.165184e+002
1.647382e+002, 2.387001e+002
1.652203e+002, 2.634756e+002
1.657024e+002, 2.901071e+002
1.661845e+002, 3.191104e+002
1.666666e+002, 3.495539e+002
1.671487e+002, 3.802784e+002
1.676309e+002, 4.115363e+002
1.681130e+002, 4.428788e+002
1.685951e+002, 4.737168e+002
1.690772e+002, 5.042021e+002
1.695593e+002, 5.344386e+002
1.700414e+002, 5.651147e+002
1.705236e+002, 5.955202e+002
1.710057e+002, 6.243573e+002
1.714878e+002, 6.500876e+002
1.719699e+002, 6.753882e+002
1.724520e+002, 7.023145e+002
1.729341e+002, 7.308624e+002
1.734163e+002, 7.595630e+002
1.738984e+002, 7.863176e+002
1.743805e+002, 8.128710e+002
1.748626e+002, 8.412436e+002
1.753447e+002, 8.732044e+002
1.758268e+002, 9.073441e+002
1.763090e+002, 9.421116e+002
1.767911e+002, 9.772012e+002
1.772732e+002, 1.013792e+003
1.777553e+002, 1.048981e+003
1.782374e+002, 1.081396e+003
1.787195e+002, 1.112849e+003
1.792017e+002, 1.143547e+003
1.796838e+002, 1.174399e+003
1.801659e+002, 1.206109e+003
1.806480e+002, 1.238997e+003
1.811301e+002, 1.272528e+003
1.816122e+002, 1.307015e+003
1.820944e+002, 1.342378e+003
1.825765e+002, 1.377465e+003
1.830586e+002, 1.412460e+003
1.835407e+002, 1.446830e+003
1.840228e+002, 1.481148e+003
1.845049e+002, 1.515174e+003
1.849871e+002, 1.549023e+003
1.854692e+002, 1.582366e+003
1.859513e+002, 1.615428e+003
1.864334e+002, 1.647553e+003
1.869155e+002, 1.678822e+003
1.873976e+002, 1.709147e+003
1.878798e+002, 1.738619e+003
1.883619e+002, 1.767057e+003
1.888440e+002, 1.794985e+003
1.893261e+002, 1.822697e+003
1.898082e+002, 1.850379e+003
1.902903e+002, 1.877239e+003
1.907725e+002, 1.902740e+003
1.912546e+002, 1.927320e+003
1.917367e+002, 1.951597e+003
1.922188e+002, 1.976038e+003
1.927009e+002, 1.999444e+003
1.931830e+002, 2.019232e+003
1.936652e+002, 2.035355e+003
1.941473e+002, 2.049654e+003
1.946294e+002, 2.063373e+003
1.951115e+002, 2.076348e+003
1.955936e+002, 2.086194e+003
1.960757e+002, 2.092597e+003
1.965579e+002, 2.096208e+003
1.970400e+002, 2.098069e+003
1.975221e+002, 2.098174e+003
1.980042e+002, 2.096810e+003
1.984863e+002, 2.094076e+003
1.989684e+002, 2.089993e+003
1.994506e+002, 2.084631e+003
1.999327e+002, 2.077968e+003
2.004148e+002, 2.070212e+003
2.008969e+002, 2.061639e+003
2.013790e+002, 2.052031e+003
2.018611e+002, 2.042430e+003
2.023433e+002, 2.033630e+003
2.028254e+002, 2.025763e+003
2.033075e+002, 2.016974e+003
2.037896e+002, 2.006759e+003
2.042717e+002, 1.995953e+003
2.047538e+002, 1.986867e+003
2.052360e+002, 1.979700e+003
2.057181e+002, 1.973332e+003
2.062002e+002, 1.967366e+003
2.066823e+002, 1.961949e+003
2.071644e+002, 1.955669e+003
2.076465e+002, 1.948095e+003
2.081287e+002, 1.939732e+003
2.086108e+002, 1.931825e+003
2.090929e+002, 1.924350e+003
2.095750e+002, 1.917302e+003
2.100571e+002, 1.910842e+003
2.105392e+002, 1.905057e+003
2.110214e+002, 1.899421e+003
2.115035e+002, 1.894293e+003
2.119856e+002, 1.889215e+003
2.124677e+002, 1.882189e+003
2.129498e+002, 1.872696e+003
2.134319e+002, 1.862511e+003
2.139140e+002, 1.852346e+003
2.143962e+002, 1.841851e+003
2.148783e+002, 1.832764e+003
2.153604e+002, 1.825583e+003
2.158425e+002, 1.819898e+003
2.163246e+002, 1.814393e+003
2.168067e+002, 1.808997e+003
2.172889e+002, 1.803790e+003
2.177710e+002, 1.798849e+003
2.182531e+002, 1.794356e+003
2.187352e+002, 1.789382e+003
2.192173e+002, 1.783474e+003
2.196994e+002, 1.776898e+003
2.201816e+002, 1.771178e+003
2.206637e+002, 1.765926e+003
2.211458e+002, 1.761913e+003
2.216279e+002, 1.759994e+003
2.221100e+002, 1.761302e+003
2.225921e+002, 1.761558e+003
2.230743e+002, 1.760052e+003
2.235564e+002, 1.757232e+003
2.240385e+002, 1.755129e+003
2.245206e+002, 1.754131e+003
2.250027e+002, 1.753375e+003
2.254848e+002, 1.752215e+003
2.259670e+002, 1.750061e+003
2.264491e+002, 1.749083e+003
2.269312e+002, 1.749701e+003
2.274133e+002, 1.751668e+003
2.278954e+002, 1.753956e+003
2.283775e+002, 1.757120e+003
2.288597e+002, 1.759765e+003
2.293418e+002, 1.760872e+003
2.298239e+002, 1.759659e+003
2.303060e+002, 1.758666e+003
2.307881e+002, 1.757952e+003
2.312702e+002, 1.757544e+003
2.317524e+002, 1.757721e+003
2.322345e+002, 1.758678e+003
2.327166e+002, 1.759840e+003
2.331987e+002, 1.761045e+003
2.336808e+002, 1.763046e+003
2.341629e+002, 1.763230e+003
2.346451e+002, 1.760640e+003
2.351272e+002, 1.756017e+003
2.356093e+002, 1.752724e+003
2.360914e+002, 1.751576e+003
2.365735e+002, 1.750638e+003
2.370556e+002, 1.748805e+003
2.375378e+002, 1.745613e+003
2.380199e+002, 1.742617e+003
2.385020e+002, 1.739974e+003
2.389841e+002, 1.737627e+003
2.394662e+002, 1.735417e+003
2.399483e+002, 1.733582e+003
2.404305e+002, 1.731663e+003
2.409126e+002, 1.729322e+003
2.413947e+002, 1.726084e+003
2.418768e+002, 1.723570e+003
2.423589e+002, 1.721965e+003
2.428410e+002, 1.721146e+003
2.433232e+002, 1.720604e+003
2.438053e+002, 1.720102e+003
2.442874e+002, 1.720190e+003
2.447695e+002, 1.721183e+003
2.452516e+002, 1.723407e+003
2.457337e+002, 1.725702e+003
2.462159e+002, 1.727933e+003
2.466980e+002, 1.730178e+003
2.471801e+002, 1.732662e+003
2.476622e+002, 1.735293e+003
2.481443e+002, 1.738270e+003
2.486264e+002, 1.741655e+003
2.491086e+002, 1.745511e+003
2.495907e+002, 1.749606e+003
2.500728e+002, 1.753719e+003
2.505549e+002, 1.758145e+003
2.510370e+002, 1.763736e+003
2.515191e+002, 1.770998e+003
2.520013e+002, 1.778703e+003
2.524834e+002, 1.786396e+003
2.529655e+002, 1.793809e+003
2.534476e+002, 1.801755e+003
2.539297e+002, 1.810152e+003
2.544118e+002, 1.819132e+003
2.548940e+002, 1.829174e+003
2.553761e+002, 1.840336e+003
2.558582e+002, 1.852505e+003
2.563403e+002, 1.865668e+003
2.568224e+002, 1.880021e+003
2.573046e+002, 1.894496e+003
2.577867e+002, 1.908959e+003
2.582688e+002, 1.923424e+003
2.587509e+002, 1.937732e+003
2.592330e+002, 1.951216e+003
2.597151e+002, 1.965508e+003
2.601973e+002, 1.981585e+003
2.606794e+002, 1.999686e+003
2.611615e+002, 2.016986e+003
2.616436e+002, 2.032606e+003
2.621257e+002, 2.048000e+003
2.626078e+002, 2.065682e+003
2.630900e+002, 2.086096e+003
2.635721e+002, 2.107516e+003
2.640542e+002, 2.129393e+003
2.645363e+002, 2.152228e+003
2.650184e+002, 2.174265e+003
2.655005e+002, 2.195759e+003
2.659827e+002, 2.216701e+003
2.664648e+002, 2.237226e+003
2.669469e+002, 2.256729e+003
2.674290e+002, 2.277271e+003
2.679111e+002, 2.300302e+003
2.683932e+002, 2.325996e+003
2.688754e+002, 2.349053e+003
2.693575e+002, 2.368339e+003
2.698396e+002, 2.386602e+003
2.703217e+002, 2.407600e+003
2.708038e+002, 2.432423e+003
2.712859e+002, 2.455212e+003
2.717681e+002, 2.473508e+003
2.722502e+002, 2.487397e+003
2.727323e+002, 2.503236e+003
2.732144e+002, 2.521849e+003
2.736965e+002, 2.540142e+003
2.741786e+002, 2.554706e+003
2.746608e+002, 2.565375e+003
2.751429e+002, 2.574000e+003
2.756250e+002, 2.581270e+003
2.761071e+002, 2.586963e+003
2.765892e+002, 2.589327e+003
2.770714e+002, 2.588054e+003
2.775535e+002, 2.584220e+003
2.780356e+002, 2.578527e+003
2.785177e+002, 2.570885e+003
2.789998e+002, 2.562284e+003
2.794819e+002, 2.553316e+003
2.799641e+002, 2.543426e+003
2.804462e+002, 2.530571e+003
2.809283e+002, 2.514563e+003
2.814104e+002, 2.496168e+003
2.818925e+002, 2.475199e+003
2.823746e+002, 2.451634e+003
2.828568e+002, 2.428111e+003
2.833389e+002, 2.404986e+003
2.838210e+002, 2.382332e+003
2.843031e+002, 2.360480e+003
2.847852e+002, 2.339479e+003
2.852673e+002, 2.318692e+003
2.857495e+002, 2.297592e+003
2.862316e+002, 2.276204e+003
2.867137e+002, 2.254313e+003
2.871958e+002, 2.231645e+003
2.876779e+002, 2.208866e+003
2.881600e+002, 2.187445e+003
2.886422e+002, 2.167384e+003
2.891243e+002, 2.147483e+003
2.896064e+002, 2.127109e+003
2.900885e+002, 2.106338e+003
2.905706e+002, 2.086671e+003
2.910527e+002, 2.068289e+003
2.915349e+002, 2.050774e+003
2.920170e+002, 2.033582e+003
2.924991e+002, 2.016803e+003
2.929812e+002, 2.000024e+003
2.934633e+002, 1.983061e+003
2.939454e+002, 1.966023e+003
2.944276e+002, 1.949501e+003
2.949097e+002, 1.933736e+003
2.953918e+002, 1.918299e+003
2.958739e+002, 1.902144e+003
2.963560e+002, 1.885777e+003
2.968381e+002, 1.870794e+003
2.973203e+002, 1.858893e+003
2.978024e+002, 1.848922e+003
2.982845e+002, 1.838584e+003
2.987666e+002, 1.827823e+003
2.992487e+002, 1.816487e+003
2.997308e+002, 1.803500e+003
3.002130e+002, 1.789520e+003
3.006951e+002, 1.776656e+003
3.011772e+002, 1.766631e+003
3.016593e+002, 1.757785e+003
3.021414e+002, 1.747317e+003
3.026235e+002, 1.735349e+003
3.031057e+002, 1.723531e+003
3.035878e+002, 1.713403e+003
3.040699e+002, 1.704453e+003
3.045520e+002, 1.695979e+003
3.050341e+002, 1.688000e+003
3.055162e+002, 1.680196e+003
3.059984e+002, 1.671936e+003
3.064805e+002, 1.663399e+003
3.069626e+002, 1.655232e+003
3.074447e+002, 1.648451e+003
3.079268e+002, 1.642195e+003
3.084089e+002, 1.635462e+003
3.088911e+002, 1.627933e+003
3.093732e+002, 1.619948e+003
3.098553e+002, 1.611274e+003
3.103374e+002, 1.602269e+003
3.108195e+002, 1.593949e+003
3.113016e+002, 1.587274e+003
3.117838e+002, 1.581463e+003
3.122659e+002, 1.575723e+003
3.127480e+002, 1.569810e+003
3.132301e+002, 1.564239e+003
3.137122e+002, 1.559686e+003
3.141943e+002, 1.555630e+003
3.146765e+002, 1.551082e+003
3.151586e+002, 1.545146e+003
3.156407e+002, 1.538913e+003
3.161228e+002, 1.532934e+003
3.166049e+002, 1.527297e+003
3.170870e+002, 1.522009e+003
3.175692e+002, 1.517696e+003
3.180513e+002, 1.513645e+003
3.185334e+002, 1.508879e+003
3.190155e+002, 1.502134e+003
3.194976e+002, 1.495427e+003
3.199797e+002, 1.489425e+003
3.204619e+002, 1.484129e+003
3.209440e+002, 1.480091e+003
3.214261e+002, 1.479203e+003
3.219082e+002, 1.478923e+003
3.223903e+002, 1.476840e+003
3.228724e+002, 1.470458e+003
3.233546e+002, 1.464192e+003
3.238367e+002, 1.459029e+003
3.243188e+002, 1.454980e+003
3.248009e+002, 1.451602e+003
3.252830e+002, 1.449874e+003
3.257651e+002, 1.448206e+003
3.262473e+002, 1.445580e+003
3.267294e+002, 1.441258e+003
3.272115e+002, 1.436788e+003
3.276936e+002, 1.431853e+003
3.281757e+002, 1.426781e+003
3.286578e+002, 1.422886e+003
3.291400e+002, 1.422057e+003
3.296221e+002, 1.420888e+003
3.301042e+002, 1.417802e+003
3.305863e+002, 1.410560e+003
3.310684e+002, 1.405131e+003
3.315505e+002, 1.402399e+003
3.320327e+002, 1.401315e+003
3.325148e+002, 1.399591e+003
3.329969e+002, 1.396658e+003
3.334790e+002, 1.393735e+003
3.339611e+002, 1.391119e+003
3.344432e+002, 1.388756e+003
3.349254e+002, 1.386790e+003
3.354075e+002, 1.385593e+003
3.358896e+002, 1.384427e+003
3.363717e+002, 1.382124e+003
3.368538e+002, 1.378055e+003
3.373359e+002, 1.374380e+003
3.378180e+002, 1.371857e+003
3.383001e+002, 1.370477e+003
3.387823e+002, 1.368727e+003
3.392644e+002, 1.366721e+003
3.397465e+002, 1.364234e+003
3.402286e+002, 1.360939e+003
3.407107e+002, 1.356771e+003
3.411928e+002, 1.352417e+003
3.416750e+002, 1.347771e+003
3.421571e+002, 1.343193e+003
3.426392e+002, 1.340868e+003
3.431213e+002, 1.341289e+003
3.436034e+002, 1.341321e+003
3.440855e+002, 1.338233e+003
3.445677e+002, 1.332197e+003
3.450498e+002, 1.326583e+003
3.455319e+002, 1.321650e+003
3.460140e+002, 1.317617e+003
3.464961e+002, 1.315271e+003
3.469782e+002, 1.314561e+003
3.474604e+002, 1.313977e+003
3.479425e+002, 1.312779e+003
3.484246e+002, 1.311033e+003
3.489067e+002, 1.308922e+003
3.493888e+002, 1.306391e+003
3.498709e+002, 1.303813e+003
3.503531e+002, 1.301656e+003
3.508352e+002, 1.299835e+003
3.513173e+002, 1.298049e+003
3.517994e+002, 1.295993e+003
3.522815e+002, 1.293917e+003
3.527636e+002, 1.292222e+003
3.532458e+002, 1.290894e+003
3.537279e+002, 1.289819e+003
3.542100e+002, 1.289205e+003
3.546921e+002, 1.288716e+003
3.551742e+002, 1.287776e+003
3.556563e+002, 1.286066e+003
3.561385e+002, 1.283948e+003
3.566206e+002, 1.281279e+003
3.571027e+002, 1.278282e+003
3.575848e+002, 1.276149e+003
3.580669e+002, 1.276640e+003
3.585490e+002, 1.277787e+003
3.590312e+002, 1.277589e+003
3.595133e+002, 1.275099e+003
3.599954e+002, 1.272520e+003
3.604775e+002, 1.271276e+003
3.609596e+002, 1.270882e+003
3.614417e+002, 1.270316e+003
3.619239e+002, 1.269144e+003
3.624060e+002, 1.267721e+003
3.628881e+002, 1.266112e+003
3.633702e+002, 1.264225e+003
3.638523e+002, 1.262738e+003
3.643344e+002, 1.262166e+003
3.648166e+002, 1.262011e+003
3.652987e+002, 1.261706e+003
3.657808e+002, 1.260739e+003
3.662629e+002, 1.260000e+003
3.667450e+002, 1.259787e+003
3.672271e+002, 1.260099e+003
3.677093e+002, 1.260451e+003
3.681914e+002, 1.261102e+003
3.686735e+002, 1.261559e+003
3.691556e+002, 1.261490e+003
3.696377e+002, 1.259866e+003
3.701198e+002, 1.258970e+003
3.706020e+002, 1.259134e+003
3.710841e+002, 1.260104e+003
3.715662e+002, 1.261037e+003
3.720483e+002, 1.262253e+003
3.725304e+002, 1.263001e+003
3.730125e+002, 1.262846e+003
3.734947e+002, 1.261302e+003
3.739768e+002, 1.260270e+003
3.744589e+002, 1.259996e+003
3.749410e+002, 1.260024e+003
3.754231e+002, 1.259497e+003
3.759052e+002, 1.258025e+003
3.763874e+002, 1.257186e+003
3.768695e+002, 1.257808e+003
3.773516e+002, 1.259859e+003
3.778337e+002, 1.260611e+003
3.783158e+002, 1.259811e+003
3.787979e+002, 1.258547e+003
3.792801e+002, 1.257848e+003
3.797622e+002, 1.257741e+003
3.802443e+002, 1.257759e+003
3.807264e+002, 1.257693e+003
3.812085e+002, 1.257793e+003
3.816906e+002, 1.259080e+003
3.821728e+002, 1.261568e+003
3.826549e+002, 1.263677e+003
3.831370e+002, 1.263913e+003
3.836191e+002, 1.262750e+003
3.841012e+002, 1.262079e+003
3.845833e+002, 1.262090e+003
3.850655e+002, 1.262497e+003
3.855476e+002, 1.263067e+003
3.860297e+002, 1.263739e+003
3.865118e+002, 1.264305e+003
3.869939e+002, 1.265589e+003
3.874760e+002, 1.266346e+003
3.879582e+002, 1.264144e+003
3.884403e+002, 1.258906e+003
3.889224e+002, 1.253664e+003
3.894045e+002, 1.251149e+003
3.898866e+002, 1.250166e+003
3.903687e+002, 1.249006e+003
3.908509e+002, 1.246847e+003
3.913330e+002, 1.244686e+003
3.918151e+002, 1.243438e+003
3.922972e+002, 1.242868e+003
3.927793e+002, 1.241979e+003
3.932614e+002, 1.240134e+003
3.937436e+002, 1.237885e+003
3.942257e+002, 1.235442e+003
3.947078e+002, 1.232496e+003
3.951899e+002, 1.230232e+003
3.956720e+002, 1.229777e+003
3.961541e+002, 1.230129e+003
3.966363e+002, 1.229676e+003
3.971184e+002, 1.226943e+003
3.976005e+002, 1.224339e+003
3.980826e+002, 1.222823e+003
3.985647e+002, 1.222602e+003
3.990468e+002, 1.222060e+003
3.995290e+002, 1.221256e+003
4.000111e+002, 1.219951e+003
4.004932e+002, 1.217928e+003
4.009753e+002, 1.214093e+003
4.014574e+002, 1.211019e+003
4.019395e+002, 1.209063e+003
4.024217e+002, 1.208082e+003
4.029038e+002, 1.207546e+003
4.033859e+002, 1.208004e+003
4.038680e+002, 1.208111e+003
4.043501e+002, 1.206989e+003
4.048322e+002, 1.203976e+003
4.053144e+002, 1.202170e+003
4.057965e+002, 1.201927e+003
4.062786e+002, 1.202483e+003
4.067607e+002, 1.202726e+003
4.072428e+002, 1.202664e+003
4.077249e+002, 1.202192e+003
4.082071e+002, 1.200981e+003
4.086892e+002, 1.199263e+003
4.091713e+002, 1.198747e+003
4.096534e+002, 1.199578e+003
4.101355e+002, 1.200721e+003
4.106176e+002, 1.201422e+003
4.110998e+002, 1.201665e+003
4.115819e+002, 1.201216e+003
4.120640e+002, 1.199735e+003
4.125461e+002, 1.198026e+003
4.130282e+002, 1.197666e+003
4.135103e+002, 1.198409e+003
4.139925e+002, 1.198810e+003
4.144746e+002, 1.197457e+003
4.149567e+002, 1.195406e+003
4.154388e+002, 1.194380e+003
4.159209e+002, 1.194573e+003
4.164030e+002, 1.195157e+003
4.168852e+002, 1.195735e+003
4.173673e+002, 1.196198e+003
4.178494e+002, 1.196371e+003
4.183315e+002, 1.196121e+003
4.188136e+002, 1.195640e+003
4.192957e+002, 1.194775e+003
4.197779e+002, 1.193666e+003
4.202600e+002, 1.193102e+003
4.207421e+002, 1.193893e+003
4.212242e+002, 1.195127e+003
4.217063e+002, 1.196136e+003
4.221884e+002, 1.196758e+003
4.226706e+002, 1.197296e+003
4.231527e+002, 1.197789e+003
4.236348e+002, 1.198261e+003
4.241169e+002, 1.198752e+003
4.245990e+002, 1.199195e+003
4.250811e+002, 1.199714e+003
4.255633e+002, 1.200203e+003
4.260454e+002, 1.200544e+003
4.265275e+002, 1.201590e+003
4.270096e+002, 1.203730e+003
4.274917e+002, 1.206241e+003
4.279738e+002, 1.208544e+003
4.284560e+002, 1.210543e+003
4.289381e+002, 1.212546e+003
4.294202e+002, 1.214962e+003
4.299023e+002, 1.217286e+003
4.303844e+002, 1.217584e+003
4.308665e+002, 1.215137e+003
4.313487e+002, 1.212697e+003
4.318308e+002, 1.211737e+003
4.323129e+002, 1.212338e+003
4.327950e+002, 1.212835e+003
4.332771e+002, 1.213150e+003
4.337592e+002, 1.213563e+003
4.342414e+002, 1.214634e+003
4.347235e+002, 1.216296e+003
4.352056e+002, 1.217574e+003
4.356877e+002, 1.217749e+003
4.361698e+002, 1.217649e+003
4.366519e+002, 1.219808e+003
4.371341e+002, 1.224054e+003
4.376162e+002, 1.227224e+003
4.380983e+002, 1.226271e+003
4.385804e+002, 1.222875e+003
4.390625e+002, 1.219686e+003
4.395446e+002, 1.216919e+003
4.400268e+002, 1.215173e+003
4.405089e+002, 1.215934e+003
4.409910e+002, 1.218082e+003
4.414731e+002, 1.219310e+003
4.419552e+002, 1.218186e+003
4.424373e+002, 1.216119e+003
4.429195e+002, 1.213426e+003
4.434016e+002, 1.210182e+003
4.438837e+002, 1.208037e+003
4.443658e+002, 1.208727e+003
4.448479e+002, 1.210171e+003
4.453300e+002, 1.210735e+003
4.458122e+002, 1.209533e+003
4.462943e+002, 1.208143e+003
4.467764e+002, 1.206635e+003
4.472585e+002, 1.205107e+003
4.477406e+002, 1.203821e+003
4.482227e+002, 1.203156e+003
4.487049e+002, 1.202381e+003
4.491870e+002, 1.201335e+003
4.496691e+002, 1.200069e+003
4.501512e+002, 1.198322e+003
4.506333e+002, 1.195877e+003
4.511154e+002, 1.193242e+003
4.515976e+002, 1.190966e+003
4.520797e+002, 1.189294e+003
4.525618e+002, 1.187221e+003
4.530439e+002, 1.184255e+003
4.535260e+002, 1.181007e+003
4.540081e+002, 1.179517e+003
4.544903e+002, 1.180093e+003
4.549724e+002, 1.180442e+003
4.554545e+002, 1.178925e+003
4.559366e+002, 1.175878e+003
4.564187e+002, 1.173727e+003
4.569008e+002, 1.172665e+003
4.573830e+002, 1.171884e+003
4.578651e+002, 1.170520e+003
4.583472e+002, 1.168670e+003
4.588293e+002, 1.166736e+003
4.593114e+002, 1.164761e+003
4.597935e+002, 1.162795e+003
4.602757e+002, 1.160993e+003
4.607578e+002, 1.159274e+003
4.612399e+002, 1.157250e+003
4.617220e+002, 1.154131e+003
4.622041e+002, 1.150887e+003
4.626862e+002, 1.148648e+003
4.631684e+002, 1.147843e+003
4.636505e+002, 1.146900e+003
4.641326e+002, 1.145048e+003
4.646147e+002, 1.142620e+003
4.650968e+002, 1.139998e+003
4.655789e+002, 1.137463e+003
4.660611e+002, 1.134694e+003
4.665432e+002, 1.131508e+003
4.670253e+002, 1.127958e+003
4.675074e+002, 1.124421e+003
4.679895e+002, 1.120518e+003
4.684716e+002, 1.116996e+003
4.689538e+002, 1.114264e+003
4.694359e+002, 1.112708e+003
4.699180e+002, 1.111184e+003
4.704001e+002, 1.109881e+003
4.708822e+002, 1.108439e+003
4.713643e+002, 1.106263e+003
4.718465e+002, 1.103159e+003
4.723286e+002, 1.099823e+003
4.728107e+002, 1.096331e+003
4.732928e+002, 1.092761e+003
4.737749e+002, 1.089208e+003
4.742570e+002, 1.085611e+003
4.747392e+002, 1.082419e+003
4.752213e+002, 1.080162e+003
4.757034e+002, 1.078702e+003
4.761855e+002, 1.077077e+003
4.766676e+002, 1.075173e+003
4.771497e+002, 1.073173e+003
4.776319e+002, 1.071394e+003
4.781140e+002, 1.069760e+003
4.785961e+002, 1.068029e+003
4.790782e+002, 1.066355e+003
4.795603e+002, 1.064377e+003
4.800424e+002, 1.061317e+003
4.805246e+002, 1.057323e+003
4.810067e+002, 1.053717e+003
4.814888e+002, 1.051741e+003
4.819709e+002, 1.050282e+003
4.824530e+002, 1.048314e+003
4.829352e+002, 1.045387e+003
4.834173e+002, 1.042550e+003
4.838994e+002, 1.040228e+003
4.843815e+002, 1.038228e+003
4.848636e+002, 1.036282e+003
4.853457e+002, 1.034548e+003
4.858279e+002, 1.032630e+003
4.863100e+002, 1.030151e+003
4.867921e+002, 1.027116e+003
4.872742e+002, 1.024979e+003
4.877563e+002, 1.024506e+003
4.882384e+002, 1.024162e+003
4.887206e+002, 1.023062e+003
4.892027e+002, 1.020825e+003
4.896848e+002, 1.018919e+003
4.901669e+002, 1.017398e+003
4.906490e+002, 1.016197e+003
4.911311e+002, 1.015242e+003
4.916133e+002, 1.014575e+003
4.920954e+002, 1.013927e+003
4.925775e+002, 1.013263e+003
4.930596e+002, 1.012531e+003
4.935417e+002, 1.011334e+003
4.940238e+002, 1.009653e+003
4.945060e+002, 1.008291e+003
4.949881e+002, 1.008262e+003
4.954702e+002, 1.008973e+003
4.959523e+002, 1.008836e+003
4.964344e+002, 1.007490e+003
4.969165e+002, 1.005943e+003
4.973987e+002, 1.005330e+003
4.978808e+002, 1.005220e+003
4.983629e+002, 1.004824e+003
4.988450e+002, 1.003424e+003
4.993271e+002, 1.001968e+003
4.998092e+002, 1.001318e+003
5.002914e+002, 1.001281e+003
5.007735e+002, 1.000803e+003
5.012556e+002, 9.986592e+002
5.017377e+002, 9.965648e+002
5.022198e+002, 9.957307e+002
5.027019e+002, 9.971308e+002
5.031841e+002, 9.976194e+002
5.036662e+002, 9.957822e+002
5.041483e+002, 9.932770e+002
5.046304e+002, 9.921085e+002
5.051125e+002, 9.935839e+002
5.055946e+002, 9.942762e+002
5.060768e+002, 9.933947e+002
5.065589e+002, 9.912869e+002
5.070410e+002, 9.896276e+002
5.075231e+002, 9.883616e+002
5.080052e+002, 9.876653e+002
5.084873e+002, 9.878793e+002
5.089695e+002, 9.890056e+002
5.094516e+002, 9.895233e+002
5.099337e+002, 9.893391e+002
5.104158e+002, 9.888535e+002
5.108979e+002, 9.883383e+002
5.113800e+002, 9.878578e+002
5.118622e+002, 9.878134e+002
5.123443e+002, 9.885790e+002
5.128264e+002, 9.894293e+002
5.133085e+002, 9.892245e+002
5.137906e+002, 9.882303e+002
5.142728e+002, 9.873928e+002
5.147549e+002, 9.878207e+002
5.152370e+002, 9.882751e+002
5.157191e+002, 9.873801e+002
5.162012e+002, 9.849525e+002
5.166833e+002, 9.830434e+002
5.171655e+002, 9.828930e+002
5.176476e+002, 9.835246e+002
5.181297e+002, 9.841119e+002
5.186118e+002, 9.847593e+002
5.190939e+002, 9.850218e+002
5.195760e+002, 9.847144e+002
5.200582e+002, 9.839762e+002
5.205403e+002, 9.831083e+002
5.210224e+002, 9.816337e+002
5.215045e+002, 9.807187e+002
5.219866e+002, 9.808929e+002
5.224688e+002, 9.821484e+002
5.229509e+002, 9.826697e+002
5.234330e+002, 9.821486e+002
5.239151e+002, 9.815848e+002
5.243972e+002, 9.818603e+002
5.248793e+002, 9.829896e+002
5.253615e+002, 9.836871e+002
5.258436e+002, 9.836586e+002
5.263257e+002, 9.836493e+002
5.268078e+002, 9.854979e+002
5.272899e+002, 9.886207e+002
5.277720e+002, 9.901345e+002
5.282542e+002, 9.877632e+002
5.287363e+002, 9.840476e+002
5.292184e+002, 9.822524e+002
5.297005e+002, 9.821810e+002
5.301826e+002, 9.826707e+002
5.306647e+002, 9.836667e+002
5.311469e+002, 9.845281e+002
5.316290e+002, 9.846896e+002
5.321111e+002, 9.840070e+002
5.325932e+002, 9.829890e+002
5.330753e+002, 9.811621e+002
5.335574e+002, 9.794095e+002
5.340396e+002, 9.786759e+002
5.345217e+002, 9.805406e+002
5.350038e+002, 9.817801e+002
5.354859e+002, 9.815749e+002
5.359680e+002, 9.804141e+002
5.364501e+002, 9.798201e+002
5.369323e+002, 9.799541e+002
5.374144e+002, 9.803956e+002
5.378965e+002, 9.811086e+002
5.383786e+002, 9.821012e+002
5.388607e+002, 9.826761e+002
5.393428e+002, 9.827520e+002
5.398250e+002, 9.826085e+002
5.403071e+002, 9.822812e+002
5.407892e+002, 9.818381e+002
5.412713e+002, 9.821196e+002
5.417534e+002, 9.834506e+002
5.422355e+002, 9.849697e+002
5.427177e+002, 9.854006e+002
5.431998e+002, 9.850007e+002
5.436819e+002, 9.845797e+002
5.441640e+002, 9.846641e+002
5.446461e+002, 9.847986e+002
5.451282e+002, 9.844627e+002
5.456104e+002, 9.837411e+002
5.460925e+002, 9.831454e+002
5.465746e+002, 9.828052e+002
5.470567e+002, 9.827836e+002
5.475388e+002, 9.832025e+002
5.480209e+002, 9.842429e+002
5.485031e+002, 9.851711e+002
5.489852e+002, 9.857946e+002
5.494673e+002, 9.862531e+002
5.499494e+002, 9.867070e+002
5.504315e+002, 9.873661e+002
5.509136e+002, 9.876518e+002
5.513958e+002, 9.872421e+002
5.518779e+002, 9.864714e+002
5.523600e+002, 9.864828e+002
5.528421e+002, 9.875684e+002
5.533242e+002, 9.883799e+002
5.538063e+002, 9.881714e+002
5.542885e+002, 9.871221e+002
5.547706e+002, 9.866734e+002
5.552527e+002, 9.868568e+002
5.557348e+002, 9.873344e+002
5.562169e+002, 9.881486e+002
5.566990e+002, 9.890229e+002
5.571812e+002, 9.890991e+002
5.576633e+002, 9.880530e+002
5.581454e+002, 9.869697e+002
5.586275e+002, 9.870601e+002
5.591096e+002, 9.878309e+002
5.595917e+002, 9.884082e+002
5.600739e+002, 9.879918e+002
5.605560e+002, 9.877219e+002
5.610381e+002, 9.885507e+002
5.615202e+002, 9.901274e+002
5.620023e+002, 9.909384e+002
5.624844e+002, 9.894606e+002
5.629666e+002, 9.880977e+002
5.634487e+002, 9.879948e+002
5.639308e+002, 9.893949e+002
5.644129e+002, 9.908564e+002
5.648950e+002, 9.926534e+002
5.653771e+002, 9.941942e+002
5.658593e+002, 9.949143e+002
5.663414e+002, 9.945920e+002
5.668235e+002, 9.943881e+002
5.673056e+002, 9.944725e+002
5.677877e+002, 9.946276e+002
5.682698e+002, 9.944822e+002
5.687520e+002, 9.940461e+002
5.692341e+002, 9.933906e+002
5.697162e+002, 9.920994e+002
5.701983e+002, 9.909213e+002
5.706804e+002, 9.918439e+002
5.711625e+002, 9.945152e+002
5.716447e+002, 9.964398e+002
5.721268e+002, 9.949579e+002
5.726089e+002, 9.925567e+002
5.730910e+002, 9.917484e+002
5.735731e+002, 9.929742e+002
5.740552e+002, 9.945174e+002
5.745374e+002, 9.957380e+002
5.750195e+002, 9.968422e+002
5.755016e+002, 9.980234e+002
5.759837e+002, 9.992119e+002
5.764658e+002, 1.000582e+003
5.769479e+002, 1.002742e+003
5.774301e+002, 1.004932e+003
5.779122e+002, 1.005467e+003
5.783943e+002, 1.003008e+003
5.788764e+002, 1.001543e+003
5.793585e+002, 1.002482e+003
5.798406e+002, 1.005389e+003
5.803228e+002, 1.007251e+003
5.808049e+002, 1.007965e+003
5.812870e+002, 1.008287e+003
5.817691e+002, 1.008668e+003
5.822512e+002, 1.009092e+003
5.827333e+002, 1.009506e+003
5.832155e+002, 1.009939e+003
5.836975e+002, 1.010229e+003
5.841796e+002, 1.009906e+003
5.846617e+002, 1.009437e+003
5.851439e+002, 1.009629e+003
5.856260e+002, 1.011002e+003
5.861081e+002, 1.012581e+003
5.865902e+002, 1.014161e+003
5.870723e+002, 1.015497e+003
5.875544e+002, 1.016094e+003
5.880366e+002, 1.014267e+003
5.885187e+002, 1.013240e+003
5.890008e+002, 1.014736e+003
5.894829e+002, 1.018551e+003
5.899650e+002, 1.020566e+003
5.904471e+002, 1.019348e+003
5.909293e+002, 1.018134e+003
5.914114e+002, 1.018612e+003
5.918935e+002, 1.021117e+003
5.923756e+002, 1.022720e+003
5.928577e+002, 1.023169e+003
5.933398e+002, 1.023383e+003
5.938220e+002, 1.024451e+003
5.943041e+002, 1.026247e+003
5.947862e+002, 1.027802e+003
5.952683e+002, 1.029012e+003
5.957504e+002, 1.029779e+003
5.962325e+002, 1.029547e+003
5.967147e+002, 1.028767e+003
5.971968e+002, 1.028585e+003
5.976789e+002, 1.029686e+003
5.981610e+002, 1.031436e+003
5.986431e+002, 1.034115e+003
5.991252e+002, 1.037296e+003
5.996074e+002, 1.039085e+003
6.000895e+002, 1.037415e+003
6.005716e+002, 1.035398e+003
6.010537e+002, 1.034538e+003
6.015358e+002, 1.035190e+003
6.020179e+002, 1.035885e+003
6.025001e+002, 1.036433e+003
6.029822e+002, 1.037193e+003
6.034643e+002, 1.038526e+003
6.039464e+002, 1.040691e+003
6.044285e+002, 1.042361e+003
6.049106e+002, 1.043231e+003
6.053928e+002, 1.044031e+003
6.058749e+002, 1.046357e+003
6.063570e+002, 1.050034e+003
6.068391e+002, 1.052548e+003
6.073212e+002, 1.052657e+003
6.078033e+002, 1.051814e+003
6.082855e+002, 1.051964e+003
6.087676e+002, 1.053019e+003
6.092497e+002, 1.054674e+003
6.097318e+002, 1.057558e+003
6.102139e+002, 1.060364e+003
6.106960e+002, 1.061764e+003
6.111782e+002, 1.061755e+003
6.116603e+002, 1.062078e+003
6.121424e+002, 1.063493e+003
6.126245e+002, 1.065334e+003
6.131066e+002, 1.067249e+003
6.135887e+002, 1.069448e+003
6.140709e+002, 1.071213e+003
6.145530e+002, 1.072267e+003
6.150351e+002, 1.073184e+003
6.155172e+002, 1.074683e+003
6.159993e+002, 1.077015e+003
6.164814e+002, 1.078829e+003
6.169636e+002, 1.079746e+003
6.174457e+002, 1.080334e+003
6.179278e+002, 1.081707e+003
6.184099e+002, 1.083813e+003
6.188920e+002, 1.086116e+003
6.193741e+002, 1.088459e+003
6.198563e+002, 1.090825e+003
6.203384e+002, 1.093205e+003
6.208205e+002, 1.095566e+003
6.213026e+002, 1.097783e+003
6.217847e+002, 1.099752e+003
6.222668e+002, 1.101575e+003
6.227490e+002, 1.102931e+003
6.232311e+002, 1.103663e+003
6.237132e+002, 1.105691e+003
6.241953e+002, 1.111453e+003
6.246774e+002, 1.117399e+003
6.251595e+002, 1.121016e+003
6.256417e+002, 1.121020e+003
6.261238e+002, 1.121097e+003
6.266059e+002, 1.120755e+003
6.270880e+002, 1.121062e+003
6.275701e+002, 1.123992e+003
6.280522e+002, 1.129939e+003
6.285344e+002, 1.134658e+003
6.290165e+002, 1.136906e+003
6.294986e+002, 1.137978e+003
6.299807e+002, 1.140290e+003
6.304628e+002, 1.143690e+003
6.309449e+002, 1.147294e+003
6.314271e+002, 1.150575e+003
6.319092e+002, 1.153901e+003
6.323913e+002, 1.157599e+003
6.328734e+002, 1.161678e+003
6.333555e+002, 1.166122e+003
6.338376e+002, 1.171811e+003
6.343198e+002, 1.177184e+003
6.348019e+002, 1.180927e+003
6.352840e+002, 1.182338e+003
6.357661e+002, 1.185249e+003
6.362482e+002, 1.191633e+003
6.367303e+002, 1.198352e+003
6.372125e+002, 1.203069e+003
6.376946e+002, 1.204596e+003
6.381767e+002, 1.207868e+003
6.386588e+002, 1.213661e+003
6.391409e+002, 1.220228e+003
6.396230e+002, 1.224682e+003
6.401052e+002, 1.227221e+003
6.405873e+002, 1.230487e+003
6.410694e+002, 1.235222e+003
6.415515e+002, 1.240836e+003
6.420336e+002, 1.246756e+003
6.425157e+002, 1.252778e+003
6.429979e+002, 1.258410e+003
6.434800e+002, 1.262621e+003
6.439621e+002, 1.266939e+003
6.444442e+002, 1.272607e+003
6.449263e+002, 1.279412e+003
6.454084e+002, 1.285940e+003
6.458906e+002, 1.291091e+003
6.463727e+002, 1.296373e+003
6.468548e+002, 1.302662e+003
6.473369e+002, 1.310119e+003
6.478190e+002, 1.317206e+003
6.483011e+002, 1.324057e+003
6.487833e+002, 1.330259e+003
6.492654e+002, 1.334958e+003
6.497475e+002, 1.337973e+003
6.502296e+002, 1.342594e+003
6.507117e+002, 1.349135e+003
6.511938e+002, 1.356787e+003
6.516760e+002, 1.364969e+003
6.521581e+002, 1.373437e+003
6.526402e+002, 1.381113e+003
6.531223e+002, 1.387469e+003
6.536044e+002, 1.393476e+003
6.540865e+002, 1.400448e+003
6.545687e+002, 1.407764e+003
6.550508e+002, 1.414266e+003
6.555329e+002, 1.418051e+003
6.560150e+002, 1.422542e+003
6.564971e+002, 1.429550e+003
6.569792e+002, 1.438547e+003
6.574614e+002, 1.446725e+003
6.579435e+002, 1.453848e+003
6.584256e+002, 1.460286e+003
6.589077e+002, 1.465961e+003
6.593898e+002, 1.470913e+003
6.598719e+002, 1.476514e+003
6.603541e+002, 1.483059e+003
6.608362e+002, 1.488827e+003
6.613183e+002, 1.491945e+003
6.618004e+002, 1.493202e+003
6.622825e+002, 1.496053e+003
6.627646e+002, 1.500752e+003
6.632468e+002, 1.505901e+003
6.637289e+002, 1.510873e+003
6.642110e+002, 1.515328e+003
6.646931e+002, 1.518591e+003
6.651752e+002, 1.519890e+003
6.656573e+002, 1.521740e+003
6.661395e+002, 1.526330e+003
6.666216e+002, 1.531715e+003
6.671037e+002, 1.535498e+003
6.675858e+002, 1.535353e+003
6.680679e+002, 1.536172e+003
6.685500e+002, 1.538766e+003
6.690322e+002, 1.542330e+003
6.695143e+002, 1.545259e+003
6.699964e+002, 1.547699e+003
6.704785e+002, 1.548751e+003
6.709606e+002, 1.547670e+003
6.714427e+002, 1.545325e+003
6.719249e+002, 1.544301e+003
6.724070e+002, 1.544417e+003
6.728891e+002, 1.544289e+003
6.733712e+002, 1.542864e+003
6.738533e+002, 1.540896e+003
6.743354e+002, 1.539318e+003
6.748176e+002, 1.538103e+003
6.752997e+002, 1.536713e+003
6.757818e+002, 1.534741e+003
6.762639e+002, 1.532641e+003
6.767460e+002, 1.530896e+003
6.772281e+002, 1.530006e+003
6.777103e+002, 1.527704e+003
6.781924e+002, 1.522932e+003
6.786745e+002, 1.517755e+003
6.791566e+002, 1.513599e+003
6.796387e+002, 1.510582e+003
6.801208e+002, 1.508229e+003
6.806030e+002, 1.506875e+003
6.810851e+002, 1.505141e+003
6.815672e+002, 1.500878e+003
6.820493e+002, 1.494590e+003
6.825314e+002, 1.488188e+003
6.830135e+002, 1.481996e+003
6.834957e+002, 1.476279e+003
6.839778e+002, 1.472096e+003
6.844599e+002, 1.468527e+003
6.849420e+002, 1.464020e+003
6.854241e+002, 1.456747e+003
6.859063e+002, 1.449653e+003
6.863884e+002, 1.444073e+003
6.868705e+002, 1.439572e+003
6.873526e+002, 1.434484e+003
6.878347e+002, 1.428131e+003
6.883168e+002, 1.422016e+003
6.887990e+002, 1.416859e+003
6.892811e+002, 1.412351e+003
6.897632e+002, 1.406600e+003
6.902453e+002, 1.399445e+003
6.907274e+002, 1.392356e+003
6.912095e+002, 1.386242e+003
6.916917e+002, 1.380918e+003
6.921738e+002, 1.375915e+003
6.926559e+002, 1.371253e+003
6.931380e+002, 1.366276e+003
6.936201e+002, 1.359782e+003
6.941022e+002, 1.353176e+003
6.945844e+002, 1.348052e+003
6.950665e+002, 1.344927e+003
6.955486e+002, 1.341171e+003
6.960307e+002, 1.335140e+003
6.965128e+002, 1.328581e+003
6.969949e+002, 1.322845e+003
6.974771e+002, 1.318611e+003
6.979592e+002, 1.313861e+003
6.984413e+002, 1.308455e+003
6.989234e+002, 1.302794e+003
6.994055e+002, 1.297455e+003
6.998876e+002, 1.292473e+003
7.003698e+002, 1.287036e+003
7.008519e+002, 1.280980e+003
7.013340e+002, 1.274733e+003
7.018161e+002, 1.268569e+003
7.022982e+002, 1.262723e+003
7.027803e+002, 1.257797e+003
7.032625e+002, 1.254604e+003
7.037446e+002, 1.251679e+003
7.042267e+002, 1.247702e+003
7.047088e+002, 1.243305e+003
7.051909e+002, 1.239910e+003
7.056730e+002, 1.239459e+003
7.061552e+002, 1.238283e+003
7.066373e+002, 1.235127e+003
7.071194e+002, 1.230463e+003
7.076015e+002, 1.226467e+003
7.080836e+002, 1.223171e+003
7.085657e+002, 1.220461e+003
7.090479e+002, 1.218363e+003
7.095300e+002, 1.216762e+003
7.100121e+002, 1.215523e+003
7.104942e+002, 1.214587e+003
7.109763e+002, 1.212988e+003
7.114584e+002, 1.209245e+003
7.119406e+002, 1.204886e+003
7.124227e+002, 1.202077e+003
7.129048e+002, 1.200872e+003
7.133869e+002, 1.199347e+003
7.138690e+002, 1.195936e+003
7.143511e+002, 1.192383e+003
7.148333e+002, 1.190018e+003
7.153154e+002, 1.189775e+003
7.157975e+002, 1.188116e+003
7.162796e+002, 1.183986e+003
7.167617e+002, 1.179753e+003
7.172438e+002, 1.177513e+003
7.177260e+002, 1.177566e+003
7.182081e+002, 1.176548e+003
7.186902e+002, 1.174060e+003
7.191723e+002, 1.171421e+003
7.196544e+002, 1.170230e+003
7.201365e+002, 1.170119e+003
7.206187e+002, 1.170341e+003
7.211008e+002, 1.171046e+003
7.215829e+002, 1.171045e+003
7.220650e+002, 1.168199e+003
7.225471e+002, 1.164504e+003
7.230292e+002, 1.162585e+003
7.235114e+002, 1.164735e+003
7.239935e+002, 1.166850e+003
7.244756e+002, 1.168776e+003
7.249577e+002, 1.170110e+003
7.254398e+002, 1.169895e+003
7.259219e+002, 1.167298e+003
7.264041e+002, 1.165712e+003
7.268862e+002, 1.166072e+003
7.273683e+002, 1.167643e+003
7.278504e+002, 1.168876e+003
7.283325e+002, 1.169770e+003
7.288146e+002, 1.170315e+003
7.292968e+002, 1.170386e+003
7.297789e+002, 1.170198e+003
7.302610e+002, 1.169858e+003
7.307431e+002, 1.169440e+003
7.312252e+002, 1.169201e+003
7.317073e+002, 1.169143e+003
7.321895e+002, 1.169389e+003
7.326716e+002, 1.170122e+003
7.331537e+002, 1.171310e+003
7.336358e+002, 1.172397e+003
7.341179e+002, 1.173599e+003
7.346000e+002, 1.174366e+003
7.350822e+002, 1.174384e+003
7.355643e+002, 1.173736e+003
7.360464e+002, 1.172954e+003
7.365285e+002, 1.172007e+003
7.370106e+002, 1.171652e+003
7.374927e+002, 1.172764e+003
7.379749e+002, 1.174706e+003
7.384570e+002, 1.176483e+003
7.389391e+002, 1.178028e+003
7.394212e+002, 1.179415e+003
7.399033e+002, 1.180521e+003
7.403854e+002, 1.181589e+003
7.408676e+002, 1.182847e+003
7.413497e+002, 1.184439e+003
7.418318e+002, 1.185683e+003
7.423139e+002, 1.186346e+003
7.427960e+002, 1.186872e+003
7.432781e+002, 1.187448e+003
7.437603e+002, 1.187982e+003
7.442424e+002, 1.189357e+003
7.447245e+002, 1.191766e+003
7.452066e+002, 1.194375e+003
7.456887e+002, 1.196358e+003
7.461708e+002, 1.197898e+003
7.466530e+002, 1.199482e+003
7.471351e+002, 1.201262e+003
7.476172e+002, 1.202758e+003
7.480993e+002, 1.203178e+003
7.485814e+002, 1.203329e+003
7.490635e+002, 1.204094e+003
7.495457e+002, 1.205779e+003
7.500278e+002, 1.207951e+003
7.505099e+002, 1.210721e+003
7.509920e+002, 1.213764e+003
7.514741e+002, 1.216780e+003
7.519562e+002, 1.219822e+003
7.524384e+002, 1.222303e+003
7.529205e+002, 1.223942e+003
7.534026e+002, 1.225285e+003
7.538847e+002, 1.227197e+003
7.543668e+002, 1.229551e+003
7.548489e+002, 1.231968e+003
7.553311e+002, 1.234521e+003
7.558132e+002, 1.236713e+003
7.562953e+002, 1.237608e+003
7.567774e+002, 1.237908e+003
7.572595e+002, 1.238826e+003
7.577416e+002, 1.241949e+003
7.582238e+002, 1.244342e+003
7.587059e+002, 1.244846e+003
7.591880e+002, 1.244361e+003
7.596701e+002, 1.244706e+003
7.601522e+002, 1.246047e+003
7.606343e+002, 1.247815e+003
7.611165e+002, 1.250021e+003
7.615986e+002, 1.252467e+003
7.620807e+002, 1.254780e+003
7.625628e+002, 1.256938e+003
7.630449e+002, 1.258777e+003
7.635270e+002, 1.260442e+003
7.640092e+002, 1.261552e+003
7.644913e+002, 1.260948e+003
7.649734e+002, 1.259386e+003
7.654555e+002, 1.259221e+003
7.659376e+002, 1.263048e+003
7.664197e+002, 1.266549e+003
7.669019e+002, 1.267740e+003
7.673840e+002, 1.267220e+003
7.678661e+002, 1.267907e+003
7.683482e+002, 1.270256e+003
7.688303e+002, 1.272458e+003
7.693124e+002, 1.273835e+003
7.697946e+002, 1.274481e+003
7.702767e+002, 1.274398e+003
7.707588e+002, 1.273710e+003
7.712409e+002, 1.273597e+003
7.717230e+002, 1.275652e+003
7.722051e+002, 1.278021e+003
7.726873e+002, 1.278405e+003
7.731694e+002, 1.277120e+003
7.736515e+002, 1.276774e+003
7.741336e+002, 1.279542e+003
7.746157e+002, 1.282237e+003
7.750978e+002, 1.283203e+003
7.755800e+002, 1.282537e+003
7.760621e+002, 1.283096e+003
7.765442e+002, 1.285334e+003
7.770263e+002, 1.287536e+003
7.775084e+002, 1.288779e+003
7.779905e+002, 1.289194e+003
7.784727e+002, 1.289104e+003
7.789548e+002, 1.288547e+003
7.794369e+002, 1.288341e+003
7.799190e+002, 1.289510e+003
7.804011e+002, 1.291000e+003
7.808832e+002, 1.291721e+003
7.813654e+002, 1.291592e+003
7.818475e+002, 1.291469e+003
7.823296e+002, 1.291649e+003
7.828117e+002, 1.291873e+003
7.832938e+002, 1.292055e+003
7.837759e+002, 1.292218e+003
7.842581e+002, 1.292069e+003
7.847402e+002, 1.291447e+003
7.852223e+002, 1.291090e+003
7.857044e+002, 1.292143e+003
7.861865e+002, 1.293964e+003
7.866686e+002, 1.293455e+003
7.871508e+002, 1.290578e+003
7.876329e+002, 1.288096e+003
7.881150e+002, 1.288521e+003
7.885971e+002, 1.290033e+003
7.890792e+002, 1.290995e+003
7.895613e+002, 1.291208e+003
7.900435e+002, 1.291043e+003
7.905256e+002, 1.289883e+003
7.910077e+002, 1.288954e+003
7.914898e+002, 1.288962e+003
7.919719e+002, 1.290054e+003
7.924540e+002, 1.290980e+003
7.929362e+002, 1.291783e+003
7.934183e+002, 1.292079e+003
7.939004e+002, 1.291285e+003
7.943825e+002, 1.289731e+003
7.948646e+002, 1.288524e+003
7.953467e+002, 1.287744e+003
7.958289e+002, 1.286500e+003
7.963110e+002, 1.283498e+003
7.967931e+002, 1.280225e+003
7.972752e+002, 1.278162e+003
7.977573e+002, 1.277903e+003
7.982394e+002, 1.276919e+003
7.987216e+002, 1.273767e+003
7.992037e+002, 1.271119e+003
7.996858e+002, 1.271058e+003
8.001679e+002, 1.274128e+003
8.006500e+002, 1.275597e+003
8.011321e+002, 1.275363e+003
8.016143e+002, 1.274362e+003
8.020964e+002, 1.273447e+003
8.025785e+002, 1.272374e+003
8.030606e+002, 1.270490e+003
8.035427e+002, 1.267661e+003
8.040248e+002, 1.264886e+003
8.045070e+002, 1.261749e+003
8.049891e+002, 1.259544e+003
8.054712e+002, 1.259727e+003
8.059533e+002, 1.263943e+003
8.064354e+002, 1.265450e+003
8.069175e+002, 1.262847e+003
8.073997e+002, 1.259510e+003
8.078818e+002, 1.258210e+003
8.083639e+002, 1.258882e+003
8.088460e+002, 1.257883e+003
8.093281e+002, 1.254979e+003
8.098102e+002, 1.251779e+003
8.102924e+002, 1.249153e+003
8.107745e+002, 1.247394e+003
8.112566e+002, 1.247463e+003
8.117387e+002, 1.249777e+003
8.122208e+002, 1.250937e+003
8.127029e+002, 1.248309e+003
8.131851e+002, 1.244973e+003
8.136672e+002, 1.243165e+003
8.141493e+002, 1.243406e+003
8.146314e+002, 1.243004e+003
8.151135e+002, 1.241730e+003
8.155956e+002, 1.240395e+003
8.160778e+002, 1.239871e+003
8.165599e+002, 1.239886e+003
8.170420e+002, 1.238981e+003
8.175241e+002, 1.237040e+003
8.180062e+002, 1.235344e+003
8.184883e+002, 1.235427e+003
8.189705e+002, 1.235866e+003
8.194526e+002, 1.235075e+003
8.199347e+002, 1.232627e+003
8.204168e+002, 1.230726e+003
8.208989e+002, 1.230256e+003
8.213810e+002, 1.230055e+003
8.218632e+002, 1.229506e+003
8.223453e+002, 1.228545e+003
8.228274e+002, 1.228111e+003
8.233095e+002, 1.228344e+003
8.237916e+002, 1.228435e+003
8.242737e+002, 1.227812e+003
8.247559e+002, 1.226595e+003
8.252380e+002, 1.224602e+003
8.257201e+002, 1.221908e+003
8.262022e+002, 1.220013e+003
8.266843e+002, 1.221088e+003
8.271664e+002, 1.222320e+003
8.276486e+002, 1.221420e+003
8.281307e+002, 1.217680e+003
8.286128e+002, 1.215681e+003
8.290949e+002, 1.215953e+003
8.295770e+002, 1.217045e+003
8.300591e+002, 1.218705e+003
8.305413e+002, 1.220712e+003
8.310234e+002, 1.220171e+003
8.315055e+002, 1.217110e+003
8.319876e+002, 1.214432e+003
8.324697e+002, 1.214505e+003
8.329518e+002, 1.215845e+003
8.334340e+002, 1.216959e+003
8.339161e+002, 1.217770e+003
8.343982e+002, 1.218633e+003
8.348803e+002, 1.220146e+003
8.353624e+002, 1.221259e+003
8.358445e+002, 1.221554e+003
8.363267e+002, 1.221052e+003
8.368088e+002, 1.219799e+003
8.372909e+002, 1.217450e+003
8.377730e+002, 1.216013e+003
8.382551e+002, 1.217183e+003
8.387372e+002, 1.219904e+003
8.392194e+002, 1.221555e+003
8.397015e+002, 1.222267e+003
8.401836e+002, 1.222781e+003
8.406657e+002, 1.223424e+003
8.411478e+002, 1.224089e+003
8.416299e+002, 1.224606e+003
8.421121e+002, 1.225023e+003
8.425942e+002, 1.225759e+003
8.430763e+002, 1.226924e+003
8.435584e+002, 1.228218e+003
8.440405e+002, 1.229567e+003
8.445226e+002, 1.230951e+003
8.450048e+002, 1.232220e+003
8.454869e+002, 1.233391e+003
8.459690e+002, 1.234894e+003
8.464511e+002, 1.237591e+003
8.469332e+002, 1.240165e+003
8.474153e+002, 1.240110e+003
8.478975e+002, 1.238683e+003
8.483796e+002, 1.239426e+003
8.488617e+002, 1.247536e+003
8.493438e+002, 1.253386e+003
8.498259e+002, 1.252908e+003
8.503080e+002, 1.248702e+003
8.507902e+002, 1.247523e+003
8.512723e+002, 1.249886e+003
8.517544e+002, 1.252258e+003
8.522365e+002, 1.253548e+003
8.527186e+002, 1.254471e+003
8.532007e+002, 1.256463e+003
8.536829e+002, 1.259136e+003
8.541650e+002, 1.261427e+003
8.546471e+002, 1.262576e+003
8.551292e+002, 1.263693e+003
8.556113e+002, 1.265248e+003
8.560934e+002, 1.267118e+003
8.565756e+002, 1.269147e+003
8.570577e+002, 1.271510e+003
8.575398e+002, 1.273611e+003
8.580219e+002, 1.275366e+003
8.585040e+002, 1.276907e+003
8.589861e+002, 1.278191e+003
8.594683e+002, 1.279356e+003
8.599504e+002, 1.281374e+003
8.604325e+002, 1.284831e+003
8.609146e+002, 1.287912e+003
8.613967e+002, 1.288416e+003
8.618788e+002, 1.287763e+003
8.623610e+002, 1.287751e+003
8.628431e+002, 1.289483e+003
8.633252e+002, 1.290605e+003
8.638073e+002, 1.290560e+003
8.642894e+002, 1.290242e+003
8.647715e+002, 1.290714e+003
8.652537e+002, 1.292076e+003
8.657358e+002, 1.292431e+003
8.662179e+002, 1.291553e+003
8.667000e+002, 1.290414e+003
8.671821e+002, 1.290102e+003
8.676642e+002, 1.290136e+003
8.681464e+002, 1.289808e+003
8.686285e+002, 1.288977e+003
8.691106e+002, 1.288080e+003
8.695927e+002, 1.287393e+003
8.700748e+002, 1.286589e+003
8.705569e+002, 1.285393e+003
8.710391e+002, 1.283692e+003
8.715212e+002, 1.282207e+003
8.720033e+002, 1.280888e+003
8.724854e+002, 1.279845e+003
8.729675e+002, 1.279455e+003
8.734496e+002, 1.279293e+003
8.739318e+002, 1.278550e+003
8.744139e+002, 1.277151e+003
8.748960e+002, 1.274879e+003
8.753781e+002, 1.271343e+003
8.758602e+002, 1.267114e+003
8.763423e+002, 1.262325e+003
8.768245e+002, 1.257061e+003
8.773066e+002, 1.252261e+003
8.777887e+002, 1.248170e+003
8.782708e+002, 1.244128e+003
8.787529e+002, 1.239889e+003
8.792350e+002, 1.235586e+003
8.797172e+002, 1.231495e+003
8.801993e+002, 1.227666e+003
8.806814e+002, 1.223907e+003
8.811635e+002, 1.220447e+003
8.816456e+002, 1.216748e+003
8.821277e+002, 1.212305e+003
8.826099e+002, 1.207274e+003
8.830920e+002, 1.202127e+003
8.835741e+002, 1.196167e+003
8.840562e+002, 1.191233e+003
8.845383e+002, 1.188214e+003
8.850204e+002, 1.185725e+003
8.855026e+002, 1.180409e+003
8.859847e+002, 1.172434e+003
8.864668e+002, 1.164581e+003
8.869489e+002, 1.157524e+003
8.874310e+002, 1.151110e+003
8.879131e+002, 1.145775e+003
8.883953e+002, 1.140882e+003
8.888774e+002, 1.135430e+003
8.893595e+002, 1.129167e+003
8.898416e+002, 1.122302e+003
8.903237e+002, 1.114353e+003
8.908058e+002, 1.106307e+003
8.912880e+002, 1.099300e+003
8.917701e+002, 1.093529e+003
8.922522e+002, 1.086512e+003
8.927343e+002, 1.077800e+003
8.932164e+002, 1.069140e+003
8.936985e+002, 1.062718e+003
8.941807e+002, 1.057373e+003
8.946628e+002, 1.051371e+003
8.951449e+002, 1.044454e+003
8.956270e+002, 1.037019e+003
8.961091e+002, 1.028503e+003
8.965912e+002, 1.020062e+003
8.970734e+002, 1.012307e+003
8.975555e+002, 1.005355e+003
8.980376e+002, 9.985144e+002
8.985197e+002, 9.918707e+002
8.990018e+002, 9.852491e+002
8.994839e+002, 9.784604e+002
8.999661e+002, 9.717325e+002
9.004482e+002, 9.657914e+002
9.009303e+002, 9.604205e+002
9.014124e+002, 9.545404e+002
9.018945e+002, 9.465172e+002
9.023766e+002, 9.388582e+002
9.028588e+002, 9.331415e+002
9.033409e+002, 9.288760e+002
9.038230e+002, 9.232908e+002
9.043051e+002, 9.157532e+002
9.047872e+002, 9.092383e+002
9.052693e+002, 9.050850e+002
9.057515e+002, 9.019510e+002
9.062336e+002, 8.969213e+002
9.067157e+002, 8.905687e+002
9.071978e+002, 8.845617e+002
9.076799e+002, 8.794709e+002
9.081620e+002, 8.750444e+002
9.086442e+002, 8.719333e+002
9.091263e+002, 8.691299e+002
9.096084e+002, 8.648810e+002
9.100905e+002, 8.585071e+002
9.105726e+002, 8.524691e+002
9.110547e+002, 8.469044e+002
9.115369e+002, 8.417332e+002
9.120190e+002, 8.364879e+002
9.125011e+002, 8.315414e+002
9.129832e+002, 8.281627e+002
9.134653e+002, 8.267591e+002
9.139474e+002, 8.256356e+002
9.144296e+002, 8.241270e+002
9.149117e+002, 8.221506e+002
9.153938e+002, 8.196250e+002
9.158759e+002, 8.165526e+002
9.163580e+002, 8.127040e+002
9.168401e+002, 8.076150e+002
9.173223e+002, 8.028634e+002
9.178044e+002, 7.999256e+002
9.182865e+002, 7.982278e+002
9.187686e+002, 7.954197e+002
9.192507e+002, 7.915986e+002
9.197328e+002, 7.878317e+002
9.202150e+002, 7.847007e+002
9.206971e+002, 7.819304e+002
9.211792e+002, 7.794235e+002
9.216613e+002, 7.771399e+002
9.221434e+002, 7.747903e+002
9.226255e+002, 7.720871e+002
9.231077e+002, 7.700440e+002
9.235898e+002, 7.692795e+002
9.240719e+002, 7.690018e+002
9.245540e+002, 7.670480e+002
9.250361e+002, 7.638277e+002
9.255182e+002, 7.610707e+002
9.260004e+002, 7.594345e+002
9.264825e+002, 7.583372e+002
9.269646e+002, 7.579226e+002
9.274467e+002, 7.575983e+002
9.279288e+002, 7.564020e+002
9.284109e+002, 7.534678e+002
9.288931e+002, 7.514234e+002
9.293752e+002, 7.507161e+002
9.298573e+002, 7.502823e+002
9.303394e+002, 7.487704e+002
9.308215e+002, 7.465139e+002
9.313036e+002, 7.447061e+002
9.317858e+002, 7.435179e+002
9.322679e+002, 7.423619e+002
9.327500e+002, 7.407521e+002
9.332321e+002, 7.390759e+002
9.337142e+002, 7.376736e+002
9.341964e+002, 7.366680e+002
9.346785e+002, 7.351912e+002
9.351606e+002, 7.329234e+002
9.356427e+002, 7.310400e+002
9.361248e+002, 7.304226e+002
9.366069e+002, 7.305951e+002
9.370891e+002, 7.299403e+002
9.375712e+002, 7.285833e+002
9.380533e+002, 7.272024e+002
9.385354e+002, 7.259283e+002
9.390175e+002, 7.249554e+002
9.394996e+002, 7.245546e+002
9.399818e+002, 7.245328e+002
9.404639e+002, 7.243505e+002
9.409460e+002, 7.239035e+002
9.414281e+002, 7.235228e+002
9.419102e+002, 7.233567e+002
9.423923e+002, 7.230876e+002
9.428745e+002, 7.219750e+002
9.433566e+002, 7.203353e+002
9.438387e+002, 7.190845e+002
9.443208e+002, 7.184395e+002
9.448029e+002, 7.182762e+002
9.452850e+002, 7.189767e+002
9.457672e+002, 7.198546e+002
9.462493e+002, 7.202334e+002
9.467314e+002, 7.199562e+002
9.472135e+002, 7.199472e+002
9.476956e+002, 7.204509e+002
9.481777e+002, 7.204225e+002
9.486599e+002, 7.183798e+002
9.491420e+002, 7.153753e+002
9.496241e+002, 7.141544e+002
9.501062e+002, 7.145897e+002
9.505883e+002, 7.150871e+002
9.510704e+002, 7.145679e+002
9.515526e+002, 7.141027e+002
9.520347e+002, 7.145881e+002
9.525168e+002, 7.156121e+002
9.529989e+002, 7.154548e+002
9.534810e+002, 7.138087e+002
9.539631e+002, 7.124363e+002
9.544453e+002, 7.118945e+002
9.549274e+002, 7.117848e+002
9.554095e+002, 7.116742e+002
9.558916e+002, 7.114619e+002
9.563737e+002, 7.108644e+002
9.568558e+002, 7.093459e+002
9.573380e+002, 7.082948e+002
9.578201e+002, 7.085113e+002
9.583022e+002, 7.092078e+002
9.587843e+002, 7.097008e+002
9.592664e+002, 7.099931e+002
9.597485e+002, 7.101182e+002
9.602307e+002, 7.100911e+002
9.607128e+002, 7.098121e+002
9.611949e+002, 7.091891e+002
9.616770e+002, 7.082542e+002
9.621591e+002, 7.067346e+002
9.626412e+002, 7.046912e+002
9.631234e+002, 7.035050e+002
9.636055e+002, 7.042697e+002
9.640876e+002, 7.053233e+002
9.645697e+002, 7.063104e+002
9.650518e+002, 7.070668e+002
9.655339e+002, 7.066797e+002
9.660161e+002, 7.051400e+002
9.664982e+002, 7.038348e+002
9.669803e+002, 7.032716e+002
9.674624e+002, 7.032003e+002
9.679445e+002, 7.037777e+002
9.684266e+002, 7.045461e+002
9.689088e+002, 7.047404e+002
9.693909e+002, 7.033381e+002
9.698730e+002, 7.025416e+002
9.703551e+002, 7.026622e+002
9.708372e+002, 7.032033e+002
9.713193e+002, 7.038906e+002
9.718015e+002, 7.046447e+002
9.722836e+002, 7.045114e+002
9.727657e+002, 7.034010e+002
9.732478e+002, 7.022675e+002
9.737299e+002, 7.016082e+002
9.742120e+002, 7.014293e+002
9.746942e+002, 7.019111e+002
9.751763e+002, 7.030649e+002
9.756584e+002, 7.038987e+002
9.761405e+002, 7.041796e+002
9.766226e+002, 7.045697e+002
9.771047e+002, 7.053763e+002
9.775869e+002, 7.063923e+002
9.780690e+002, 7.070527e+002
9.785511e+002, 7.074006e+002
9.790332e+002, 7.076417e+002
9.795153e+002, 7.079213e+002
9.799974e+002, 7.080092e+002
9.804796e+002, 7.075605e+002
9.809617e+002, 7.069396e+002
9.814438e+002, 7.067220e+002
9.819259e+002, 7.072371e+002
9.824080e+002, 7.070851e+002
9.828901e+002, 7.060635e+002
9.833723e+002, 7.049228e+002
9.838544e+002, 7.044435e+002
9.843365e+002, 7.043810e+002
9.848186e+002, 7.042305e+002
9.853007e+002, 7.039633e+002
9.857828e+002, 7.039561e+002
9.862650e+002, 7.048021e+002
9.867471e+002, 7.054875e+002
9.872292e+002, 7.054428e+002
9.877113e+002, 7.048563e+002
9.881934e+002, 7.048394e+002
9.886755e+002, 7.054211e+002
9.891577e+002, 7.056687e+002
9.896398e+002, 7.049100e+002
9.901219e+002, 7.041544e+002
9.906040e+002, 7.049946e+002
9.910861e+002, 7.065856e+002
9.915682e+002, 7.075005e+002
9.920504e+002, 7.068792e+002
9.925325e+002, 7.061939e+002
9.930146e+002, 7.053137e+002
9.934967e+002, 7.047402e+002
9.939788e+002, 7.054753e+002
9.944609e+002, 7.071990e+002
9.949431e+002, 7.064901e+002
9.954252e+002, 7.031882e+002
9.959073e+002, 7.004857e+002
9.963894e+002, 7.015504e+002
9.968715e+002, 7.033975e+002
9.973536e+002, 7.037082e+002
9.978358e+002, 7.025009e+002
9.983179e+002, 7.018832e+002
9.988000e+002, 7.020504e+002
9.992821e+002, 7.024672e+002
9.997642e+002, 7.031432e+002
1.000246e+003, 7.037479e+002
1.000728e+003, 7.033526e+002
1.001211e+003, 7.023504e+002
1.001693e+003, 7.017891e+002
1.002175e+003, 7.021984e+002
1.002657e+003, 7.026318e+002
1.003139e+003, 7.025231e+002
1.003621e+003, 7.023748e+002
1.004103e+003, 7.027307e+002
1.004585e+003, 7.037907e+002
1.005068e+003, 7.040256e+002
1.005550e+003, 7.033373e+002
1.006032e+003, 7.027336e+002
1.006514e+003, 7.032037e+002
1.006996e+003, 7.040338e+002
1.007478e+003, 7.042421e+002
1.007960e+003, 7.039277e+002
1.008442e+003, 7.038821e+002
1.008924e+003, 7.045912e+002
1.009407e+003, 7.052595e+002
1.009889e+003, 7.058432e+002
1.010371e+003, 7.061922e+002
1.010853e+003, 7.058605e+002
1.011335e+003, 7.049583e+002
1.011817e+003, 7.042828e+002
1.012299e+003, 7.041200e+002
1.012781e+003, 7.038135e+002
1.013263e+003, 7.025309e+002
1.013746e+003, 7.011019e+002
1.014228e+003, 7.003458e+002
1.014710e+003, 7.004097e+002
1.015192e+003, 7.007768e+002
1.015674e+003, 7.015250e+002
1.016156e+003, 7.023672e+002
1.016638e+003, 7.034145e+002
1.017120e+003, 7.043022e+002
1.017603e+003, 7.035858e+002
1.018085e+003, 7.018830e+002
1.018567e+003, 7.014228e+002
1.019049e+003, 7.049200e+002
1.019531e+003, 7.076534e+002
1.020013e+003, 7.075867e+002
1.020495e+003, 7.063847e+002
1.020977e+003, 7.065967e+002
1.021459e+003, 7.082599e+002
1.021942e+003, 7.093206e+002
1.022424e+003, 7.095657e+002
1.022906e+003, 7.087819e+002
1.023388e+003, 7.052491e+002
1.023870e+003, 7.016113e+002
1.024352e+003, 7.010935e+002
1.024834e+003, 7.043305e+002
1.025316e+003, 7.058494e+002
1.025799e+003, 7.043618e+002
1.026281e+003, 7.031826e+002
1.026763e+003, 7.038851e+002
1.027245e+003, 7.055840e+002
1.027727e+003, 7.058554e+002
1.028209e+003, 7.051073e+002
1.028691e+003, 7.047236e+002
1.029173e+003, 7.057746e+002
1.029656e+003, 7.064463e+002
1.030138e+003, 7.050676e+002
1.030620e+003, 7.034061e+002
1.031102e+003, 7.034794e+002
1.031584e+003, 7.057546e+002
1.032066e+003, 7.070255e+002
1.032548e+003, 7.071586e+002
1.033030e+003, 7.068979e+002
1.033512e+003, 7.063639e+002
1.033995e+003, 7.060993e+002
1.034477e+003, 7.073278e+002
1.034959e+003, 7.096818e+002
1.035441e+003, 7.106774e+002
1.035923e+003, 7.083151e+002
1.036405e+003, 7.067614e+002
1.036887e+003, 7.071300e+002
1.037369e+003, 7.083845e+002
1.037851e+003, 7.084537e+002
1.038334e+003, 7.076335e+002
1.038816e+003, 7.070865e+002
1.039298e+003, 7.071539e+002
1.039780e+003, 7.071673e+002
1.040262e+003, 7.064172e+002
1.040744e+003, 7.056901e+002
1.041226e+003, 7.057578e+002
1.041708e+003, 7.067053e+002
1.042191e+003, 7.068171e+002
1.042673e+003, 7.059584e+002
1.043155e+003, 7.054704e+002
1.043637e+003, 7.064243e+002
1.044119e+003, 7.078625e+002
1.044601e+003, 7.086123e+002
1.045083e+003, 7.087936e+002
1.045565e+003, 7.086556e+002
1.046047e+003, 7.075902e+002
1.046530e+003, 7.072910e+002
1.047012e+003, 7.083698e+002
1.047494e+003, 7.095393e+002
1.047976e+003, 7.088232e+002
1.048458e+003, 7.068345e+002
1.048940e+003, 7.069420e+002
1.049422e+003, 7.093322e+002
1.049904e+003, 7.114736e+002
1.050386e+003, 7.116803e+002
1.050869e+003, 7.112520e+002
1.051351e+003, 7.105990e+002
1.051833e+003, 7.099459e+002
1.052315e+003, 7.102983e+002
1.052797e+003, 7.118344e+002
1.053279e+003, 7.130120e+002
1.053761e+003, 7.134269e+002
1.054243e+003, 7.133291e+002
1.054726e+003, 7.126707e+002
1.055208e+003, 7.118652e+002
1.055690e+003, 7.115127e+002
1.056172e+003, 7.118623e+002
1.056654e+003, 7.123154e+002
1.057136e+003, 7.130146e+002
1.057618e+003, 7.134401e+002
1.058100e+003, 7.130848e+002
1.058583e+003, 7.122421e+002
1.059065e+003, 7.120010e+002
1.059547e+003, 7.123182e+002
1.060029e+003, 7.129922e+002
1.060511e+003, 7.146213e+002
1.060993e+003, 7.157654e+002
1.061475e+003, 7.155484e+002
1.061957e+003, 7.146146e+002
1.062439e+003, 7.137103e+002
1.062922e+003, 7.127815e+002
1.063404e+003, 7.125978e+002
1.063886e+003, 7.133259e+002
1.064368e+003, 7.138032e+002
1.064850e+003, 7.124111e+002
1.065332e+003, 7.106730e+002
1.065814e+003, 7.101251e+002
1.066296e+003, 7.108146e+002
1.066778e+003, 7.118278e+002
1.067261e+003, 7.135183e+002
1.067743e+003, 7.143715e+002
1.068225e+003, 7.135940e+002
1.068707e+003, 7.124534e+002
1.069189e+003, 7.140275e+002
1.069671e+003, 7.169836e+002
1.070153e+003, 7.179475e+002
1.070635e+003, 7.154822e+002
1.071118e+003, 7.132995e+002
1.071600e+003, 7.133223e+002
1.072082e+003, 7.137112e+002
1.072564e+003, 7.134227e+002
1.073046e+003, 7.125381e+002
1.073528e+003, 7.118333e+002
1.074010e+003, 7.113441e+002
1.074492e+003, 7.113928e+002
1.074974e+003, 7.126799e+002
1.075457e+003, 7.139895e+002
1.075939e+003, 7.143539e+002
1.076421e+003, 7.141531e+002
1.076903e+003, 7.140416e+002
1.077385e+003, 7.141397e+002
1.077867e+003, 7.140790e+002
1.078349e+003, 7.138394e+002
1.078831e+003, 7.134197e+002
1.079313e+003, 7.126535e+002
1.079796e+003, 7.117823e+002
1.080278e+003, 7.110963e+002
1.080760e+003, 7.106207e+002
1.081242e+003, 7.104692e+002
1.081724e+003, 7.108922e+002
1.082206e+003, 7.113688e+002
1.082688e+003, 7.117722e+002
1.083170e+003, 7.122078e+002
1.083652e+003, 7.132421e+002
1.084135e+003, 7.145198e+002
1.084617e+003, 7.144023e+002
1.085099e+003, 7.123884e+002
1.085581e+003, 7.105347e+002
1.086063e+003, 7.104623e+002
1.086545e+003, 7.105541e+002
1.087027e+003, 7.094797e+002
1.087509e+003, 7.074782e+002
1.087992e+003, 7.073669e+002
1.088474e+003, 7.091743e+002
1.088956e+003, 7.105275e+002
1.089438e+003, 7.101744e+002
1.089920e+003, 7.094802e+002
1.090402e+003, 7.098624e+002
1.090884e+003, 7.107073e+002
1.091366e+003, 7.111777e+002
1.091849e+003, 7.111021e+002
1.092331e+003, 7.107100e+002
1.092813e+003, 7.098033e+002
1.093295e+003, 7.092513e+002
1.093777e+003, 7.100655e+002
1.094259e+003, 7.114818e+002
1.094741e+003, 7.118967e+002
1.095223e+003, 7.116172e+002
1.095705e+003, 7.117848e+002
1.096188e+003, 7.132582e+002
1.096670e+003, 7.146100e+002
1.097152e+003, 7.156337e+002
1.097634e+003, 7.163845e+002
1.098116e+003, 7.170403e+002
1.098598e+003, 7.175109e+002
1.099080e+003, 7.171548e+002
1.099562e+003, 7.159319e+002
1.100044e+003, 7.150350e+002
1.100527e+003, 7.155526e+002
1.101009e+003, 7.162571e+002
1.101491e+003, 7.165759e+002
1.101973e+003, 7.165536e+002
1.102455e+003, 7.160898e+002
1.102937e+003, 7.151793e+002
1.103419e+003, 7.152096e+002
1.103901e+003, 7.168568e+002
1.104384e+003, 7.182161e+002
1.104866e+003, 7.166317e+002
1.105348e+003, 7.143494e+002
1.105830e+003, 7.138941e+002
1.106312e+003, 7.158498e+002
1.106794e+003, 7.163510e+002
1.107276e+003, 7.149997e+002
1.107758e+003, 7.137439e+002
1.108240e+003, 7.134644e+002
1.108723e+003, 7.137762e+002
1.109205e+003, 7.141728e+002
1.109687e+003, 7.146575e+002
1.110169e+003, 7.152526e+002
1.110651e+003, 7.161342e+002
1.111133e+003, 7.168171e+002
1.111615e+003, 7.173500e+002
1.112097e+003, 7.175482e+002
1.112579e+003, 7.169474e+002
1.113062e+003, 7.159233e+002
1.113544e+003, 7.160372e+002
1.114026e+003, 7.170497e+002
1.114508e+003, 7.177540e+002
1.114990e+003, 7.169367e+002
1.115472e+003, 7.165378e+002
1.115954e+003, 7.177922e+002
1.116436e+003, 7.192580e+002
1.116919e+003, 7.186660e+002
1.117401e+003, 7.162442e+002
1.117883e+003, 7.153410e+002
1.118365e+003, 7.162576e+002
1.118847e+003, 7.174597e+002
1.119329e+003, 7.179871e+002
1.119811e+003, 7.183107e+002
1.120293e+003, 7.188033e+002
1.120776e+003, 7.193453e+002
1.121258e+003, 7.194150e+002
1.121740e+003, 7.189380e+002
1.122222e+003, 7.187451e+002
1.122704e+003, 7.191238e+002
1.123186e+003, 7.192659e+002
1.123668e+003, 7.178195e+002
1.124150e+003, 7.160125e+002
1.124632e+003, 7.151762e+002
1.125115e+003, 7.155636e+002
1.125597e+003, 7.159791e+002
1.126079e+003, 7.163771e+002
1.126561e+003, 7.169303e+002
1.127043e+003, 7.178468e+002
1.127525e+003, 7.187508e+002
1.128007e+003, 7.190356e+002
1.128489e+003, 7.188806e+002
1.128971e+003, 7.185255e+002
1.129454e+003, 7.178317e+002
1.129936e+003, 7.176104e+002
1.130418e+003, 7.183132e+002
1.130900e+003, 7.187802e+002
1.131382e+003, 7.180590e+002
1.131864e+003, 7.166765e+002
1.132346e+003, 7.162437e+002
1.132828e+003, 7.165382e+002
1.133311e+003, 7.168316e+002
1.133793e+003, 7.163907e+002
1.134275e+003, 7.164755e+002
1.134757e+003, 7.177169e+002
1.135239e+003, 7.191539e+002
1.135721e+003, 7.199313e+002
1.136203e+003, 7.200731e+002
1.136685e+003, 7.197418e+002
1.137167e+003, 7.190018e+002
1.137650e+003, 7.185681e+002
1.138132e+003, 7.193733e+002
1.138614e+003, 7.200326e+002
1.139096e+003, 7.194985e+002
1.139578e+003, 7.185648e+002
1.140060e+003, 7.186559e+002
1.140542e+003, 7.198157e+002
1.141024e+003, 7.201780e+002
1.141506e+003, 7.195057e+002
1.141989e+003, 7.190945e+002
1.142471e+003, 7.207323e+002
1.142953e+003, 7.223866e+002
1.143435e+003, 7.223220e+002
1.143917e+003, 7.208420e+002
1.144399e+003, 7.196920e+002
1.144881e+003, 7.188672e+002
1.145363e+003, 7.184987e+002
1.145846e+003, 7.186603e+002
1.146328e+003, 7.190890e+002
1.146810e+003, 7.195315e+002
1.147292e+003, 7.200488e+002
1.147774e+003, 7.208856e+002
1.148256e+003, 7.220970e+002
1.148738e+003, 7.223337e+002
1.149220e+003, 7.212155e+002
1.149703e+003, 7.204625e+002
1.150185e+003, 7.208671e+002
1.150667e+003, 7.215421e+002
1.151149e+003, 7.202899e+002
1.151631e+003, 7.187461e+002
1.152113e+003, 7.199071e+002
1.152595e+003, 7.257499e+002
1.153077e+003, 7.294264e+002
1.153559e+003, 7.302928e+002
1.154042e+003, 7.295228e+002
1.154524e+003, 7.270657e+002
1.155006e+003, 7.239590e+002
1.155488e+003, 7.224272e+002
1.155970e+003, 7.221276e+002
1.156452e+003, 7.223055e+002
1.156934e+003, 7.229974e+002
1.157416e+003, 7.236743e+002
1.157898e+003, 7.244730e+002
1.158381e+003, 7.249410e+002
1.158863e+003, 7.245235e+002
1.159345e+003, 7.235014e+002
1.159827e+003, 7.231024e+002
1.160309e+003, 7.231546e+002
1.160791e+003, 7.229738e+002
1.161273e+003, 7.213036e+002
1.161755e+003, 7.206575e+002
1.162238e+003, 7.222501e+002
1.162720e+003, 7.243915e+002
1.163202e+003, 7.252192e+002
1.163684e+003, 7.249481e+002
1.164166e+003, 7.251492e+002
1.164648e+003, 7.258072e+002
1.165130e+003, 7.261024e+002
1.165612e+003, 7.248911e+002
1.166094e+003, 7.240045e+002
1.166577e+003, 7.244781e+002
1.167059e+003, 7.255748e+002
1.167541e+003, 7.263614e+002
1.168023e+003, 7.268182e+002
1.168505e+003, 7.262498e+002
1.168987e+003, 7.245826e+002
1.169469e+003, 7.232753e+002
1.169951e+003, 7.234798e+002
1.170433e+003, 7.242294e+002
1.170916e+003, 7.251364e+002
1.171398e+003, 7.260985e+002
1.171880e+003, 7.270497e+002
1.172362e+003, 7.279843e+002
1.172844e+003, 7.280068e+002
1.173326e+003, 7.267785e+002
1.173808e+003, 7.259061e+002
1.174290e+003, 7.275688e+002
1.174773e+003, 7.294102e+002
1.175255e+003, 7.290154e+002
1.175737e+003, 7.269859e+002
1.176219e+003, 7.270917e+002
1.176701e+003, 7.295018e+002
1.177183e+003, 7.302490e+002
1.177665e+003, 7.277679e+002
1.178147e+003, 7.251085e+002
1.178630e+003, 7.253770e+002
1.179112e+003, 7.267740e+002
1.179594e+003, 7.275836e+002
1.180076e+003, 7.277047e+002
1.180558e+003, 7.281862e+002
1.181040e+003, 7.291212e+002
1.181522e+003, 7.295134e+002
1.182004e+003, 7.286992e+002
1.182486e+003, 7.278046e+002
1.182969e+003, 7.282342e+002
1.183451e+003, 7.291752e+002
1.183933e+003, 7.295940e+002
1.184415e+003, 7.292600e+002
1.184897e+003, 7.291976e+002
1.185379e+003, 7.294184e+002
1.185861e+003, 7.298050e+002
1.186343e+003, 7.305078e+002
1.186825e+003, 7.310485e+002
1.187308e+003, 7.305291e+002
1.187790e+003, 7.295833e+002
1.188272e+003, 7.292712e+002
1.188754e+003, 7.300842e+002
1.189236e+003, 7.302952e+002
1.189718e+003, 7.296785e+002
1.190200e+003, 7.296485e+002
1.190682e+003, 7.321254e+002
1.191165e+003, 7.348860e+002
1.191647e+003, 7.347482e+002
1.192129e+003, 7.327885e+002
1.192611e+003, 7.311134e+002
1.193093e+003, 7.298477e+002
1.193575e+003, 7.296198e+002
1.194057e+003, 7.306576e+002
1.194539e+003, 7.318525e+002
1.195021e+003, 7.324323e+002
1.195504e+003, 7.325839e+002
1.195986e+003, 7.323989e+002
1.196468e+003, 7.319971e+002
1.196950e+003, 7.317029e+002
1.197432e+003, 7.313673e+002
1.197914e+003, 7.316483e+002
1.198396e+003, 7.327551e+002
1.198878e+003, 7.338376e+002
1.199360e+003, 7.339406e+002
1.199843e+003, 7.336044e+002
1.200325e+003, 7.337618e+002
1.200807e+003, 7.342232e+002
1.201289e+003, 7.339789e+002
1.201771e+003, 7.321028e+002
1.202253e+003, 7.314189e+002
1.202735e+003, 7.325396e+002
1.203217e+003, 7.339838e+002
1.203700e+003, 7.339193e+002
1.204182e+003, 7.332516e+002
1.204664e+003, 7.333210e+002
1.205146e+003, 7.340912e+002
1.205628e+003, 7.347170e+002
1.206110e+003, 7.350142e+002
1.206592e+003, 7.351599e+002
1.207074e+003, 7.350323e+002
1.207557e+003, 7.351418e+002
1.208039e+003, 7.365411e+002
1.208521e+003, 7.383409e+002
1.209003e+003, 7.392458e+002
1.209485e+003, 7.391736e+002
1.209967e+003, 7.388648e+002
1.210449e+003, 7.382007e+002
1.210931e+003, 7.378636e+002
1.211413e+003, 7.379992e+002
1.211896e+003, 7.385231e+002
1.212378e+003, 7.398725e+002
1.212860e+003, 7.412614e+002
1.213342e+003, 7.412656e+002
1.213824e+003, 7.397431e+002
1.214306e+003, 7.388726e+002
1.214788e+003, 7.391939e+002
1.215270e+003, 7.393140e+002
1.215752e+003, 7.388495e+002
1.216235e+003, 7.380994e+002
1.216717e+003, 7.372614e+002
1.217199e+003, 7.365295e+002
1.217681e+003, 7.362570e+002
1.218163e+003, 7.365330e+002
1.218645e+003, 7.366609e+002
1.219127e+003, 7.365616e+002
1.219609e+003, 7.364083e+002
1.220092e+003, 7.362407e+002
1.220574e+003, 7.360748e+002
1.221056e+003, 7.358132e+002
1.221538e+003, 7.356208e+002
1.222020e+003, 7.357197e+002
1.222502e+003, 7.361527e+002
1.222984e+003, 7.369327e+002
1.223466e+003, 7.381951e+002
1.223948e+003, 7.392371e+002
1.224431e+003, 7.396992e+002
1.224913e+003, 7.400046e+002
1.225395e+003, 7.408727e+002
1.225877e+003, 7.419261e+002
1.226359e+003, 7.427131e+002
1.226841e+003, 7.431730e+002
1.227323e+003, 7.429974e+002
1.227805e+003, 7.419997e+002
1.228287e+003, 7.411338e+002
1.228770e+003, 7.407957e+002
1.229252e+003, 7.407896e+002
1.229734e+003, 7.408610e+002
1.230216e+003, 7.410917e+002
1.230698e+003, 7.417034e+002
1.231180e+003, 7.429095e+002
1.231662e+003, 7.434466e+002
1.232144e+003, 7.432424e+002
1.232627e+003, 7.428476e+002
1.233109e+003, 7.426072e+002
1.233591e+003, 7.421530e+002
1.234073e+003, 7.405579e+002
1.234555e+003, 7.387271e+002
1.235037e+003, 7.380250e+002
1.235519e+003, 7.388315e+002
1.236001e+003, 7.389951e+002
1.236484e+003, 7.384129e+002
1.236966e+003, 7.382205e+002
1.237448e+003, 7.392936e+002
1.237930e+003, 7.405341e+002
1.238412e+003, 7.403173e+002
1.238894e+003, 7.398516e+002
1.239376e+003, 7.410350e+002
1.239858e+003, 7.442516e+002
1.240340e+003, 7.464370e+002
1.240823e+003, 7.475396e+002
1.241305e+003, 7.476130e+002
1.241787e+003, 7.458964e+002
1.242269e+003, 7.442252e+002
1.242751e+003, 7.444783e+002
1.243233e+003, 7.455031e+002
1.243715e+003, 7.457382e+002
1.244197e+003, 7.449858e+002
1.244679e+003, 7.453465e+002
1.245162e+003, 7.467966e+002
1.245644e+003, 7.479417e+002
1.246126e+003, 7.477782e+002
1.246608e+003, 7.474377e+002
1.247090e+003, 7.476469e+002
1.247572e+003, 7.481620e+002
1.248054e+003, 7.488101e+002
1.248536e+003, 7.496492e+002
1.249019e+003, 7.494080e+002
1.249501e+003, 7.482197e+002
1.249983e+003, 7.473961e+002
1.250465e+003, 7.480201e+002
1.250947e+003, 7.487564e+002
1.251429e+003, 7.485148e+002
1.251911e+003, 7.483917e+002
1.252393e+003, 7.496810e+002
1.252875e+003, 7.522356e+002
1.253358e+003, 7.534617e+002
1.253840e+003, 7.534647e+002
1.254322e+003, 7.530938e+002
1.254804e+003, 7.523637e+002
1.255286e+003, 7.518616e+002
1.255768e+003, 7.519553e+002
1.256250e+003, 7.521605e+002
1.256732e+003, 7.519047e+002
1.257214e+003, 7.513799e+002
1.257697e+003, 7.521077e+002
1.258179e+003, 7.537587e+002
1.258661e+003, 7.547540e+002
1.259143e+003, 7.532887e+002
1.259625e+003, 7.527822e+002
1.260107e+003, 7.543046e+002
1.260589e+003, 7.562102e+002
1.261071e+003, 7.570948e+002
1.261554e+003, 7.572535e+002
1.262036e+003, 7.575197e+002
1.262518e+003, 7.578802e+002
1.263000e+003, 7.582748e+002
1.263482e+003, 7.587745e+002
1.263964e+003, 7.591693e+002
1.264446e+003, 7.595925e+002
1.264928e+003, 7.595383e+002
1.265411e+003, 7.578322e+002
1.265893e+003, 7.557586e+002
1.266375e+003, 7.561830e+002
1.266857e+003, 7.583104e+002
1.267339e+003, 7.599403e+002
1.267821e+003, 7.602926e+002
1.268303e+003, 7.604997e+002
1.268785e+003, 7.605712e+002
1.269267e+003, 7.606378e+002
1.269750e+003, 7.607841e+002
1.270232e+003, 7.610115e+002
1.270714e+003, 7.614379e+002
1.271196e+003, 7.619267e+002
1.271678e+003, 7.621201e+002
1.272160e+003, 7.618698e+002
1.272642e+003, 7.616339e+002
1.273124e+003, 7.613686e+002
1.273606e+003, 7.614998e+002
1.274089e+003, 7.629371e+002
1.274571e+003, 7.643030e+002
1.275053e+003, 7.639343e+002
1.275535e+003, 7.627828e+002
1.276017e+003, 7.626445e+002
1.276499e+003, 7.637916e+002
1.276981e+003, 7.642306e+002
1.277463e+003, 7.639363e+002
1.277946e+003, 7.637283e+002
1.278428e+003, 7.645485e+002
1.278910e+003, 7.651926e+002
1.279392e+003, 7.643992e+002
1.279874e+003, 7.633889e+002
1.280356e+003, 7.636714e+002
1.280838e+003, 7.652154e+002
1.281320e+003, 7.665457e+002
1.281802e+003, 7.676566e+002
1.282285e+003, 7.687287e+002
1.282767e+003, 7.703399e+002
1.283249e+003, 7.712888e+002
1.283731e+003, 7.705779e+002
1.284213e+003, 7.696339e+002
1.284695e+003, 7.698008e+002
1.285177e+003, 7.708023e+002
1.285659e+003, 7.713650e+002
1.286141e+003, 7.715563e+002
1.286624e+003, 7.717092e+002
1.287106e+003, 7.716285e+002
1.287588e+003, 7.721016e+002
1.288070e+003, 7.734633e+002
1.288552e+003, 7.748229e+002
1.289034e+003, 7.752656e+002
1.289516e+003, 7.752442e+002
1.289998e+003, 7.758477e+002
1.290481e+003, 7.768408e+002
1.290963e+003, 7.776059e+002
1.291445e+003, 7.779559e+002
1.291927e+003, 7.780212e+002
1.292409e+003, 7.777266e+002
1.292891e+003, 7.774525e+002
1.293373e+003, 7.775084e+002
1.293855e+003, 7.777162e+002
1.294338e+003, 7.776650e+002
1.294820e+003, 7.776534e+002
1.295302e+003, 7.783932e+002
1.295784e+003, 7.803274e+002
1.296266e+003, 7.811176e+002
1.296748e+003, 7.806973e+002
1.297230e+003, 7.803077e+002
1.297712e+003, 7.808821e+002
1.298194e+003, 7.815612e+002
1.298677e+003, 7.817415e+002
1.299159e+003, 7.815360e+002
1.299641e+003, 7.809006e+002
1.300123e+003, 7.797823e+002
1.300605e+003, 7.801667e+002
1.301087e+003, 7.818243e+002
1.301569e+003, 7.826577e+002
1.302051e+003, 7.801061e+002
1.302533e+003, 7.786877e+002
1.303016e+003, 7.799494e+002
##END=



