##NAMES=Vigezzite
##RRUFFID=R120132
##IDEAL CHEMISTRY=(Ca,Ce^3+^)(Nb^5+^,Ta^5+^,Ti^4+^)_2_O_6_
##LOCALITY=Jacupiranga mine, Cajati, SÃ£o Paulo, Southeast Region, Brazil
##OWNER=RRUFF
##SOURCE=Luiz Menezes
##DESCRIPTION=Brown transparent crystals associated with black tochilinite, strontianite, and dolomite
##STATUS=The identification of this mineral has been confirmed only by single crystal X-ray diffraction.
##URL=rruff.info/R120132
8.936163e+001, 0.000000e+000
8.984375e+001, 9.562626e+001
9.032587e+001, 9.676470e+001
9.080798e+001, 9.695842e+001
9.129010e+001, 9.576453e+001
9.177222e+001, 9.414278e+001
9.225433e+001, 9.342847e+001
9.273645e+001, 9.353147e+001
9.321857e+001, 9.350805e+001
9.370068e+001, 9.229617e+001
9.418280e+001, 9.025244e+001
9.466492e+001, 8.854815e+001
9.514703e+001, 8.764504e+001
9.562915e+001, 8.733446e+001
9.611127e+001, 8.703704e+001
9.659338e+001, 8.675508e+001
9.707550e+001, 8.648426e+001
9.755762e+001, 8.631572e+001
9.803973e+001, 8.625429e+001
9.852185e+001, 8.592923e+001
9.900397e+001, 8.483400e+001
9.948608e+001, 8.292728e+001
9.996820e+001, 8.228634e+001
1.004503e+002, 8.334277e+001
1.009324e+002, 8.516941e+001
1.014146e+002, 8.580209e+001
1.018967e+002, 8.496504e+001
1.023788e+002, 8.373828e+001
1.028609e+002, 8.261179e+001
1.033430e+002, 8.157075e+001
1.038251e+002, 8.072795e+001
1.043073e+002, 8.019091e+001
1.047894e+002, 7.987743e+001
1.052715e+002, 7.926266e+001
1.057536e+002, 7.771069e+001
1.062357e+002, 7.654963e+001
1.067178e+002, 7.684528e+001
1.072000e+002, 8.049635e+001
1.076821e+002, 8.282739e+001
1.081642e+002, 8.279249e+001
1.086463e+002, 8.018108e+001
1.091284e+002, 7.813535e+001
1.096105e+002, 7.716377e+001
1.100927e+002, 7.653526e+001
1.105748e+002, 7.558057e+001
1.110569e+002, 7.318784e+001
1.115390e+002, 7.150322e+001
1.120211e+002, 7.135102e+001
1.125032e+002, 7.337533e+001
1.129854e+002, 7.462608e+001
1.134675e+002, 7.415170e+001
1.139496e+002, 7.277559e+001
1.144317e+002, 7.168053e+001
1.149138e+002, 7.129340e+001
1.153959e+002, 7.113953e+001
1.158781e+002, 7.101280e+001
1.163602e+002, 7.086427e+001
1.168423e+002, 7.077514e+001
1.173244e+002, 7.094539e+001
1.178065e+002, 7.121931e+001
1.182886e+002, 7.120085e+001
1.187708e+002, 7.026396e+001
1.192529e+002, 6.919953e+001
1.197350e+002, 6.859810e+001
1.202171e+002, 6.841873e+001
1.206992e+002, 6.897244e+001
1.211813e+002, 7.045879e+001
1.216635e+002, 7.285368e+001
1.221456e+002, 7.602158e+001
1.226277e+002, 8.155376e+001
1.231098e+002, 8.742693e+001
1.235919e+002, 9.094236e+001
1.240740e+002, 8.969652e+001
1.245562e+002, 8.653901e+001
1.250383e+002, 8.460168e+001
1.255204e+002, 8.386642e+001
1.260025e+002, 8.276010e+001
1.264846e+002, 7.937977e+001
1.269667e+002, 7.450025e+001
1.274489e+002, 7.005820e+001
1.279310e+002, 6.662203e+001
1.284131e+002, 6.423082e+001
1.288952e+002, 6.321982e+001
1.293773e+002, 6.376611e+001
1.298594e+002, 6.487395e+001
1.303416e+002, 6.530440e+001
1.308237e+002, 6.514970e+001
1.313058e+002, 6.511066e+001
1.317879e+002, 6.600263e+001
1.322700e+002, 6.747952e+001
1.327521e+002, 6.762742e+001
1.332343e+002, 6.591377e+001
1.337164e+002, 6.350264e+001
1.341985e+002, 6.256670e+001
1.346806e+002, 6.319050e+001
1.351627e+002, 6.417321e+001
1.356448e+002, 6.494301e+001
1.361270e+002, 6.551083e+001
1.366091e+002, 6.536869e+001
1.370912e+002, 6.405410e+001
1.375733e+002, 6.218016e+001
1.380554e+002, 6.206023e+001
1.385375e+002, 6.426833e+001
1.390197e+002, 6.655928e+001
1.395018e+002, 6.703154e+001
1.399839e+002, 6.521915e+001
1.404660e+002, 6.361173e+001
1.409481e+002, 6.265539e+001
1.414302e+002, 6.230540e+001
1.419124e+002, 6.186350e+001
1.423945e+002, 6.117170e+001
1.428766e+002, 6.060568e+001
1.433587e+002, 6.059745e+001
1.438408e+002, 6.144579e+001
1.443229e+002, 6.225401e+001
1.448051e+002, 6.291987e+001
1.452872e+002, 6.350207e+001
1.457693e+002, 6.349023e+001
1.462514e+002, 6.252703e+001
1.467335e+002, 6.119607e+001
1.472156e+002, 6.019249e+001
1.476978e+002, 5.933258e+001
1.481799e+002, 5.904679e+001
1.486620e+002, 5.961959e+001
1.491441e+002, 6.161582e+001
1.496262e+002, 6.292286e+001
1.501083e+002, 6.323371e+001
1.505905e+002, 6.289121e+001
1.510726e+002, 6.248499e+001
1.515547e+002, 6.131383e+001
1.520368e+002, 6.068357e+001
1.525189e+002, 6.106868e+001
1.530010e+002, 6.323500e+001
1.534832e+002, 6.509772e+001
1.539653e+002, 6.633046e+001
1.544474e+002, 6.715966e+001
1.549295e+002, 6.812898e+001
1.554116e+002, 6.894727e+001
1.558937e+002, 7.017955e+001
1.563759e+002, 7.205495e+001
1.568580e+002, 7.440588e+001
1.573401e+002, 7.767115e+001
1.578222e+002, 8.231169e+001
1.583043e+002, 8.804196e+001
1.587864e+002, 9.380959e+001
1.592686e+002, 9.846679e+001
1.597507e+002, 1.035749e+002
1.602328e+002, 1.101254e+002
1.607149e+002, 1.182954e+002
1.611970e+002, 1.279953e+002
1.616791e+002, 1.390866e+002
1.621613e+002, 1.514973e+002
1.626434e+002, 1.658681e+002
1.631255e+002, 1.818987e+002
1.636076e+002, 2.001235e+002
1.640897e+002, 2.210185e+002
1.645718e+002, 2.447947e+002
1.650540e+002, 2.712289e+002
1.655361e+002, 2.999819e+002
1.660182e+002, 3.312289e+002
1.665003e+002, 3.655446e+002
1.669824e+002, 4.048239e+002
1.674645e+002, 4.473939e+002
1.679467e+002, 4.906195e+002
1.684288e+002, 5.342620e+002
1.689109e+002, 5.781207e+002
1.693930e+002, 6.221155e+002
1.698751e+002, 6.664383e+002
1.703572e+002, 7.105482e+002
1.708394e+002, 7.551037e+002
1.713215e+002, 7.996996e+002
1.718036e+002, 8.429610e+002
1.722857e+002, 8.836688e+002
1.727678e+002, 9.235276e+002
1.732499e+002, 9.639678e+002
1.737321e+002, 1.005378e+003
1.742142e+002, 1.047451e+003
1.746963e+002, 1.090285e+003
1.751784e+002, 1.134327e+003
1.756605e+002, 1.180839e+003
1.761426e+002, 1.229975e+003
1.766248e+002, 1.281693e+003
1.771069e+002, 1.335679e+003
1.775890e+002, 1.392141e+003
1.780711e+002, 1.450930e+003
1.785532e+002, 1.512193e+003
1.790353e+002, 1.576217e+003
1.795175e+002, 1.641599e+003
1.799996e+002, 1.707883e+003
1.804817e+002, 1.775254e+003
1.809638e+002, 1.845735e+003
1.814459e+002, 1.920248e+003
1.819280e+002, 1.996505e+003
1.824102e+002, 2.073035e+003
1.828923e+002, 2.148813e+003
1.833744e+002, 2.226575e+003
1.838565e+002, 2.307565e+003
1.843386e+002, 2.391500e+003
1.848207e+002, 2.474878e+003
1.853029e+002, 2.557966e+003
1.857850e+002, 2.640478e+003
1.862671e+002, 2.724187e+003
1.867492e+002, 2.808661e+003
1.872313e+002, 2.892467e+003
1.877134e+002, 2.974656e+003
1.881956e+002, 3.055812e+003
1.886777e+002, 3.134681e+003
1.891598e+002, 3.211857e+003
1.896419e+002, 3.287023e+003
1.901240e+002, 3.360380e+003
1.906061e+002, 3.432925e+003
1.910883e+002, 3.502085e+003
1.915704e+002, 3.567465e+003
1.920525e+002, 3.629411e+003
1.925346e+002, 3.685355e+003
1.930167e+002, 3.734120e+003
1.934988e+002, 3.774489e+003
1.939810e+002, 3.797491e+003
1.944631e+002, 3.799999e+003
1.949452e+002, 3.797625e+003
1.954273e+002, 3.787999e+003
1.959094e+002, 3.771299e+003
1.963915e+002, 3.748188e+003
1.968737e+002, 3.718661e+003
1.973558e+002, 3.683437e+003
1.978379e+002, 3.643052e+003
1.983200e+002, 3.597328e+003
1.988021e+002, 3.548827e+003
1.992842e+002, 3.500340e+003
1.997664e+002, 3.451798e+003
2.002485e+002, 3.402263e+003
2.007306e+002, 3.351112e+003
2.012127e+002, 3.298695e+003
2.016948e+002, 3.244711e+003
2.021769e+002, 3.188292e+003
2.026591e+002, 3.132808e+003
2.031412e+002, 3.081717e+003
2.036233e+002, 3.034678e+003
2.041054e+002, 2.991742e+003
2.045875e+002, 2.953457e+003
2.050696e+002, 2.919359e+003
2.055518e+002, 2.886077e+003
2.060339e+002, 2.853743e+003
2.065160e+002, 2.821708e+003
2.069981e+002, 2.788296e+003
2.074802e+002, 2.752646e+003
2.079623e+002, 2.720799e+003
2.084445e+002, 2.695307e+003
2.089266e+002, 2.675667e+003
2.094087e+002, 2.653524e+003
2.098908e+002, 2.628538e+003
2.103729e+002, 2.601423e+003
2.108550e+002, 2.572161e+003
2.113372e+002, 2.539979e+003
2.118193e+002, 2.509246e+003
2.123014e+002, 2.480753e+003
2.127835e+002, 2.454699e+003
2.132656e+002, 2.431359e+003
2.137477e+002, 2.412090e+003
2.142299e+002, 2.393463e+003
2.147120e+002, 2.371103e+003
2.151941e+002, 2.342764e+003
2.156762e+002, 2.316448e+003
2.161583e+002, 2.294664e+003
2.166404e+002, 2.277938e+003
2.171226e+002, 2.258408e+003
2.176047e+002, 2.234481e+003
2.180868e+002, 2.209606e+003
2.185689e+002, 2.187406e+003
2.190510e+002, 2.167722e+003
2.195331e+002, 2.150878e+003
2.200153e+002, 2.137112e+003
2.204974e+002, 2.126630e+003
2.209795e+002, 2.116563e+003
2.214616e+002, 2.106895e+003
2.219437e+002, 2.097628e+003
2.224258e+002, 2.088519e+003
2.229080e+002, 2.079442e+003
2.233901e+002, 2.070966e+003
2.238722e+002, 2.063365e+003
2.243543e+002, 2.056540e+003
2.248364e+002, 2.050509e+003
2.253185e+002, 2.044997e+003
2.258007e+002, 2.040517e+003
2.262828e+002, 2.037808e+003
2.267649e+002, 2.037520e+003
2.272470e+002, 2.037600e+003
2.277291e+002, 2.037470e+003
2.282112e+002, 2.037017e+003
2.286934e+002, 2.036952e+003
2.291755e+002, 2.037421e+003
2.296576e+002, 2.038115e+003
2.301397e+002, 2.038800e+003
2.306218e+002, 2.040182e+003
2.311039e+002, 2.040288e+003
2.315861e+002, 2.038358e+003
2.320682e+002, 2.034032e+003
2.325503e+002, 2.030405e+003
2.330324e+002, 2.028037e+003
2.335145e+002, 2.026008e+003
2.339966e+002, 2.023083e+003
2.344788e+002, 2.018903e+003
2.349609e+002, 2.014588e+003
2.354430e+002, 2.010375e+003
2.359251e+002, 2.006252e+003
2.364072e+002, 2.002387e+003
2.368893e+002, 1.998890e+003
2.373715e+002, 1.995524e+003
2.378536e+002, 1.992074e+003
2.383357e+002, 1.988771e+003
2.388178e+002, 1.984805e+003
2.392999e+002, 1.979762e+003
2.397820e+002, 1.973489e+003
2.402642e+002, 1.967398e+003
2.407463e+002, 1.961445e+003
2.412284e+002, 1.955628e+003
2.417105e+002, 1.950055e+003
2.421926e+002, 1.945236e+003
2.426747e+002, 1.939611e+003
2.431569e+002, 1.932239e+003
2.436390e+002, 1.922563e+003
2.441211e+002, 1.915658e+003
2.446032e+002, 1.913024e+003
2.450853e+002, 1.911752e+003
2.455674e+002, 1.908193e+003
2.460496e+002, 1.900214e+003
2.465317e+002, 1.893980e+003
2.470138e+002, 1.891446e+003
2.474959e+002, 1.893088e+003
2.479780e+002, 1.893009e+003
2.484601e+002, 1.890079e+003
2.489423e+002, 1.886626e+003
2.494244e+002, 1.885145e+003
2.499065e+002, 1.885954e+003
2.503886e+002, 1.888235e+003
2.508707e+002, 1.892186e+003
2.513528e+002, 1.897871e+003
2.518350e+002, 1.903148e+003
2.523171e+002, 1.907211e+003
2.527992e+002, 1.911659e+003
2.532813e+002, 1.918299e+003
2.537634e+002, 1.928007e+003
2.542455e+002, 1.937722e+003
2.547277e+002, 1.946385e+003
2.552098e+002, 1.953960e+003
2.556919e+002, 1.963872e+003
2.561740e+002, 1.976741e+003
2.566561e+002, 1.991067e+003
2.571382e+002, 2.005198e+003
2.576204e+002, 2.018841e+003
2.581025e+002, 2.033178e+003
2.585846e+002, 2.048175e+003
2.590667e+002, 2.063903e+003
2.595488e+002, 2.081020e+003
2.600309e+002, 2.099621e+003
2.605131e+002, 2.118995e+003
2.609952e+002, 2.137848e+003
2.614773e+002, 2.155312e+003
2.619594e+002, 2.175215e+003
2.624415e+002, 2.198491e+003
2.629236e+002, 2.225031e+003
2.634058e+002, 2.251143e+003
2.638879e+002, 2.276543e+003
2.643700e+002, 2.302509e+003
2.648521e+002, 2.331049e+003
2.653342e+002, 2.362755e+003
2.658163e+002, 2.394198e+003
2.662985e+002, 2.424365e+003
2.667806e+002, 2.453534e+003
2.672627e+002, 2.484532e+003
2.677448e+002, 2.517884e+003
2.682269e+002, 2.551524e+003
2.687090e+002, 2.583797e+003
2.691912e+002, 2.614748e+003
2.696733e+002, 2.645256e+003
2.701554e+002, 2.674999e+003
2.706375e+002, 2.704544e+003
2.711196e+002, 2.735135e+003
2.716017e+002, 2.766806e+003
2.720839e+002, 2.799237e+003
2.725660e+002, 2.832593e+003
2.730481e+002, 2.867895e+003
2.735302e+002, 2.898352e+003
2.740123e+002, 2.923107e+003
2.744944e+002, 2.943086e+003
2.749766e+002, 2.961255e+003
2.754587e+002, 2.977716e+003
2.759408e+002, 2.992014e+003
2.764229e+002, 3.004019e+003
2.769050e+002, 3.013986e+003
2.773871e+002, 3.019802e+003
2.778693e+002, 3.021366e+003
2.783514e+002, 3.018728e+003
2.788335e+002, 3.011860e+003
2.793156e+002, 3.000609e+003
2.797977e+002, 2.985717e+003
2.802798e+002, 2.967290e+003
2.807620e+002, 2.945482e+003
2.812441e+002, 2.920593e+003
2.817262e+002, 2.892228e+003
2.822083e+002, 2.861465e+003
2.826904e+002, 2.830250e+003
2.831725e+002, 2.798628e+003
2.836547e+002, 2.765598e+003
2.841368e+002, 2.729941e+003
2.846189e+002, 2.692184e+003
2.851010e+002, 2.654850e+003
2.855831e+002, 2.617911e+003
2.860652e+002, 2.581627e+003
2.865474e+002, 2.545987e+003
2.870295e+002, 2.511016e+003
2.875116e+002, 2.477974e+003
2.879937e+002, 2.448610e+003
2.884758e+002, 2.421837e+003
2.889579e+002, 2.393350e+003
2.894401e+002, 2.362870e+003
2.899222e+002, 2.330822e+003
2.904043e+002, 2.296475e+003
2.908864e+002, 2.260300e+003
2.913685e+002, 2.225934e+003
2.918506e+002, 2.195492e+003
2.923328e+002, 2.167887e+003
2.928149e+002, 2.141013e+003
2.932970e+002, 2.114722e+003
2.937791e+002, 2.089212e+003
2.942612e+002, 2.065292e+003
2.947433e+002, 2.042611e+003
2.952255e+002, 2.020041e+003
2.957076e+002, 1.996863e+003
2.961897e+002, 1.973909e+003
2.966718e+002, 1.953650e+003
2.971539e+002, 1.936115e+003
2.976360e+002, 1.919373e+003
2.981182e+002, 1.901786e+003
2.986003e+002, 1.883849e+003
2.990824e+002, 1.866355e+003
2.995645e+002, 1.849471e+003
3.000466e+002, 1.833137e+003
3.005287e+002, 1.816928e+003
3.010109e+002, 1.801015e+003
3.014930e+002, 1.786006e+003
3.019751e+002, 1.773137e+003
3.024572e+002, 1.761447e+003
3.029393e+002, 1.749607e+003
3.034214e+002, 1.737189e+003
3.039036e+002, 1.724553e+003
3.043857e+002, 1.711769e+003
3.048678e+002, 1.699032e+003
3.053499e+002, 1.686731e+003
3.058320e+002, 1.675508e+003
3.063141e+002, 1.664817e+003
3.067963e+002, 1.654170e+003
3.072784e+002, 1.643295e+003
3.077605e+002, 1.632663e+003
3.082426e+002, 1.622683e+003
3.087247e+002, 1.613204e+003
3.092068e+002, 1.603871e+003
3.096890e+002, 1.594352e+003
3.101711e+002, 1.584924e+003
3.106532e+002, 1.575879e+003
3.111353e+002, 1.567236e+003
3.116174e+002, 1.559024e+003
3.120995e+002, 1.551683e+003
3.125817e+002, 1.544810e+003
3.130638e+002, 1.537665e+003
3.135459e+002, 1.528802e+003
3.140280e+002, 1.520357e+003
3.145101e+002, 1.514104e+003
3.149922e+002, 1.510350e+003
3.154744e+002, 1.506128e+003
3.159565e+002, 1.500053e+003
3.164386e+002, 1.492801e+003
3.169207e+002, 1.485226e+003
3.174028e+002, 1.477524e+003
3.178849e+002, 1.469604e+003
3.183671e+002, 1.460688e+003
3.188492e+002, 1.450865e+003
3.193313e+002, 1.443111e+003
3.198134e+002, 1.440245e+003
3.202955e+002, 1.438867e+003
3.207776e+002, 1.436299e+003
3.212598e+002, 1.431256e+003
3.217419e+002, 1.425652e+003
3.222240e+002, 1.419401e+003
3.227061e+002, 1.412722e+003
3.231882e+002, 1.406801e+003
3.236703e+002, 1.402456e+003
3.241525e+002, 1.398473e+003
3.246346e+002, 1.394207e+003
3.251167e+002, 1.388682e+003
3.255988e+002, 1.384061e+003
3.260809e+002, 1.381064e+003
3.265630e+002, 1.379165e+003
3.270452e+002, 1.376906e+003
3.275273e+002, 1.373963e+003
3.280094e+002, 1.370907e+003
3.284915e+002, 1.368014e+003
3.289736e+002, 1.365787e+003
3.294557e+002, 1.362691e+003
3.299379e+002, 1.358340e+003
3.304200e+002, 1.353218e+003
3.309021e+002, 1.348083e+003
3.313842e+002, 1.342156e+003
3.318663e+002, 1.337169e+003
3.323484e+002, 1.333720e+003
3.328306e+002, 1.332089e+003
3.333127e+002, 1.330473e+003
3.337948e+002, 1.329015e+003
3.342769e+002, 1.327414e+003
3.347590e+002, 1.325293e+003
3.352411e+002, 1.322309e+003
3.357233e+002, 1.319588e+003
3.362054e+002, 1.317579e+003
3.366875e+002, 1.316197e+003
3.371696e+002, 1.314198e+003
3.376517e+002, 1.311698e+003
3.381339e+002, 1.308437e+003
3.386160e+002, 1.303927e+003
3.390981e+002, 1.297744e+003
3.395802e+002, 1.292369e+003
3.400623e+002, 1.288328e+003
3.405444e+002, 1.285254e+003
3.410266e+002, 1.282111e+003
3.415087e+002, 1.278766e+003
3.419908e+002, 1.275681e+003
3.424729e+002, 1.273411e+003
3.429550e+002, 1.271950e+003
3.434371e+002, 1.269339e+003
3.439193e+002, 1.265052e+003
3.444014e+002, 1.260260e+003
3.448835e+002, 1.257341e+003
3.453656e+002, 1.256285e+003
3.458477e+002, 1.255367e+003
3.463298e+002, 1.253923e+003
3.468120e+002, 1.251958e+003
3.472941e+002, 1.249401e+003
3.477762e+002, 1.246174e+003
3.482583e+002, 1.242757e+003
3.487404e+002, 1.239890e+003
3.492225e+002, 1.237391e+003
3.497047e+002, 1.234408e+003
3.501868e+002, 1.230064e+003
3.506689e+002, 1.225299e+003
3.511510e+002, 1.221766e+003
3.516331e+002, 1.219461e+003
3.521152e+002, 1.217646e+003
3.525974e+002, 1.216179e+003
3.530795e+002, 1.214698e+003
3.535616e+002, 1.212448e+003
3.540437e+002, 1.208699e+003
3.545258e+002, 1.204776e+003
3.550079e+002, 1.202083e+003
3.554901e+002, 1.200426e+003
3.559722e+002, 1.198872e+003
3.564543e+002, 1.196809e+003
3.569364e+002, 1.194592e+003
3.574185e+002, 1.192565e+003
3.579006e+002, 1.190841e+003
3.583828e+002, 1.189212e+003
3.588649e+002, 1.187606e+003
3.593470e+002, 1.185993e+003
3.598291e+002, 1.184293e+003
3.603112e+002, 1.182275e+003
3.607933e+002, 1.180304e+003
3.612755e+002, 1.178455e+003
3.617576e+002, 1.176667e+003
3.622397e+002, 1.175450e+003
3.627218e+002, 1.175418e+003
3.632039e+002, 1.175895e+003
3.636860e+002, 1.176127e+003
3.641682e+002, 1.175959e+003
3.646503e+002, 1.175467e+003
3.651324e+002, 1.174440e+003
3.656145e+002, 1.172913e+003
3.660966e+002, 1.171828e+003
3.665787e+002, 1.171271e+003
3.670609e+002, 1.171253e+003
3.675430e+002, 1.171780e+003
3.680251e+002, 1.174009e+003
3.685072e+002, 1.175426e+003
3.689893e+002, 1.175009e+003
3.694714e+002, 1.173528e+003
3.699536e+002, 1.173592e+003
3.704357e+002, 1.177066e+003
3.709178e+002, 1.180125e+003
3.713999e+002, 1.181013e+003
3.718820e+002, 1.178345e+003
3.723641e+002, 1.177158e+003
3.728463e+002, 1.178057e+003
3.733284e+002, 1.180040e+003
3.738105e+002, 1.181546e+003
3.742926e+002, 1.182267e+003
3.747747e+002, 1.183193e+003
3.752568e+002, 1.184631e+003
3.757390e+002, 1.186583e+003
3.762211e+002, 1.188705e+003
3.767032e+002, 1.191209e+003
3.771853e+002, 1.193452e+003
3.776674e+002, 1.194652e+003
3.781495e+002, 1.194645e+003
3.786317e+002, 1.195026e+003
3.791138e+002, 1.196098e+003
3.795959e+002, 1.197762e+003
3.800780e+002, 1.200182e+003
3.805601e+002, 1.203491e+003
3.810422e+002, 1.205995e+003
3.815244e+002, 1.205685e+003
3.820065e+002, 1.203252e+003
3.824886e+002, 1.202704e+003
3.829707e+002, 1.204805e+003
3.834528e+002, 1.207859e+003
3.839349e+002, 1.209621e+003
3.844171e+002, 1.210244e+003
3.848992e+002, 1.210547e+003
3.853813e+002, 1.210943e+003
3.858634e+002, 1.211289e+003
3.863455e+002, 1.211305e+003
3.868276e+002, 1.210967e+003
3.873098e+002, 1.210469e+003
3.877919e+002, 1.209932e+003
3.882740e+002, 1.209332e+003
3.887561e+002, 1.208663e+003
3.892382e+002, 1.208087e+003
3.897203e+002, 1.207235e+003
3.902025e+002, 1.205490e+003
3.906846e+002, 1.203066e+003
3.911667e+002, 1.200961e+003
3.916488e+002, 1.200736e+003
3.921309e+002, 1.200533e+003
3.926130e+002, 1.198569e+003
3.930952e+002, 1.193639e+003
3.935773e+002, 1.188915e+003
3.940594e+002, 1.186272e+003
3.945415e+002, 1.184751e+003
3.950236e+002, 1.182565e+003
3.955057e+002, 1.177863e+003
3.959879e+002, 1.173564e+003
3.964700e+002, 1.171319e+003
3.969521e+002, 1.171750e+003
3.974342e+002, 1.170951e+003
3.979163e+002, 1.167964e+003
3.983984e+002, 1.163670e+003
3.988806e+002, 1.158875e+003
3.993627e+002, 1.152739e+003
3.998448e+002, 1.147129e+003
4.003269e+002, 1.142448e+003
4.008090e+002, 1.138543e+003
4.012911e+002, 1.134418e+003
4.017733e+002, 1.129478e+003
4.022554e+002, 1.124974e+003
4.027375e+002, 1.121703e+003
4.032196e+002, 1.120451e+003
4.037017e+002, 1.118389e+003
4.041838e+002, 1.115149e+003
4.046660e+002, 1.111367e+003
4.051481e+002, 1.108328e+003
4.056302e+002, 1.106142e+003
4.061123e+002, 1.104262e+003
4.065944e+002, 1.102776e+003
4.070765e+002, 1.101608e+003
4.075587e+002, 1.098967e+003
4.080408e+002, 1.094425e+003
4.085229e+002, 1.089958e+003
4.090050e+002, 1.087746e+003
4.094871e+002, 1.087666e+003
4.099692e+002, 1.087980e+003
4.104514e+002, 1.088515e+003
4.109335e+002, 1.088964e+003
4.114156e+002, 1.088590e+003
4.118977e+002, 1.087443e+003
4.123798e+002, 1.086124e+003
4.128619e+002, 1.085095e+003
4.133441e+002, 1.084186e+003
4.138262e+002, 1.083090e+003
4.143083e+002, 1.081795e+003
4.147904e+002, 1.080222e+003
4.152725e+002, 1.077513e+003
4.157546e+002, 1.074485e+003
4.162368e+002, 1.072760e+003
4.167189e+002, 1.074727e+003
4.172010e+002, 1.077140e+003
4.176831e+002, 1.076999e+003
4.181652e+002, 1.074431e+003
4.186473e+002, 1.072286e+003
4.191295e+002, 1.072550e+003
4.196116e+002, 1.073723e+003
4.200937e+002, 1.074424e+003
4.205758e+002, 1.073541e+003
4.210579e+002, 1.073281e+003
4.215400e+002, 1.074827e+003
4.220222e+002, 1.077538e+003
4.225043e+002, 1.079873e+003
4.229864e+002, 1.081085e+003
4.234685e+002, 1.082202e+003
4.239506e+002, 1.083754e+003
4.244327e+002, 1.086096e+003
4.249149e+002, 1.087759e+003
4.253970e+002, 1.088101e+003
4.258791e+002, 1.088078e+003
4.263612e+002, 1.088632e+003
4.268433e+002, 1.089991e+003
4.273254e+002, 1.091539e+003
4.278076e+002, 1.093135e+003
4.282897e+002, 1.094818e+003
4.287718e+002, 1.096976e+003
4.292539e+002, 1.099955e+003
4.297360e+002, 1.102606e+003
4.302181e+002, 1.103977e+003
4.307003e+002, 1.103776e+003
4.311824e+002, 1.104268e+003
4.316645e+002, 1.105746e+003
4.321466e+002, 1.107601e+003
4.326287e+002, 1.108603e+003
4.331108e+002, 1.108727e+003
4.335930e+002, 1.109319e+003
4.340751e+002, 1.111114e+003
4.345572e+002, 1.113761e+003
4.350393e+002, 1.116217e+003
4.355214e+002, 1.118490e+003
4.360035e+002, 1.120402e+003
4.364857e+002, 1.121741e+003
4.369678e+002, 1.122576e+003
4.374499e+002, 1.123039e+003
4.379320e+002, 1.123026e+003
4.384141e+002, 1.122913e+003
4.388962e+002, 1.122964e+003
4.393784e+002, 1.123218e+003
4.398605e+002, 1.123794e+003
4.403426e+002, 1.125101e+003
4.408247e+002, 1.126517e+003
4.413068e+002, 1.127735e+003
4.417889e+002, 1.128760e+003
4.422711e+002, 1.128922e+003
4.427532e+002, 1.127043e+003
4.432353e+002, 1.124459e+003
4.437174e+002, 1.122557e+003
4.441995e+002, 1.123076e+003
4.446816e+002, 1.122895e+003
4.451638e+002, 1.120497e+003
4.456459e+002, 1.116460e+003
4.461280e+002, 1.113367e+003
4.466101e+002, 1.113171e+003
4.470922e+002, 1.112694e+003
4.475743e+002, 1.110405e+003
4.480565e+002, 1.105388e+003
4.485386e+002, 1.100902e+003
4.490207e+002, 1.097048e+003
4.495028e+002, 1.093688e+003
4.499849e+002, 1.090795e+003
4.504670e+002, 1.088664e+003
4.509492e+002, 1.086295e+003
4.514313e+002, 1.083454e+003
4.519134e+002, 1.080207e+003
4.523955e+002, 1.076937e+003
4.528776e+002, 1.073608e+003
4.533597e+002, 1.070647e+003
4.538419e+002, 1.068981e+003
4.543240e+002, 1.068558e+003
4.548061e+002, 1.065784e+003
4.552882e+002, 1.059788e+003
4.557703e+002, 1.052935e+003
4.562524e+002, 1.049260e+003
4.567346e+002, 1.048271e+003
4.572167e+002, 1.047054e+003
4.576988e+002, 1.043935e+003
4.581809e+002, 1.039950e+003
4.586630e+002, 1.036715e+003
4.591451e+002, 1.034233e+003
4.596273e+002, 1.032219e+003
4.601094e+002, 1.031359e+003
4.605915e+002, 1.030544e+003
4.610736e+002, 1.028154e+003
4.615557e+002, 1.023138e+003
4.620378e+002, 1.017994e+003
4.625200e+002, 1.014229e+003
4.630021e+002, 1.011491e+003
4.634842e+002, 1.009170e+003
4.639663e+002, 1.008154e+003
4.644484e+002, 1.006535e+003
4.649305e+002, 1.002996e+003
4.654127e+002, 9.973471e+002
4.658948e+002, 9.924830e+002
4.663769e+002, 9.900621e+002
4.668590e+002, 9.880389e+002
4.673411e+002, 9.849464e+002
4.678232e+002, 9.792110e+002
4.683054e+002, 9.743058e+002
4.687875e+002, 9.707067e+002
4.692696e+002, 9.679743e+002
4.697517e+002, 9.650614e+002
4.702338e+002, 9.620423e+002
4.707159e+002, 9.587029e+002
4.711981e+002, 9.548483e+002
4.716802e+002, 9.504430e+002
4.721623e+002, 9.464473e+002
4.726444e+002, 9.430997e+002
4.731265e+002, 9.396407e+002
4.736086e+002, 9.350526e+002
4.740908e+002, 9.293635e+002
4.745729e+002, 9.246119e+002
4.750550e+002, 9.214553e+002
4.755371e+002, 9.189426e+002
4.760192e+002, 9.152110e+002
4.765013e+002, 9.103703e+002
4.769835e+002, 9.054974e+002
4.774656e+002, 9.010370e+002
4.779477e+002, 8.969232e+002
4.784298e+002, 8.932802e+002
4.789119e+002, 8.901298e+002
4.793940e+002, 8.866228e+002
4.798762e+002, 8.816851e+002
4.803583e+002, 8.761113e+002
4.808404e+002, 8.709687e+002
4.813225e+002, 8.668597e+002
4.818046e+002, 8.628087e+002
4.822867e+002, 8.579534e+002
4.827689e+002, 8.527607e+002
4.832510e+002, 8.484113e+002
4.837331e+002, 8.463301e+002
4.842152e+002, 8.443070e+002
4.846973e+002, 8.412242e+002
4.851794e+002, 8.366918e+002
4.856616e+002, 8.326938e+002
4.861437e+002, 8.298887e+002
4.866258e+002, 8.273928e+002
4.871079e+002, 8.244877e+002
4.875900e+002, 8.208069e+002
4.880721e+002, 8.173216e+002
4.885543e+002, 8.141830e+002
4.890364e+002, 8.112588e+002
4.895185e+002, 8.081768e+002
4.900006e+002, 8.048621e+002
4.904827e+002, 8.016578e+002
4.909648e+002, 7.988533e+002
4.914470e+002, 7.963966e+002
4.919291e+002, 7.933153e+002
4.924112e+002, 7.894241e+002
4.928933e+002, 7.858909e+002
4.933754e+002, 7.843329e+002
4.938575e+002, 7.842922e+002
4.943397e+002, 7.837706e+002
4.948218e+002, 7.823220e+002
4.953039e+002, 7.802706e+002
4.957860e+002, 7.777522e+002
4.962681e+002, 7.749520e+002
4.967502e+002, 7.724938e+002
4.972324e+002, 7.710336e+002
4.977145e+002, 7.698424e+002
4.981966e+002, 7.680154e+002
4.986787e+002, 7.654853e+002
4.991608e+002, 7.635134e+002
4.996429e+002, 7.636390e+002
5.001251e+002, 7.641327e+002
5.006072e+002, 7.634248e+002
5.010893e+002, 7.602568e+002
5.015714e+002, 7.570992e+002
5.020535e+002, 7.542473e+002
5.025356e+002, 7.517602e+002
5.030178e+002, 7.497628e+002
5.034999e+002, 7.487748e+002
5.039820e+002, 7.476779e+002
5.044641e+002, 7.459616e+002
5.049462e+002, 7.435598e+002
5.054283e+002, 7.425073e+002
5.059105e+002, 7.436425e+002
5.063926e+002, 7.448679e+002
5.068747e+002, 7.443523e+002
5.073568e+002, 7.417369e+002
5.078389e+002, 7.399343e+002
5.083210e+002, 7.393275e+002
5.088032e+002, 7.394832e+002
5.092853e+002, 7.399346e+002
5.097674e+002, 7.406360e+002
5.102495e+002, 7.408924e+002
5.107316e+002, 7.404746e+002
5.112137e+002, 7.393800e+002
5.116959e+002, 7.371520e+002
5.121780e+002, 7.339138e+002
5.126601e+002, 7.311343e+002
5.131422e+002, 7.304094e+002
5.136243e+002, 7.305704e+002
5.141064e+002, 7.300665e+002
5.145886e+002, 7.284607e+002
5.150707e+002, 7.268054e+002
5.155528e+002, 7.255964e+002
5.160349e+002, 7.248057e+002
5.165170e+002, 7.243694e+002
5.169991e+002, 7.250411e+002
5.174813e+002, 7.253060e+002
5.179634e+002, 7.241647e+002
5.184455e+002, 7.218917e+002
5.189276e+002, 7.207054e+002
5.194097e+002, 7.224758e+002
5.198918e+002, 7.239782e+002
5.203740e+002, 7.237799e+002
5.208561e+002, 7.211666e+002
5.213382e+002, 7.191830e+002
5.218203e+002, 7.179821e+002
5.223024e+002, 7.172081e+002
5.227845e+002, 7.164789e+002
5.232667e+002, 7.157978e+002
5.237488e+002, 7.150797e+002
5.242309e+002, 7.143328e+002
5.247130e+002, 7.135126e+002
5.251951e+002, 7.123360e+002
5.256772e+002, 7.108144e+002
5.261594e+002, 7.096341e+002
5.266415e+002, 7.096110e+002
5.271236e+002, 7.101251e+002
5.276057e+002, 7.095739e+002
5.280878e+002, 7.079029e+002
5.285699e+002, 7.063383e+002
5.290521e+002, 7.064329e+002
5.295342e+002, 7.070886e+002
5.300163e+002, 7.067265e+002
5.304984e+002, 7.042531e+002
5.309805e+002, 7.019667e+002
5.314626e+002, 7.011265e+002
5.319448e+002, 7.013817e+002
5.324269e+002, 7.020497e+002
5.329090e+002, 7.040095e+002
5.333911e+002, 7.052907e+002
5.338732e+002, 7.049803e+002
5.343553e+002, 7.029846e+002
5.348375e+002, 7.011363e+002
5.353196e+002, 6.990247e+002
5.358017e+002, 6.975143e+002
5.362838e+002, 6.972458e+002
5.367659e+002, 6.989601e+002
5.372480e+002, 6.996725e+002
5.377302e+002, 6.988979e+002
5.382123e+002, 6.977375e+002
5.386944e+002, 6.981085e+002
5.391765e+002, 7.001712e+002
5.396586e+002, 7.015563e+002
5.401407e+002, 7.015491e+002
5.406229e+002, 7.005373e+002
5.411050e+002, 6.990200e+002
5.415871e+002, 6.971041e+002
5.420692e+002, 6.957748e+002
5.425513e+002, 6.960875e+002
5.430334e+002, 6.972242e+002
5.435156e+002, 6.981158e+002
5.439977e+002, 6.987158e+002
5.444798e+002, 6.987039e+002
5.449619e+002, 6.971127e+002
5.454440e+002, 6.950939e+002
5.459261e+002, 6.939600e+002
5.464083e+002, 6.949283e+002
5.468904e+002, 6.955504e+002
5.473725e+002, 6.942776e+002
5.478546e+002, 6.921081e+002
5.483367e+002, 6.911600e+002
5.488188e+002, 6.932678e+002
5.493010e+002, 6.949852e+002
5.497831e+002, 6.952654e+002
5.502652e+002, 6.941302e+002
5.507473e+002, 6.935881e+002
5.512294e+002, 6.939343e+002
5.517115e+002, 6.943759e+002
5.521937e+002, 6.942864e+002
5.526758e+002, 6.935490e+002
5.531579e+002, 6.936026e+002
5.536400e+002, 6.946995e+002
5.541221e+002, 6.961047e+002
5.546042e+002, 6.969645e+002
5.550864e+002, 6.972973e+002
5.555685e+002, 6.969908e+002
5.560506e+002, 6.951945e+002
5.565327e+002, 6.938007e+002
5.570148e+002, 6.970676e+002
5.574969e+002, 7.035350e+002
5.579791e+002, 7.077348e+002
5.584612e+002, 7.042621e+002
5.589433e+002, 6.987519e+002
5.594254e+002, 6.957451e+002
5.599075e+002, 6.955684e+002
5.603896e+002, 6.959375e+002
5.608718e+002, 6.961852e+002
5.613539e+002, 6.964581e+002
5.618360e+002, 6.968702e+002
5.623181e+002, 6.975627e+002
5.628002e+002, 6.982331e+002
5.632823e+002, 6.989938e+002
5.637645e+002, 6.996908e+002
5.642466e+002, 7.000652e+002
5.647287e+002, 7.000213e+002
5.652108e+002, 6.998787e+002
5.656929e+002, 6.996317e+002
5.661750e+002, 6.993560e+002
5.666572e+002, 6.993319e+002
5.671393e+002, 6.995396e+002
5.676214e+002, 7.001229e+002
5.681035e+002, 7.013016e+002
5.685856e+002, 7.029301e+002
5.690677e+002, 7.045914e+002
5.695499e+002, 7.062633e+002
5.700320e+002, 7.077570e+002
5.705141e+002, 7.087990e+002
5.709962e+002, 7.095424e+002
5.714783e+002, 7.101967e+002
5.719604e+002, 7.107004e+002
5.724426e+002, 7.113745e+002
5.729247e+002, 7.127041e+002
5.734068e+002, 7.143139e+002
5.738889e+002, 7.155619e+002
5.743710e+002, 7.155959e+002
5.748531e+002, 7.158814e+002
5.753353e+002, 7.170307e+002
5.758174e+002, 7.189968e+002
5.762995e+002, 7.208936e+002
5.767816e+002, 7.226739e+002
5.772637e+002, 7.243907e+002
5.777458e+002, 7.260377e+002
5.782280e+002, 7.275426e+002
5.787101e+002, 7.294319e+002
5.791922e+002, 7.319485e+002
5.796743e+002, 7.343134e+002
5.801564e+002, 7.355959e+002
5.806385e+002, 7.358442e+002
5.811207e+002, 7.358725e+002
5.816028e+002, 7.355817e+002
5.820849e+002, 7.356693e+002
5.825670e+002, 7.374812e+002
5.830491e+002, 7.405988e+002
5.835313e+002, 7.437712e+002
5.840134e+002, 7.466364e+002
5.844955e+002, 7.490900e+002
5.849776e+002, 7.507352e+002
5.854597e+002, 7.517474e+002
5.859418e+002, 7.531049e+002
5.864240e+002, 7.556212e+002
5.869061e+002, 7.583330e+002
5.873882e+002, 7.606685e+002
5.878703e+002, 7.623915e+002
5.883524e+002, 7.643486e+002
5.888345e+002, 7.668584e+002
5.893167e+002, 7.694962e+002
5.897988e+002, 7.719968e+002
5.902809e+002, 7.746024e+002
5.907630e+002, 7.764031e+002
5.912451e+002, 7.769090e+002
5.917272e+002, 7.770310e+002
5.922094e+002, 7.786513e+002
5.926915e+002, 7.818491e+002
5.931736e+002, 7.850908e+002
5.936557e+002, 7.878138e+002
5.941378e+002, 7.902730e+002
5.946199e+002, 7.932419e+002
5.951021e+002, 7.966112e+002
5.955842e+002, 7.996751e+002
5.960663e+002, 8.013229e+002
5.965484e+002, 8.027447e+002
5.970305e+002, 8.054819e+002
5.975126e+002, 8.096899e+002
5.979948e+002, 8.141524e+002
5.984769e+002, 8.183772e+002
5.989590e+002, 8.223987e+002
5.994411e+002, 8.262975e+002
5.999232e+002, 8.302812e+002
6.004053e+002, 8.338383e+002
6.008875e+002, 8.367416e+002
6.013696e+002, 8.392042e+002
6.018517e+002, 8.414055e+002
6.023338e+002, 8.428477e+002
6.028159e+002, 8.450488e+002
6.032980e+002, 8.486397e+002
6.037802e+002, 8.530870e+002
6.042623e+002, 8.562711e+002
6.047444e+002, 8.579369e+002
6.052265e+002, 8.602448e+002
6.057086e+002, 8.645576e+002
6.061907e+002, 8.703927e+002
6.066729e+002, 8.765442e+002
6.071550e+002, 8.829606e+002
6.076371e+002, 8.886065e+002
6.081192e+002, 8.918349e+002
6.086013e+002, 8.940597e+002
6.090834e+002, 8.971257e+002
6.095656e+002, 9.015497e+002
6.100477e+002, 9.060670e+002
6.105298e+002, 9.103416e+002
6.110119e+002, 9.141954e+002
6.114940e+002, 9.174799e+002
6.119761e+002, 9.187538e+002
6.124583e+002, 9.211242e+002
6.129404e+002, 9.258573e+002
6.134225e+002, 9.318981e+002
6.139046e+002, 9.370763e+002
6.143867e+002, 9.410696e+002
6.148688e+002, 9.446580e+002
6.153510e+002, 9.477522e+002
6.158331e+002, 9.505961e+002
6.163152e+002, 9.549866e+002
6.167973e+002, 9.609971e+002
6.172794e+002, 9.674710e+002
6.177615e+002, 9.740985e+002
6.182437e+002, 9.804536e+002
6.187258e+002, 9.852531e+002
6.192079e+002, 9.884005e+002
6.196900e+002, 9.912825e+002
6.201721e+002, 9.949081e+002
6.206542e+002, 9.990236e+002
6.211364e+002, 1.003333e+003
6.216185e+002, 1.007911e+003
6.221006e+002, 1.012478e+003
6.225827e+002, 1.017278e+003
6.230648e+002, 1.021952e+003
6.235469e+002, 1.025998e+003
6.240291e+002, 1.028412e+003
6.245112e+002, 1.031364e+003
6.249933e+002, 1.035383e+003
6.254754e+002, 1.040190e+003
6.259575e+002, 1.044760e+003
6.264396e+002, 1.049165e+003
6.269218e+002, 1.053216e+003
6.274039e+002, 1.056399e+003
6.278860e+002, 1.059105e+003
6.283681e+002, 1.064216e+003
6.288502e+002, 1.071826e+003
6.293323e+002, 1.079299e+003
6.298145e+002, 1.084474e+003
6.302966e+002, 1.088144e+003
6.307787e+002, 1.091606e+003
6.312608e+002, 1.094896e+003
6.317429e+002, 1.099003e+003
6.322250e+002, 1.105498e+003
6.327072e+002, 1.112791e+003
6.331893e+002, 1.119227e+003
6.336714e+002, 1.123736e+003
6.341535e+002, 1.128332e+003
6.346356e+002, 1.133357e+003
6.351177e+002, 1.138807e+003
6.355999e+002, 1.144794e+003
6.360820e+002, 1.151771e+003
6.365641e+002, 1.158500e+003
6.370462e+002, 1.164636e+003
6.375283e+002, 1.170435e+003
6.380104e+002, 1.177049e+003
6.384926e+002, 1.184774e+003
6.389747e+002, 1.191782e+003
6.394568e+002, 1.196860e+003
6.399389e+002, 1.200751e+003
6.404210e+002, 1.205747e+003
6.409031e+002, 1.211875e+003
6.413853e+002, 1.218670e+003
6.418674e+002, 1.225962e+003
6.423495e+002, 1.233692e+003
6.428316e+002, 1.241633e+003
6.433137e+002, 1.249820e+003
6.437958e+002, 1.258365e+003
6.442780e+002, 1.267354e+003
6.447601e+002, 1.276822e+003
6.452422e+002, 1.286758e+003
6.457243e+002, 1.297732e+003
6.462064e+002, 1.308247e+003
6.466885e+002, 1.317816e+003
6.471707e+002, 1.327131e+003
6.476528e+002, 1.336938e+003
6.481349e+002, 1.347432e+003
6.486170e+002, 1.357969e+003
6.490991e+002, 1.368494e+003
6.495812e+002, 1.379067e+003
6.500634e+002, 1.390129e+003
6.505455e+002, 1.401760e+003
6.510276e+002, 1.413741e+003
6.515097e+002, 1.426465e+003
6.519918e+002, 1.439350e+003
6.524739e+002, 1.451107e+003
6.529561e+002, 1.461950e+003
6.534382e+002, 1.473894e+003
6.539203e+002, 1.489113e+003
6.544024e+002, 1.504861e+003
6.548845e+002, 1.519317e+003
6.553666e+002, 1.532112e+003
6.558488e+002, 1.545073e+003
6.563309e+002, 1.558575e+003
6.568130e+002, 1.572407e+003
6.572951e+002, 1.586443e+003
6.577772e+002, 1.600775e+003
6.582593e+002, 1.615024e+003
6.587415e+002, 1.629016e+003
6.592236e+002, 1.643213e+003
6.597057e+002, 1.658333e+003
6.601878e+002, 1.674289e+003
6.606699e+002, 1.690033e+003
6.611520e+002, 1.705057e+003
6.616342e+002, 1.719911e+003
6.621163e+002, 1.735486e+003
6.625984e+002, 1.751453e+003
6.630805e+002, 1.766926e+003
6.635626e+002, 1.781080e+003
6.640447e+002, 1.795081e+003
6.645269e+002, 1.810263e+003
6.650090e+002, 1.825930e+003
6.654911e+002, 1.840481e+003
6.659732e+002, 1.851935e+003
6.664553e+002, 1.863641e+003
6.669374e+002, 1.877158e+003
6.674196e+002, 1.892408e+003
6.679017e+002, 1.906881e+003
6.683838e+002, 1.920771e+003
6.688659e+002, 1.933819e+003
6.693480e+002, 1.946062e+003
6.698301e+002, 1.957509e+003
6.703123e+002, 1.967764e+003
6.707944e+002, 1.976757e+003
6.712765e+002, 1.985400e+003
6.717586e+002, 1.994495e+003
6.722407e+002, 2.003969e+003
6.727228e+002, 2.013771e+003
6.732050e+002, 2.024151e+003
6.736871e+002, 2.033602e+003
6.741692e+002, 2.041447e+003
6.746513e+002, 2.047631e+003
6.751334e+002, 2.051933e+003
6.756155e+002, 2.053164e+003
6.760977e+002, 2.054261e+003
6.765798e+002, 2.056229e+003
6.770619e+002, 2.058275e+003
6.775440e+002, 2.059281e+003
6.780261e+002, 2.059335e+003
6.785082e+002, 2.058143e+003
6.789904e+002, 2.055458e+003
6.794725e+002, 2.051687e+003
6.799546e+002, 2.048019e+003
6.804367e+002, 2.044552e+003
6.809188e+002, 2.039667e+003
6.814009e+002, 2.032399e+003
6.818831e+002, 2.023553e+003
6.823652e+002, 2.014500e+003
6.828473e+002, 2.005215e+003
6.833294e+002, 1.995950e+003
6.838115e+002, 1.987515e+003
6.842936e+002, 1.978553e+003
6.847758e+002, 1.967694e+003
6.852579e+002, 1.954948e+003
6.857400e+002, 1.941669e+003
6.862221e+002, 1.927453e+003
6.867042e+002, 1.913588e+003
6.871863e+002, 1.900788e+003
6.876685e+002, 1.889544e+003
6.881506e+002, 1.877238e+003
6.886327e+002, 1.863404e+003
6.891148e+002, 1.848994e+003
6.895969e+002, 1.834909e+003
6.900790e+002, 1.820968e+003
6.905612e+002, 1.806546e+003
6.910433e+002, 1.791648e+003
6.915254e+002, 1.775946e+003
6.920075e+002, 1.759260e+003
6.924896e+002, 1.741806e+003
6.929717e+002, 1.724006e+003
6.934539e+002, 1.705643e+003
6.939360e+002, 1.687698e+003
6.944181e+002, 1.670893e+003
6.949002e+002, 1.655014e+003
6.953823e+002, 1.639666e+003
6.958644e+002, 1.625215e+003
6.963466e+002, 1.611074e+003
6.968287e+002, 1.597422e+003
6.973108e+002, 1.583985e+003
6.977929e+002, 1.570370e+003
6.982750e+002, 1.556612e+003
6.987571e+002, 1.542735e+003
6.992393e+002, 1.528831e+003
6.997214e+002, 1.514742e+003
7.002035e+002, 1.499805e+003
7.006856e+002, 1.484143e+003
7.011677e+002, 1.469399e+003
7.016498e+002, 1.456715e+003
7.021320e+002, 1.445325e+003
7.026141e+002, 1.434730e+003
7.030962e+002, 1.424736e+003
7.035783e+002, 1.414524e+003
7.040604e+002, 1.402943e+003
7.045425e+002, 1.391446e+003
7.050247e+002, 1.380975e+003
7.055068e+002, 1.371671e+003
7.059889e+002, 1.362706e+003
7.064710e+002, 1.354392e+003
7.069531e+002, 1.345941e+003
7.074352e+002, 1.336673e+003
7.079174e+002, 1.326467e+003
7.083995e+002, 1.317444e+003
7.088816e+002, 1.309822e+003
7.093637e+002, 1.302576e+003
7.098458e+002, 1.294548e+003
7.103279e+002, 1.286121e+003
7.108101e+002, 1.278007e+003
7.112922e+002, 1.270413e+003
7.117743e+002, 1.263139e+003
7.122564e+002, 1.255786e+003
7.127385e+002, 1.248723e+003
7.132206e+002, 1.242402e+003
7.137028e+002, 1.238144e+003
7.141849e+002, 1.233076e+003
7.146670e+002, 1.225295e+003
7.151491e+002, 1.217047e+003
7.156312e+002, 1.211603e+003
7.161133e+002, 1.210416e+003
7.165955e+002, 1.207971e+003
7.170776e+002, 1.202938e+003
7.175597e+002, 1.196638e+003
7.180418e+002, 1.192048e+003
7.185239e+002, 1.188983e+003
7.190060e+002, 1.186110e+003
7.194882e+002, 1.182952e+003
7.199703e+002, 1.179642e+003
7.204524e+002, 1.176099e+003
7.209345e+002, 1.172493e+003
7.214166e+002, 1.169246e+003
7.218987e+002, 1.166951e+003
7.223809e+002, 1.164696e+003
7.228630e+002, 1.162103e+003
7.233451e+002, 1.159192e+003
7.238272e+002, 1.156204e+003
7.243093e+002, 1.152798e+003
7.247914e+002, 1.149910e+003
7.252736e+002, 1.148033e+003
7.257557e+002, 1.147093e+003
7.262378e+002, 1.146045e+003
7.267199e+002, 1.144877e+003
7.272020e+002, 1.143740e+003
7.276841e+002, 1.142845e+003
7.281663e+002, 1.142029e+003
7.286484e+002, 1.140982e+003
7.291305e+002, 1.139695e+003
7.296126e+002, 1.138126e+003
7.300947e+002, 1.135137e+003
7.305768e+002, 1.132595e+003
7.310590e+002, 1.132434e+003
7.315411e+002, 1.135510e+003
7.320232e+002, 1.137599e+003
7.325053e+002, 1.136873e+003
7.329874e+002, 1.135764e+003
7.334695e+002, 1.135768e+003
7.339517e+002, 1.137274e+003
7.344338e+002, 1.138493e+003
7.349159e+002, 1.139409e+003
7.353980e+002, 1.140064e+003
7.358801e+002, 1.140348e+003
7.363622e+002, 1.140382e+003
7.368444e+002, 1.140571e+003
7.373265e+002, 1.140915e+003
7.378086e+002, 1.141818e+003
7.382907e+002, 1.144237e+003
7.387728e+002, 1.147241e+003
7.392549e+002, 1.149608e+003
7.397371e+002, 1.150928e+003
7.402192e+002, 1.151769e+003
7.407013e+002, 1.151507e+003
7.411834e+002, 1.151193e+003
7.416655e+002, 1.152196e+003
7.421476e+002, 1.154816e+003
7.426298e+002, 1.158113e+003
7.431119e+002, 1.162318e+003
7.435940e+002, 1.166659e+003
7.440761e+002, 1.169407e+003
7.445582e+002, 1.170717e+003
7.450403e+002, 1.172681e+003
7.455225e+002, 1.176254e+003
7.460046e+002, 1.180134e+003
7.464867e+002, 1.182592e+003
7.469688e+002, 1.184138e+003
7.474509e+002, 1.185861e+003
7.479330e+002, 1.188244e+003
7.484152e+002, 1.190856e+003
7.488973e+002, 1.193880e+003
7.493794e+002, 1.197072e+003
7.498615e+002, 1.199489e+003
7.503436e+002, 1.200549e+003
7.508257e+002, 1.202034e+003
7.513079e+002, 1.204658e+003
7.517900e+002, 1.207946e+003
7.522721e+002, 1.209772e+003
7.527542e+002, 1.210161e+003
7.532363e+002, 1.211045e+003
7.537184e+002, 1.213832e+003
7.542006e+002, 1.217386e+003
7.546827e+002, 1.219781e+003
7.551648e+002, 1.221311e+003
7.556469e+002, 1.223087e+003
7.561290e+002, 1.225693e+003
7.566111e+002, 1.228712e+003
7.570933e+002, 1.232222e+003
7.575754e+002, 1.236094e+003
7.580575e+002, 1.239382e+003
7.585396e+002, 1.241755e+003
7.590217e+002, 1.243900e+003
7.595038e+002, 1.246033e+003
7.599860e+002, 1.248141e+003
7.604681e+002, 1.250303e+003
7.609502e+002, 1.252486e+003
7.614323e+002, 1.254950e+003
7.619144e+002, 1.258383e+003
7.623965e+002, 1.262021e+003
7.628787e+002, 1.264036e+003
7.633608e+002, 1.264547e+003
7.638429e+002, 1.265622e+003
7.643250e+002, 1.269697e+003
7.648071e+002, 1.273840e+003
7.652892e+002, 1.275703e+003
7.657714e+002, 1.274747e+003
7.662535e+002, 1.274694e+003
7.667356e+002, 1.276299e+003
7.672177e+002, 1.278145e+003
7.676998e+002, 1.279375e+003
7.681819e+002, 1.279941e+003
7.686641e+002, 1.281258e+003
7.691462e+002, 1.283459e+003
7.696283e+002, 1.285360e+003
7.701104e+002, 1.285530e+003
7.705925e+002, 1.284813e+003
7.710746e+002, 1.284998e+003
7.715568e+002, 1.286290e+003
7.720389e+002, 1.287327e+003
7.725210e+002, 1.286824e+003
7.730031e+002, 1.286003e+003
7.734852e+002, 1.285951e+003
7.739673e+002, 1.287308e+003
7.744495e+002, 1.287664e+003
7.749316e+002, 1.286172e+003
7.754137e+002, 1.284571e+003
7.758958e+002, 1.284454e+003
7.763779e+002, 1.286032e+003
7.768600e+002, 1.286136e+003
7.773422e+002, 1.284506e+003
7.778243e+002, 1.282404e+003
7.783064e+002, 1.281327e+003
7.787885e+002, 1.280642e+003
7.792706e+002, 1.279007e+003
7.797527e+002, 1.276094e+003
7.802349e+002, 1.273160e+003
7.807170e+002, 1.270662e+003
7.811991e+002, 1.268703e+003
7.816812e+002, 1.267435e+003
7.821633e+002, 1.267493e+003
7.826454e+002, 1.267183e+003
7.831276e+002, 1.266755e+003
7.836097e+002, 1.265665e+003
7.840918e+002, 1.262951e+003
7.845739e+002, 1.258573e+003
7.850560e+002, 1.255545e+003
7.855381e+002, 1.254397e+003
7.860203e+002, 1.253446e+003
7.865024e+002, 1.250377e+003
7.869845e+002, 1.246354e+003
7.874666e+002, 1.243538e+003
7.879487e+002, 1.242894e+003
7.884308e+002, 1.241822e+003
7.889130e+002, 1.238139e+003
7.893951e+002, 1.233820e+003
7.898772e+002, 1.230912e+003
7.903593e+002, 1.230878e+003
7.908414e+002, 1.229803e+003
7.913235e+002, 1.227238e+003
7.918057e+002, 1.224184e+003
7.922878e+002, 1.222009e+003
7.927699e+002, 1.220605e+003
7.932520e+002, 1.218753e+003
7.937341e+002, 1.216187e+003
7.942162e+002, 1.213444e+003
7.946984e+002, 1.211411e+003
7.951805e+002, 1.209449e+003
7.956626e+002, 1.206484e+003
7.961447e+002, 1.201689e+003
7.966268e+002, 1.197117e+003
7.971089e+002, 1.193735e+003
7.975911e+002, 1.190811e+003
7.980732e+002, 1.187498e+003
7.985553e+002, 1.183552e+003
7.990374e+002, 1.179652e+003
7.995195e+002, 1.175620e+003
8.000016e+002, 1.172078e+003
8.004838e+002, 1.170295e+003
8.009659e+002, 1.169855e+003
8.014480e+002, 1.168222e+003
8.019301e+002, 1.164845e+003
8.024122e+002, 1.160629e+003
8.028943e+002, 1.155928e+003
8.033765e+002, 1.151176e+003
8.038586e+002, 1.146840e+003
8.043407e+002, 1.142902e+003
8.048228e+002, 1.139647e+003
8.053049e+002, 1.137973e+003
8.057870e+002, 1.136460e+003
8.062692e+002, 1.133500e+003
8.067513e+002, 1.128476e+003
8.072334e+002, 1.124469e+003
8.077155e+002, 1.121964e+003
8.081976e+002, 1.119956e+003
8.086797e+002, 1.117132e+003
8.091619e+002, 1.113749e+003
8.096440e+002, 1.110590e+003
8.101261e+002, 1.107846e+003
8.106082e+002, 1.105217e+003
8.110903e+002, 1.102484e+003
8.115724e+002, 1.099783e+003
8.120546e+002, 1.097318e+003
8.125367e+002, 1.095921e+003
8.130188e+002, 1.093407e+003
8.135009e+002, 1.089099e+003
8.139830e+002, 1.084284e+003
8.144651e+002, 1.080332e+003
8.149473e+002, 1.077247e+003
8.154294e+002, 1.074860e+003
8.159115e+002, 1.073330e+003
8.163936e+002, 1.071636e+003
8.168757e+002, 1.067824e+003
8.173578e+002, 1.063247e+003
8.178400e+002, 1.060319e+003
8.183221e+002, 1.059881e+003
8.188042e+002, 1.059915e+003
8.192863e+002, 1.060005e+003
8.197684e+002, 1.059760e+003
8.202505e+002, 1.058768e+003
8.207327e+002, 1.056954e+003
8.212148e+002, 1.054417e+003
8.216969e+002, 1.050680e+003
8.221790e+002, 1.047009e+003
8.226611e+002, 1.045127e+003
8.231432e+002, 1.044676e+003
8.236254e+002, 1.043604e+003
8.241075e+002, 1.041648e+003
8.245896e+002, 1.039338e+003
8.250717e+002, 1.036894e+003
8.255538e+002, 1.034524e+003
8.260359e+002, 1.032612e+003
8.265181e+002, 1.031477e+003
8.270002e+002, 1.029962e+003
8.274823e+002, 1.026758e+003
8.279644e+002, 1.023972e+003
8.284465e+002, 1.023319e+003
8.289286e+002, 1.025643e+003
8.294108e+002, 1.025869e+003
8.298929e+002, 1.023619e+003
8.303750e+002, 1.020997e+003
8.308571e+002, 1.020361e+003
8.313392e+002, 1.020726e+003
8.318214e+002, 1.019673e+003
8.323035e+002, 1.016915e+003
8.327856e+002, 1.014453e+003
8.332677e+002, 1.013460e+003
8.337498e+002, 1.013313e+003
8.342319e+002, 1.013702e+003
8.347141e+002, 1.014817e+003
8.351962e+002, 1.015371e+003
8.356783e+002, 1.015088e+003
8.361604e+002, 1.014659e+003
8.366425e+002, 1.014415e+003
8.371246e+002, 1.014366e+003
8.376068e+002, 1.014784e+003
8.380889e+002, 1.015667e+003
8.385710e+002, 1.016921e+003
8.390531e+002, 1.019135e+003
8.395352e+002, 1.021275e+003
8.400173e+002, 1.021881e+003
8.404995e+002, 1.020909e+003
8.409816e+002, 1.020464e+003
8.414637e+002, 1.021827e+003
8.419458e+002, 1.023310e+003
8.424279e+002, 1.023997e+003
8.429100e+002, 1.023915e+003
8.433922e+002, 1.024896e+003
8.438743e+002, 1.027130e+003
8.443564e+002, 1.029332e+003
8.448385e+002, 1.030604e+003
8.453206e+002, 1.031322e+003
8.458027e+002, 1.032239e+003
8.462849e+002, 1.033363e+003
8.467670e+002, 1.034735e+003
8.472491e+002, 1.036562e+003
8.477312e+002, 1.038486e+003
8.482133e+002, 1.040121e+003
8.486954e+002, 1.041593e+003
8.491776e+002, 1.043943e+003
8.496597e+002, 1.047890e+003
8.501418e+002, 1.051361e+003
8.506239e+002, 1.053406e+003
8.511060e+002, 1.054606e+003
8.515881e+002, 1.057088e+003
8.520703e+002, 1.060679e+003
8.525524e+002, 1.063859e+003
8.530345e+002, 1.065248e+003
8.535166e+002, 1.066422e+003
8.539987e+002, 1.068893e+003
8.544808e+002, 1.072288e+003
8.549630e+002, 1.075684e+003
8.554451e+002, 1.078824e+003
8.559272e+002, 1.081825e+003
8.564093e+002, 1.084731e+003
8.568914e+002, 1.087461e+003
8.573735e+002, 1.089861e+003
8.578557e+002, 1.091876e+003
8.583378e+002, 1.094192e+003
8.588199e+002, 1.096975e+003
8.593020e+002, 1.100226e+003
8.597841e+002, 1.104502e+003
8.602662e+002, 1.109166e+003
8.607484e+002, 1.112785e+003
8.612305e+002, 1.114369e+003
8.617126e+002, 1.115608e+003
8.621947e+002, 1.116925e+003
8.626768e+002, 1.118336e+003
8.631589e+002, 1.119790e+003
8.636411e+002, 1.121159e+003
8.641232e+002, 1.123135e+003
8.646053e+002, 1.126074e+003
8.650874e+002, 1.128922e+003
8.655695e+002, 1.130078e+003
8.660516e+002, 1.129996e+003
8.665338e+002, 1.130165e+003
8.670159e+002, 1.130923e+003
8.674980e+002, 1.131620e+003
8.679801e+002, 1.131436e+003
8.684622e+002, 1.131178e+003
8.689443e+002, 1.131814e+003
8.694265e+002, 1.134629e+003
8.699086e+002, 1.135377e+003
8.703907e+002, 1.133139e+003
8.708728e+002, 1.130281e+003
8.713549e+002, 1.128972e+003
8.718370e+002, 1.129010e+003
8.723192e+002, 1.128115e+003
8.728013e+002, 1.126189e+003
8.732834e+002, 1.123382e+003
8.737655e+002, 1.118971e+003
8.742476e+002, 1.114275e+003
8.747297e+002, 1.110932e+003
8.752119e+002, 1.109101e+003
8.756940e+002, 1.106442e+003
8.761761e+002, 1.102185e+003
8.766582e+002, 1.097141e+003
8.771403e+002, 1.091220e+003
8.776224e+002, 1.084578e+003
8.781046e+002, 1.079807e+003
8.785867e+002, 1.077043e+003
8.790688e+002, 1.073682e+003
8.795509e+002, 1.068308e+003
8.800330e+002, 1.061437e+003
8.805151e+002, 1.053402e+003
8.809973e+002, 1.044457e+003
8.814794e+002, 1.035517e+003
8.819615e+002, 1.026856e+003
8.824436e+002, 1.018414e+003
8.829257e+002, 1.010246e+003
8.834078e+002, 1.002330e+003
8.838900e+002, 9.941537e+002
8.843721e+002, 9.856873e+002
8.848542e+002, 9.771367e+002
8.853363e+002, 9.686496e+002
8.858184e+002, 9.599429e+002
8.863005e+002, 9.503737e+002
8.867827e+002, 9.401370e+002
8.872648e+002, 9.298310e+002
8.877469e+002, 9.191313e+002
8.882290e+002, 9.092424e+002
8.887111e+002, 9.018925e+002
8.891932e+002, 8.952078e+002
8.896754e+002, 8.863907e+002
8.901575e+002, 8.748012e+002
8.906396e+002, 8.629270e+002
8.911217e+002, 8.511230e+002
8.916038e+002, 8.389109e+002
8.920859e+002, 8.247536e+002
8.925681e+002, 8.096008e+002
8.930502e+002, 7.965568e+002
8.935323e+002, 7.864484e+002
8.940144e+002, 7.768370e+002
8.944965e+002, 7.665217e+002
8.949786e+002, 7.558242e+002
8.954608e+002, 7.448326e+002
8.959429e+002, 7.335183e+002
8.964250e+002, 7.223874e+002
8.969071e+002, 7.116112e+002
8.973892e+002, 7.008392e+002
8.978713e+002, 6.898655e+002
8.983535e+002, 6.787058e+002
8.988356e+002, 6.668909e+002
8.993177e+002, 6.547023e+002
8.997998e+002, 6.462429e+002
9.002819e+002, 6.502729e+002
9.007640e+002, 6.540702e+002
9.012462e+002, 6.468439e+002
9.017283e+002, 6.292549e+002
9.022104e+002, 6.119541e+002
9.026925e+002, 5.954559e+002
9.031746e+002, 5.810215e+002
9.036567e+002, 5.692208e+002
9.041389e+002, 5.595762e+002
9.046210e+002, 5.505355e+002
9.051031e+002, 5.420552e+002
9.055852e+002, 5.333766e+002
9.060673e+002, 5.237925e+002
9.065494e+002, 5.144297e+002
9.070316e+002, 5.061802e+002
9.075137e+002, 4.989286e+002
9.079958e+002, 4.923614e+002
9.084779e+002, 4.877920e+002
9.089600e+002, 4.819857e+002
9.094421e+002, 4.739702e+002
9.099243e+002, 4.654003e+002
9.104064e+002, 4.584604e+002
9.108885e+002, 4.530803e+002
9.113706e+002, 4.474151e+002
9.118527e+002, 4.411632e+002
9.123348e+002, 4.348076e+002
9.128170e+002, 4.287597e+002
9.132991e+002, 4.228994e+002
9.137812e+002, 4.169864e+002
9.142633e+002, 4.107957e+002
9.147454e+002, 4.054150e+002
9.152275e+002, 4.015434e+002
9.157097e+002, 3.978492e+002
9.161918e+002, 3.935080e+002
9.166739e+002, 3.885348e+002
9.171560e+002, 3.839115e+002
9.176381e+002, 3.796750e+002
9.181202e+002, 3.756647e+002
9.186024e+002, 3.717732e+002
9.190845e+002, 3.680602e+002
9.195666e+002, 3.648067e+002
9.200487e+002, 3.618906e+002
9.205308e+002, 3.584875e+002
9.210129e+002, 3.534288e+002
9.214951e+002, 3.489921e+002
9.219772e+002, 3.459046e+002
9.224593e+002, 3.437310e+002
9.229414e+002, 3.411867e+002
9.234235e+002, 3.382955e+002
9.239056e+002, 3.353774e+002
9.243878e+002, 3.325417e+002
9.248699e+002, 3.297038e+002
9.253520e+002, 3.266086e+002
9.258341e+002, 3.234609e+002
9.263162e+002, 3.205273e+002
9.267983e+002, 3.176481e+002
9.272805e+002, 3.154289e+002
9.277626e+002, 3.145897e+002
9.282447e+002, 3.137147e+002
9.287268e+002, 3.110418e+002
9.292089e+002, 3.065694e+002
9.296910e+002, 3.032754e+002
9.301732e+002, 3.014753e+002
9.306553e+002, 2.999708e+002
9.311374e+002, 2.973647e+002
9.316195e+002, 2.946568e+002
9.321016e+002, 2.930883e+002
9.325837e+002, 2.928725e+002
9.330659e+002, 2.924956e+002
9.335480e+002, 2.920384e+002
9.340301e+002, 2.907977e+002
9.345122e+002, 2.881045e+002
9.349943e+002, 2.843027e+002
9.354764e+002, 2.820827e+002
9.359586e+002, 2.813805e+002
9.364407e+002, 2.808927e+002
9.369228e+002, 2.801397e+002
9.374049e+002, 2.790738e+002
9.378870e+002, 2.774057e+002
9.383691e+002, 2.753973e+002
9.388513e+002, 2.736981e+002
9.393334e+002, 2.728389e+002
9.398155e+002, 2.718226e+002
9.402976e+002, 2.705923e+002
9.407797e+002, 2.691026e+002
9.412618e+002, 2.670445e+002
9.417440e+002, 2.645142e+002
9.422261e+002, 2.627758e+002
9.427082e+002, 2.620503e+002
9.431903e+002, 2.620287e+002
9.436724e+002, 2.635826e+002
9.441545e+002, 2.650008e+002
9.446367e+002, 2.641339e+002
9.451188e+002, 2.597663e+002
9.456009e+002, 2.567373e+002
9.460830e+002, 2.559395e+002
9.465651e+002, 2.556770e+002
9.470472e+002, 2.550614e+002
9.475294e+002, 2.541078e+002
9.480115e+002, 2.528509e+002
9.484936e+002, 2.513455e+002
9.489757e+002, 2.503231e+002
9.494578e+002, 2.510315e+002
9.499399e+002, 2.517154e+002
9.504221e+002, 2.507649e+002
9.509042e+002, 2.485857e+002
9.513863e+002, 2.468667e+002
9.518684e+002, 2.458580e+002
9.523505e+002, 2.452004e+002
9.528326e+002, 2.449698e+002
9.533148e+002, 2.448910e+002
9.537969e+002, 2.444518e+002
9.542790e+002, 2.437058e+002
9.547611e+002, 2.428665e+002
9.552432e+002, 2.420024e+002
9.557253e+002, 2.410280e+002
9.562075e+002, 2.395453e+002
9.566896e+002, 2.381173e+002
9.571717e+002, 2.373616e+002
9.576538e+002, 2.375939e+002
9.581359e+002, 2.375821e+002
9.586180e+002, 2.372409e+002
9.591002e+002, 2.368460e+002
9.595823e+002, 2.367111e+002
9.600644e+002, 2.366645e+002
9.605465e+002, 2.360887e+002
9.610286e+002, 2.350365e+002
9.615107e+002, 2.340325e+002
9.619929e+002, 2.332498e+002
9.624750e+002, 2.327059e+002
9.629571e+002, 2.325307e+002
9.634392e+002, 2.326111e+002
9.639213e+002, 2.325835e+002
9.644034e+002, 2.325136e+002
9.648856e+002, 2.319889e+002
9.653677e+002, 2.306908e+002
9.658498e+002, 2.293482e+002
9.663319e+002, 2.293363e+002
9.668140e+002, 2.301155e+002
9.672961e+002, 2.305569e+002
9.677783e+002, 2.302754e+002
9.682604e+002, 2.298716e+002
9.687425e+002, 2.296683e+002
9.692246e+002, 2.293500e+002
9.697067e+002, 2.286175e+002
9.701888e+002, 2.274009e+002
9.706710e+002, 2.263481e+002
9.711531e+002, 2.254691e+002
9.716352e+002, 2.247224e+002
9.721173e+002, 2.238875e+002
9.725994e+002, 2.232915e+002
9.730815e+002, 2.236033e+002
9.735637e+002, 2.246520e+002
9.740458e+002, 2.253928e+002
9.745279e+002, 2.257258e+002
9.750100e+002, 2.253091e+002
9.754921e+002, 2.236309e+002
9.759742e+002, 2.214341e+002
9.764564e+002, 2.207847e+002
9.769385e+002, 2.215796e+002
9.774206e+002, 2.218722e+002
9.779027e+002, 2.210260e+002
9.783848e+002, 2.199550e+002
9.788669e+002, 2.195207e+002
9.793491e+002, 2.193732e+002
9.798312e+002, 2.190278e+002
9.803133e+002, 2.180674e+002
9.807954e+002, 2.179066e+002
9.812775e+002, 2.190963e+002
9.817596e+002, 2.201889e+002
9.822418e+002, 2.200003e+002
9.827239e+002, 2.187952e+002
9.832060e+002, 2.179620e+002
9.836881e+002, 2.174772e+002
9.841702e+002, 2.170823e+002
9.846523e+002, 2.165738e+002
9.851345e+002, 2.161435e+002
9.856166e+002, 2.159129e+002
9.860987e+002, 2.158566e+002
9.865808e+002, 2.158990e+002
9.870629e+002, 2.161951e+002
9.875450e+002, 2.160271e+002
9.880272e+002, 2.151194e+002
9.885093e+002, 2.140225e+002
9.889914e+002, 2.131087e+002
9.894735e+002, 2.127412e+002
9.899556e+002, 2.141223e+002
9.904377e+002, 2.182118e+002
9.909199e+002, 2.210056e+002
9.914020e+002, 2.201660e+002
9.918841e+002, 2.179619e+002
9.923662e+002, 2.156162e+002
9.928483e+002, 2.131237e+002
9.933304e+002, 2.121492e+002
9.938126e+002, 2.127791e+002
9.942947e+002, 2.134219e+002
9.947768e+002, 2.129129e+002
9.952589e+002, 2.119888e+002
9.957410e+002, 2.113764e+002
9.962231e+002, 2.110789e+002
9.967053e+002, 2.110692e+002
9.971874e+002, 2.117049e+002
9.976695e+002, 2.120910e+002
9.981516e+002, 2.118342e+002
9.986337e+002, 2.115890e+002
9.991158e+002, 2.125369e+002
9.995980e+002, 2.145066e+002
1.000080e+003, 2.163218e+002
1.000562e+003, 2.178780e+002
1.001044e+003, 2.188392e+002
1.001526e+003, 2.189557e+002
1.002009e+003, 2.183843e+002
1.002491e+003, 2.169068e+002
1.002973e+003, 2.143432e+002
1.003455e+003, 2.132269e+002
1.003937e+003, 2.140676e+002
1.004419e+003, 2.147577e+002
1.004901e+003, 2.142876e+002
1.005383e+003, 2.130880e+002
1.005865e+003, 2.117590e+002
1.006348e+003, 2.104785e+002
1.006830e+003, 2.097181e+002
1.007312e+003, 2.104318e+002
1.007794e+003, 2.107827e+002
1.008276e+003, 2.097424e+002
1.008758e+003, 2.083427e+002
1.009240e+003, 2.076156e+002
1.009722e+003, 2.075938e+002
1.010205e+003, 2.080919e+002
1.010687e+003, 2.091697e+002
1.011169e+003, 2.101314e+002
1.011651e+003, 2.105006e+002
1.012133e+003, 2.103460e+002
1.012615e+003, 2.092688e+002
1.013097e+003, 2.073801e+002
1.013579e+003, 2.069039e+002
1.014061e+003, 2.099134e+002
1.014544e+003, 2.113941e+002
1.015026e+003, 2.093363e+002
1.015508e+003, 2.053701e+002
1.015990e+003, 2.035840e+002
1.016472e+003, 2.034568e+002
1.016954e+003, 2.026335e+002
1.017436e+003, 1.996082e+002
1.017918e+003, 1.977141e+002
1.018401e+003, 1.983473e+002
1.018883e+003, 2.016604e+002
1.019365e+003, 2.092325e+002
1.019847e+003, 2.240414e+002
1.020329e+003, 2.267689e+002
1.020811e+003, 2.154615e+002
1.021293e+003, 2.027511e+002
1.021775e+003, 1.976203e+002
1.022257e+003, 1.968862e+002
1.022740e+003, 1.959666e+002
1.023222e+003, 1.949494e+002
1.023704e+003, 1.945462e+002
1.024186e+003, 1.957948e+002
1.024668e+003, 1.966634e+002
1.025150e+003, 1.966090e+002
1.025632e+003, 1.960834e+002
1.026114e+003, 1.958526e+002
1.026596e+003, 1.958711e+002
1.027079e+003, 1.955846e+002
1.027561e+003, 1.948313e+002
1.028043e+003, 1.943855e+002
1.028525e+003, 1.953264e+002
1.029007e+003, 1.965253e+002
1.029489e+003, 1.969029e+002
1.029971e+003, 1.963153e+002
1.030453e+003, 1.961618e+002
1.030936e+003, 1.966038e+002
1.031418e+003, 1.969646e+002
1.031900e+003, 1.970293e+002
1.032382e+003, 1.967594e+002
1.032864e+003, 1.959633e+002
1.033346e+003, 1.947795e+002
1.033828e+003, 1.935381e+002
1.034310e+003, 1.920887e+002
1.034792e+003, 1.910234e+002
1.035275e+003, 1.907500e+002
1.035757e+003, 1.906842e+002
1.036239e+003, 1.902205e+002
1.036721e+003, 1.893633e+002
1.037203e+003, 1.892269e+002
1.037685e+003, 1.898437e+002
1.038167e+003, 1.902915e+002
1.038649e+003, 1.895055e+002
1.039132e+003, 1.886069e+002
1.039614e+003, 1.885779e+002
1.040096e+003, 1.892829e+002
1.040578e+003, 1.898420e+002
1.041060e+003, 1.903529e+002
1.041542e+003, 1.903119e+002
1.042024e+003, 1.895175e+002
1.042506e+003, 1.883693e+002
1.042989e+003, 1.870817e+002
1.043471e+003, 1.859716e+002
1.043953e+003, 1.859412e+002
1.044435e+003, 1.874321e+002
1.044917e+003, 1.883151e+002
1.045399e+003, 1.869484e+002
1.045881e+003, 1.856035e+002
1.046363e+003, 1.855619e+002
1.046845e+003, 1.865979e+002
1.047328e+003, 1.867865e+002
1.047810e+003, 1.861866e+002
1.048292e+003, 1.857583e+002
1.048774e+003, 1.861342e+002
1.049256e+003, 1.865936e+002
1.049738e+003, 1.866095e+002
1.050220e+003, 1.863111e+002
1.050702e+003, 1.858585e+002
1.051184e+003, 1.849708e+002
1.051667e+003, 1.846916e+002
1.052149e+003, 1.851329e+002
1.052631e+003, 1.858815e+002
1.053113e+003, 1.869871e+002
1.053595e+003, 1.879866e+002
1.054077e+003, 1.877796e+002
1.054559e+003, 1.864906e+002
1.055041e+003, 1.852402e+002
1.055523e+003, 1.842373e+002
1.056006e+003, 1.836803e+002
1.056488e+003, 1.837290e+002
1.056970e+003, 1.841184e+002
1.057452e+003, 1.843111e+002
1.057934e+003, 1.843350e+002
1.058416e+003, 1.844801e+002
1.058898e+003, 1.848416e+002
1.059380e+003, 1.850787e+002
1.059863e+003, 1.849039e+002
1.060345e+003, 1.844935e+002
1.060827e+003, 1.838772e+002
1.061309e+003, 1.830507e+002
1.061791e+003, 1.826436e+002
1.062273e+003, 1.827175e+002
1.062755e+003, 1.829214e+002
1.063237e+003, 1.831515e+002
1.063719e+003, 1.833541e+002
1.064202e+003, 1.835610e+002
1.064684e+003, 1.836545e+002
1.065166e+003, 1.833931e+002
1.065648e+003, 1.824099e+002
1.066130e+003, 1.815878e+002
1.066612e+003, 1.810263e+002
1.067094e+003, 1.806221e+002
1.067576e+003, 1.802763e+002
1.068059e+003, 1.800069e+002
1.068541e+003, 1.800198e+002
1.069023e+003, 1.802728e+002
1.069505e+003, 1.804176e+002
1.069987e+003, 1.800189e+002
1.070469e+003, 1.796981e+002
1.070951e+003, 1.799693e+002
1.071433e+003, 1.804786e+002
1.071916e+003, 1.806006e+002
1.072398e+003, 1.803300e+002
1.072880e+003, 1.795466e+002
1.073362e+003, 1.781218e+002
1.073844e+003, 1.769691e+002
1.074326e+003, 1.773702e+002
1.074808e+003, 1.783122e+002
1.075290e+003, 1.787688e+002
1.075772e+003, 1.786344e+002
1.076255e+003, 1.783333e+002
1.076737e+003, 1.778786e+002
1.077219e+003, 1.773145e+002
1.077701e+003, 1.765513e+002
1.078183e+003, 1.758494e+002
1.078665e+003, 1.758047e+002
1.079147e+003, 1.762132e+002
1.079629e+003, 1.766932e+002
1.080111e+003, 1.773775e+002
1.080594e+003, 1.774160e+002
1.081076e+003, 1.756503e+002
1.081558e+003, 1.739713e+002
1.082040e+003, 1.735886e+002
1.082522e+003, 1.743491e+002
1.083004e+003, 1.746814e+002
1.083486e+003, 1.746377e+002
1.083968e+003, 1.747031e+002
1.084450e+003, 1.755414e+002
1.084933e+003, 1.761375e+002
1.085415e+003, 1.756317e+002
1.085897e+003, 1.745477e+002
1.086379e+003, 1.736978e+002
1.086861e+003, 1.730791e+002
1.087343e+003, 1.729166e+002
1.087825e+003, 1.733148e+002
1.088307e+003, 1.735525e+002
1.088790e+003, 1.726865e+002
1.089272e+003, 1.715159e+002
1.089754e+003, 1.710240e+002
1.090236e+003, 1.711477e+002
1.090718e+003, 1.712760e+002
1.091200e+003, 1.712136e+002
1.091682e+003, 1.713532e+002
1.092164e+003, 1.719298e+002
1.092646e+003, 1.724219e+002
1.093129e+003, 1.718577e+002
1.093611e+003, 1.706053e+002
1.094093e+003, 1.694105e+002
1.094575e+003, 1.683528e+002
1.095057e+003, 1.679237e+002
1.095539e+003, 1.692489e+002
1.096021e+003, 1.702417e+002
1.096503e+003, 1.697901e+002
1.096986e+003, 1.683890e+002
1.097468e+003, 1.680471e+002
1.097950e+003, 1.686220e+002
1.098432e+003, 1.688282e+002
1.098914e+003, 1.680048e+002
1.099396e+003, 1.673943e+002
1.099878e+003, 1.684296e+002
1.100360e+003, 1.697624e+002
1.100843e+003, 1.699732e+002
1.101325e+003, 1.689093e+002
1.101807e+003, 1.681813e+002
1.102289e+003, 1.678302e+002
1.102771e+003, 1.673325e+002
1.103253e+003, 1.661337e+002
1.103735e+003, 1.648941e+002
1.104217e+003, 1.643894e+002
1.104699e+003, 1.644332e+002
1.105182e+003, 1.646835e+002
1.105664e+003, 1.651944e+002
1.106146e+003, 1.657441e+002
1.106628e+003, 1.664612e+002
1.107110e+003, 1.668665e+002
1.107592e+003, 1.662488e+002
1.108074e+003, 1.651277e+002
1.108556e+003, 1.645542e+002
1.109038e+003, 1.644966e+002
1.109521e+003, 1.645377e+002
1.110003e+003, 1.645463e+002
1.110485e+003, 1.645921e+002
1.110967e+003, 1.646323e+002
1.111449e+003, 1.647795e+002
1.111931e+003, 1.655627e+002
1.112413e+003, 1.666588e+002
1.112895e+003, 1.663038e+002
1.113377e+003, 1.642635e+002
1.113860e+003, 1.624657e+002
1.114342e+003, 1.621836e+002
1.114824e+003, 1.623818e+002
1.115306e+003, 1.625768e+002
1.115788e+003, 1.627761e+002
1.116270e+003, 1.631916e+002
1.116752e+003, 1.638127e+002
1.117234e+003, 1.637237e+002
1.117717e+003, 1.624863e+002
1.118199e+003, 1.613458e+002
1.118681e+003, 1.616822e+002
1.119163e+003, 1.624506e+002
1.119645e+003, 1.626599e+002
1.120127e+003, 1.622333e+002
1.120609e+003, 1.617410e+002
1.121091e+003, 1.611514e+002
1.121573e+003, 1.606897e+002
1.122056e+003, 1.604781e+002
1.122538e+003, 1.603966e+002
1.123020e+003, 1.602202e+002
1.123502e+003, 1.600880e+002
1.123984e+003, 1.602757e+002
1.124466e+003, 1.612878e+002
1.124948e+003, 1.614275e+002
1.125430e+003, 1.603375e+002
1.125913e+003, 1.592642e+002
1.126395e+003, 1.591502e+002
1.126877e+003, 1.595902e+002
1.127359e+003, 1.595852e+002
1.127841e+003, 1.593489e+002
1.128323e+003, 1.594749e+002
1.128805e+003, 1.606990e+002
1.129287e+003, 1.615945e+002
1.129770e+003, 1.621379e+002
1.130252e+003, 1.620952e+002
1.130734e+003, 1.608545e+002
1.131216e+003, 1.588263e+002
1.131698e+003, 1.576566e+002
1.132180e+003, 1.573393e+002
1.132662e+003, 1.573251e+002
1.133144e+003, 1.576008e+002
1.133626e+003, 1.577905e+002
1.134109e+003, 1.577479e+002
1.134591e+003, 1.575549e+002
1.135073e+003, 1.572891e+002
1.135555e+003, 1.569644e+002
1.136037e+003, 1.567449e+002
1.136519e+003, 1.566512e+002
1.137001e+003, 1.565778e+002
1.137483e+003, 1.564045e+002
1.137965e+003, 1.562729e+002
1.138448e+003, 1.563809e+002
1.138930e+003, 1.565994e+002
1.139412e+003, 1.564596e+002
1.139894e+003, 1.559367e+002
1.140376e+003, 1.555755e+002
1.140858e+003, 1.554788e+002
1.141340e+003, 1.556368e+002
1.141822e+003, 1.564485e+002
1.142304e+003, 1.572130e+002
1.142787e+003, 1.570403e+002
1.143269e+003, 1.559108e+002
1.143751e+003, 1.558242e+002
1.144233e+003, 1.570555e+002
1.144715e+003, 1.577571e+002
1.145197e+003, 1.571510e+002
1.145679e+003, 1.560701e+002
1.146161e+003, 1.548687e+002
1.146644e+003, 1.542045e+002
1.147126e+003, 1.553052e+002
1.147608e+003, 1.592917e+002
1.148090e+003, 1.611026e+002
1.148572e+003, 1.601770e+002
1.149054e+003, 1.585649e+002
1.149536e+003, 1.569655e+002
1.150018e+003, 1.556351e+002
1.150500e+003, 1.551518e+002
1.150983e+003, 1.552396e+002
1.151465e+003, 1.553410e+002
1.151947e+003, 1.552521e+002
1.152429e+003, 1.553083e+002
1.152911e+003, 1.556009e+002
1.153393e+003, 1.558949e+002
1.153875e+003, 1.560919e+002
1.154357e+003, 1.561455e+002
1.154840e+003, 1.557937e+002
1.155322e+003, 1.551744e+002
1.155804e+003, 1.547420e+002
1.156286e+003, 1.549053e+002
1.156768e+003, 1.549436e+002
1.157250e+003, 1.547826e+002
1.157732e+003, 1.544369e+002
1.158214e+003, 1.537307e+002
1.158697e+003, 1.528423e+002
1.159179e+003, 1.526727e+002
1.159661e+003, 1.531261e+002
1.160143e+003, 1.535260e+002
1.160625e+003, 1.535726e+002
1.161107e+003, 1.534533e+002
1.161589e+003, 1.531511e+002
1.162071e+003, 1.527951e+002
1.162553e+003, 1.524678e+002
1.163036e+003, 1.522093e+002
1.163518e+003, 1.525126e+002
1.164000e+003, 1.533535e+002
1.164482e+003, 1.537153e+002
1.164964e+003, 1.520879e+002
1.165446e+003, 1.508419e+002
1.165928e+003, 1.515456e+002
1.166410e+003, 1.531158e+002
1.166892e+003, 1.534680e+002
1.167375e+003, 1.527060e+002
1.167857e+003, 1.523575e+002
1.168339e+003, 1.526404e+002
1.168821e+003, 1.528886e+002
1.169303e+003, 1.525538e+002
1.169785e+003, 1.520880e+002
1.170267e+003, 1.516938e+002
1.170749e+003, 1.514135e+002
1.171231e+003, 1.514628e+002
1.171714e+003, 1.518360e+002
1.172196e+003, 1.518306e+002
1.172678e+003, 1.512184e+002
1.173160e+003, 1.507520e+002
1.173642e+003, 1.512912e+002
1.174124e+003, 1.520611e+002
1.174606e+003, 1.524412e+002
1.175088e+003, 1.524733e+002
1.175571e+003, 1.523963e+002
1.176053e+003, 1.521976e+002
1.176535e+003, 1.521919e+002
1.177017e+003, 1.525387e+002
1.177499e+003, 1.528599e+002
1.177981e+003, 1.528438e+002
1.178463e+003, 1.525878e+002
1.178945e+003, 1.519732e+002
1.179427e+003, 1.510151e+002
1.179910e+003, 1.511150e+002
1.180392e+003, 1.524102e+002
1.180874e+003, 1.533932e+002
1.181356e+003, 1.534913e+002
1.181838e+003, 1.530786e+002
1.182320e+003, 1.522666e+002
1.182802e+003, 1.513386e+002
1.183284e+003, 1.505972e+002
1.183767e+003, 1.500641e+002
1.184249e+003, 1.498176e+002
1.184731e+003, 1.498808e+002
1.185213e+003, 1.500837e+002
1.185695e+003, 1.504531e+002
1.186177e+003, 1.507573e+002
1.186659e+003, 1.507874e+002
1.187141e+003, 1.505517e+002
1.187624e+003, 1.499273e+002
1.188106e+003, 1.485479e+002
1.188588e+003, 1.481861e+002
1.189070e+003, 1.488754e+002
1.189552e+003, 1.504779e+002
1.190034e+003, 1.541222e+002
1.190516e+003, 1.573408e+002
1.190998e+003, 1.560766e+002
1.191480e+003, 1.525034e+002
1.191963e+003, 1.503971e+002
1.192445e+003, 1.512071e+002
1.192927e+003, 1.512795e+002
1.193409e+003, 1.504851e+002
1.193891e+003, 1.495266e+002
1.194373e+003, 1.486294e+002
1.194855e+003, 1.480298e+002
1.195337e+003, 1.482563e+002
1.195819e+003, 1.489830e+002
1.196302e+003, 1.494705e+002
1.196784e+003, 1.492905e+002
1.197266e+003, 1.496983e+002
1.197748e+003, 1.508898e+002
1.198230e+003, 1.519299e+002
1.198712e+003, 1.520531e+002
1.199194e+003, 1.515875e+002
1.199676e+003, 1.506025e+002
1.200158e+003, 1.494186e+002
1.200641e+003, 1.489365e+002
1.201123e+003, 1.497177e+002
1.201605e+003, 1.502044e+002
1.202087e+003, 1.503100e+002
1.202569e+003, 1.501479e+002
1.203051e+003, 1.495652e+002
1.203533e+003, 1.489534e+002
1.204015e+003, 1.490748e+002
1.204498e+003, 1.496421e+002
1.204980e+003, 1.495072e+002
1.205462e+003, 1.477980e+002
1.205944e+003, 1.472449e+002
1.206426e+003, 1.483035e+002
1.206908e+003, 1.496364e+002
1.207390e+003, 1.499787e+002
1.207872e+003, 1.497718e+002
1.208354e+003, 1.493681e+002
1.208837e+003, 1.488986e+002
1.209319e+003, 1.488882e+002
1.209801e+003, 1.496945e+002
1.210283e+003, 1.500903e+002
1.210765e+003, 1.498605e+002
1.211247e+003, 1.494729e+002
1.211729e+003, 1.494241e+002
1.212211e+003, 1.494999e+002
1.212694e+003, 1.494090e+002
1.213176e+003, 1.491748e+002
1.213658e+003, 1.490194e+002
1.214140e+003, 1.488695e+002
1.214622e+003, 1.491447e+002
1.215104e+003, 1.500286e+002
1.215586e+003, 1.508298e+002
1.216068e+003, 1.505253e+002
1.216551e+003, 1.499042e+002
1.217033e+003, 1.502238e+002
1.217515e+003, 1.513006e+002
1.217997e+003, 1.510912e+002
1.218479e+003, 1.488446e+002
1.218961e+003, 1.476958e+002
1.219443e+003, 1.483458e+002
1.219925e+003, 1.494519e+002
1.220407e+003, 1.494328e+002
1.220890e+003, 1.490800e+002
1.221372e+003, 1.494135e+002
1.221854e+003, 1.503857e+002
1.222336e+003, 1.508115e+002
1.222818e+003, 1.504612e+002
1.223300e+003, 1.504024e+002
1.223782e+003, 1.509412e+002
1.224264e+003, 1.513587e+002
1.224746e+003, 1.504891e+002
1.225229e+003, 1.493540e+002
1.225711e+003, 1.491233e+002
1.226193e+003, 1.497966e+002
1.226675e+003, 1.501001e+002
1.227157e+003, 1.499388e+002
1.227639e+003, 1.499142e+002
1.228121e+003, 1.501998e+002
1.228603e+003, 1.504341e+002
1.229085e+003, 1.500759e+002
1.229568e+003, 1.496005e+002
1.230050e+003, 1.495900e+002
1.230532e+003, 1.499749e+002
1.231014e+003, 1.497210e+002
1.231496e+003, 1.486857e+002
1.231978e+003, 1.480741e+002
1.232460e+003, 1.479952e+002
1.232942e+003, 1.492714e+002
1.233425e+003, 1.553008e+002
1.233907e+003, 1.609590e+002
1.234389e+003, 1.607940e+002
1.234871e+003, 1.557395e+002
1.235353e+003, 1.521201e+002
1.235835e+003, 1.499684e+002
1.236317e+003, 1.493478e+002
1.236799e+003, 1.505368e+002
1.237281e+003, 1.518762e+002
1.237764e+003, 1.519870e+002
1.238246e+003, 1.516573e+002
1.238728e+003, 1.514256e+002
1.239210e+003, 1.513069e+002
1.239692e+003, 1.513589e+002
1.240174e+003, 1.515659e+002
1.240656e+003, 1.514516e+002
1.241138e+003, 1.508179e+002
1.241621e+003, 1.503685e+002
1.242103e+003, 1.508209e+002
1.242585e+003, 1.514642e+002
1.243067e+003, 1.518596e+002
1.243549e+003, 1.520391e+002
1.244031e+003, 1.520152e+002
1.244513e+003, 1.518485e+002
1.244995e+003, 1.521715e+002
1.245478e+003, 1.532762e+002
1.245960e+003, 1.539611e+002
1.246442e+003, 1.529119e+002
1.246924e+003, 1.518682e+002
1.247406e+003, 1.518709e+002
1.247888e+003, 1.525264e+002
1.248370e+003, 1.525857e+002
1.248852e+003, 1.522088e+002
1.249334e+003, 1.521300e+002
1.249817e+003, 1.525778e+002
1.250299e+003, 1.528958e+002
1.250781e+003, 1.524224e+002
1.251263e+003, 1.521938e+002
1.251745e+003, 1.527282e+002
1.252227e+003, 1.536724e+002
1.252709e+003, 1.542613e+002
1.253191e+003, 1.545262e+002
1.253673e+003, 1.544427e+002
1.254156e+003, 1.539143e+002
1.254638e+003, 1.538182e+002
1.255120e+003, 1.548396e+002
1.255602e+003, 1.557169e+002
1.256084e+003, 1.560012e+002
1.256566e+003, 1.559453e+002
1.257048e+003, 1.560860e+002
1.257530e+003, 1.562614e+002
1.258012e+003, 1.559954e+002
1.258495e+003, 1.551104e+002
1.258977e+003, 1.548906e+002
1.259459e+003, 1.557764e+002
1.259941e+003, 1.567292e+002
1.260423e+003, 1.575425e+002
1.260905e+003, 1.579960e+002
1.261387e+003, 1.572843e+002
1.261869e+003, 1.562109e+002
1.262352e+003, 1.560808e+002
1.262834e+003, 1.571528e+002
1.263316e+003, 1.578718e+002
1.263798e+003, 1.581426e+002
1.264280e+003, 1.580649e+002
1.264762e+003, 1.575482e+002
1.265244e+003, 1.570707e+002
1.265726e+003, 1.573100e+002
1.266208e+003, 1.578443e+002
1.266691e+003, 1.581897e+002
1.267173e+003, 1.583106e+002
1.267655e+003, 1.586543e+002
1.268137e+003, 1.592883e+002
1.268619e+003, 1.594969e+002
1.269101e+003, 1.589448e+002
1.269583e+003, 1.585714e+002
1.270065e+003, 1.597832e+002
1.270548e+003, 1.611570e+002
1.271030e+003, 1.610617e+002
1.271512e+003, 1.599497e+002
1.271994e+003, 1.600146e+002
1.272476e+003, 1.612277e+002
1.272958e+003, 1.621740e+002
1.273440e+003, 1.625249e+002
1.273922e+003, 1.626926e+002
1.274405e+003, 1.628167e+002
1.274887e+003, 1.630214e+002
1.275369e+003, 1.634853e+002
1.275851e+003, 1.640294e+002
1.276333e+003, 1.640381e+002
1.276815e+003, 1.636434e+002
1.277297e+003, 1.636076e+002
1.277779e+003, 1.641064e+002
1.278261e+003, 1.643891e+002
1.278744e+003, 1.638087e+002
1.279226e+003, 1.632094e+002
1.279708e+003, 1.627351e+002
1.280190e+003, 1.626122e+002
1.280672e+003, 1.639395e+002
1.281154e+003, 1.658260e+002
1.281636e+003, 1.655265e+002
1.282118e+003, 1.626663e+002
1.282600e+003, 1.608763e+002
1.283083e+003, 1.615778e+002
1.283565e+003, 1.629602e+002
1.284047e+003, 1.648959e+002
1.284529e+003, 1.667273e+002
1.285011e+003, 1.675648e+002
1.285493e+003, 1.676561e+002
1.285975e+003, 1.670349e+002
1.286457e+003, 1.658247e+002
1.286939e+003, 1.655762e+002
1.287422e+003, 1.668207e+002
1.287904e+003, 1.673667e+002
1.288386e+003, 1.665953e+002
1.288868e+003, 1.660031e+002
1.289350e+003, 1.679353e+002
1.289832e+003, 1.702903e+002
1.290314e+003, 1.706817e+002
1.290796e+003, 1.694487e+002
1.291279e+003, 1.690510e+002
1.291761e+003, 1.695539e+002
1.292243e+003, 1.701679e+002
1.292725e+003, 1.707753e+002
1.293207e+003, 1.715875e+002
1.293689e+003, 1.734272e+002
1.294171e+003, 1.748672e+002
1.294653e+003, 1.743700e+002
1.295135e+003, 1.730778e+002
1.295618e+003, 1.730413e+002
1.296100e+003, 1.740894e+002
1.296582e+003, 1.745195e+002
1.297064e+003, 1.742156e+002
1.297546e+003, 1.738316e+002
1.298028e+003, 1.734719e+002
1.298510e+003, 1.733997e+002
1.298992e+003, 1.737248e+002
1.299475e+003, 1.743053e+002
1.299957e+003, 1.751422e+002
1.300439e+003, 1.760516e+002
1.300921e+003, 1.762482e+002
1.301403e+003, 1.758798e+002
1.301885e+003, 1.759959e+002
##END=



