##NAMES=Vigezzite
##RRUFFID=R060584
##IDEAL CHEMISTRY=(Ca,Ce^3+^)(Nb^5+^,Ta^5+^,Ti^4+^)_2_O_6_
##LOCALITY=Jacupiranga mine, Cajati, SÃ£o Paulo, Southeast Region, Brazil
##OWNER=RRUFF
##SOURCE=Luiz Menezes and Michael Scott
##DESCRIPTION=Brown flattened plates on white calcite
##STATUS=The identification of this mineral has been confirmed only by single crystal X-ray diffraction.
##URL=rruff.info/R060584
9.112140e+001, 0.000000e+000
9.160352e+001, 6.218409e+003
9.208563e+001, 6.038399e+003
9.256775e+001, 6.017860e+003
9.304987e+001, 6.245502e+003
9.353198e+001, 6.515436e+003
9.401410e+001, 6.685388e+003
9.449622e+001, 6.767322e+003
9.497833e+001, 6.809893e+003
9.546045e+001, 6.852198e+003
9.594257e+001, 6.894150e+003
9.642468e+001, 6.918936e+003
9.690680e+001, 6.926166e+003
9.738892e+001, 6.930107e+003
9.787103e+001, 6.936081e+003
9.835315e+001, 6.935938e+003
9.883527e+001, 6.923432e+003
9.931738e+001, 6.911575e+003
9.979950e+001, 6.902210e+003
1.002816e+002, 6.896882e+003
1.007637e+002, 6.894050e+003
1.012458e+002, 6.892927e+003
1.017280e+002, 6.892314e+003
1.022101e+002, 6.891457e+003
1.026922e+002, 6.892162e+003
1.031743e+002, 6.898732e+003
1.036564e+002, 6.911032e+003
1.041385e+002, 6.920857e+003
1.046207e+002, 6.924733e+003
1.051028e+002, 6.923363e+003
1.055849e+002, 6.919432e+003
1.060670e+002, 6.912240e+003
1.065491e+002, 6.900923e+003
1.070313e+002, 6.885595e+003
1.075134e+002, 6.865825e+003
1.079955e+002, 6.842932e+003
1.084776e+002, 6.818833e+003
1.089597e+002, 6.794132e+003
1.094418e+002, 6.764141e+003
1.099240e+002, 6.724496e+003
1.104061e+002, 6.680742e+003
1.108882e+002, 6.636859e+003
1.113703e+002, 6.594343e+003
1.118524e+002, 6.552248e+003
1.123345e+002, 6.508000e+003
1.128167e+002, 6.459427e+003
1.132988e+002, 6.411386e+003
1.137809e+002, 6.364931e+003
1.142630e+002, 6.319357e+003
1.147451e+002, 6.273393e+003
1.152272e+002, 6.226654e+003
1.157094e+002, 6.178739e+003
1.161915e+002, 6.129928e+003
1.166736e+002, 6.078422e+003
1.171557e+002, 6.027445e+003
1.176378e+002, 5.976491e+003
1.181199e+002, 5.926403e+003
1.186021e+002, 5.879761e+003
1.190842e+002, 5.838964e+003
1.195663e+002, 5.804803e+003
1.200484e+002, 5.773469e+003
1.205305e+002, 5.746206e+003
1.210126e+002, 5.720667e+003
1.214948e+002, 5.694690e+003
1.219769e+002, 5.667836e+003
1.224590e+002, 5.641736e+003
1.229411e+002, 5.618732e+003
1.234232e+002, 5.598086e+003
1.239053e+002, 5.578084e+003
1.243875e+002, 5.558370e+003
1.248696e+002, 5.538906e+003
1.253517e+002, 5.519546e+003
1.258338e+002, 5.499306e+003
1.263159e+002, 5.480676e+003
1.267980e+002, 5.465118e+003
1.272802e+002, 5.452359e+003
1.277623e+002, 5.441236e+003
1.282444e+002, 5.430714e+003
1.287265e+002, 5.420757e+003
1.292086e+002, 5.412352e+003
1.296907e+002, 5.408653e+003
1.301729e+002, 5.404322e+003
1.306550e+002, 5.396891e+003
1.311371e+002, 5.386070e+003
1.316192e+002, 5.373163e+003
1.321013e+002, 5.359549e+003
1.325834e+002, 5.343196e+003
1.330656e+002, 5.330271e+003
1.335477e+002, 5.319292e+003
1.340298e+002, 5.311927e+003
1.345119e+002, 5.310628e+003
1.349940e+002, 5.315944e+003
1.354761e+002, 5.325108e+003
1.359583e+002, 5.331851e+003
1.364404e+002, 5.337542e+003
1.369225e+002, 5.338777e+003
1.374046e+002, 5.331639e+003
1.378867e+002, 5.320640e+003
1.383688e+002, 5.312314e+003
1.388510e+002, 5.309817e+003
1.393331e+002, 5.311540e+003
1.398152e+002, 5.312278e+003
1.402973e+002, 5.311380e+003
1.407794e+002, 5.310641e+003
1.412615e+002, 5.310731e+003
1.417437e+002, 5.311569e+003
1.422258e+002, 5.312939e+003
1.427079e+002, 5.315134e+003
1.431900e+002, 5.317537e+003
1.436721e+002, 5.318786e+003
1.441542e+002, 5.317719e+003
1.446364e+002, 5.316817e+003
1.451185e+002, 5.319135e+003
1.456006e+002, 5.325292e+003
1.460827e+002, 5.330884e+003
1.465648e+002, 5.331077e+003
1.470469e+002, 5.330304e+003
1.475291e+002, 5.333902e+003
1.480112e+002, 5.345435e+003
1.484933e+002, 5.360687e+003
1.489754e+002, 5.369702e+003
1.494575e+002, 5.368717e+003
1.499396e+002, 5.367750e+003
1.504218e+002, 5.370622e+003
1.509039e+002, 5.375417e+003
1.513860e+002, 5.379033e+003
1.518681e+002, 5.378868e+003
1.523502e+002, 5.376036e+003
1.528323e+002, 5.380205e+003
1.533145e+002, 5.402350e+003
1.537966e+002, 5.421238e+003
1.542787e+002, 5.431144e+003
1.547608e+002, 5.434447e+003
1.552429e+002, 5.436167e+003
1.557250e+002, 5.439819e+003
1.562072e+002, 5.445202e+003
1.566893e+002, 5.455733e+003
1.571714e+002, 5.475753e+003
1.576535e+002, 5.495818e+003
1.581356e+002, 5.511890e+003
1.586177e+002, 5.524130e+003
1.590999e+002, 5.535153e+003
1.595820e+002, 5.547099e+003
1.600641e+002, 5.560112e+003
1.605462e+002, 5.574617e+003
1.610283e+002, 5.590459e+003
1.615104e+002, 5.607704e+003
1.619926e+002, 5.626348e+003
1.624747e+002, 5.646361e+003
1.629568e+002, 5.668072e+003
1.634389e+002, 5.692793e+003
1.639210e+002, 5.720363e+003
1.644031e+002, 5.745276e+003
1.648853e+002, 5.765093e+003
1.653674e+002, 5.782170e+003
1.658495e+002, 5.799288e+003
1.663316e+002, 5.816714e+003
1.668137e+002, 5.834874e+003
1.672958e+002, 5.853907e+003
1.677780e+002, 5.873836e+003
1.682601e+002, 5.895296e+003
1.687422e+002, 5.918830e+003
1.692243e+002, 5.944231e+003
1.697064e+002, 5.970078e+003
1.701885e+002, 5.995433e+003
1.706707e+002, 6.022452e+003
1.711528e+002, 6.052987e+003
1.716349e+002, 6.086411e+003
1.721170e+002, 6.120313e+003
1.725991e+002, 6.153033e+003
1.730812e+002, 6.184545e+003
1.735634e+002, 6.215286e+003
1.740455e+002, 6.243357e+003
1.745276e+002, 6.272425e+003
1.750097e+002, 6.303449e+003
1.754918e+002, 6.336742e+003
1.759739e+002, 6.372485e+003
1.764561e+002, 6.411680e+003
1.769382e+002, 6.457052e+003
1.774203e+002, 6.497325e+003
1.779024e+002, 6.527522e+003
1.783845e+002, 6.556982e+003
1.788666e+002, 6.590635e+003
1.793488e+002, 6.628850e+003
1.798309e+002, 6.669066e+003
1.803130e+002, 6.707131e+003
1.807951e+002, 6.740795e+003
1.812772e+002, 6.777419e+003
1.817593e+002, 6.819202e+003
1.822415e+002, 6.862026e+003
1.827236e+002, 6.903617e+003
1.832057e+002, 6.943181e+003
1.836878e+002, 6.979864e+003
1.841699e+002, 7.011962e+003
1.846520e+002, 7.035375e+003
1.851342e+002, 7.062435e+003
1.856163e+002, 7.097107e+003
1.860984e+002, 7.133927e+003
1.865805e+002, 7.166571e+003
1.870626e+002, 7.193028e+003
1.875447e+002, 7.216965e+003
1.880269e+002, 7.245155e+003
1.885090e+002, 7.279394e+003
1.889911e+002, 7.310333e+003
1.894732e+002, 7.334592e+003
1.899553e+002, 7.354347e+003
1.904374e+002, 7.372833e+003
1.909196e+002, 7.390926e+003
1.914017e+002, 7.408405e+003
1.918838e+002, 7.425335e+003
1.923659e+002, 7.441734e+003
1.928480e+002, 7.457040e+003
1.933301e+002, 7.472967e+003
1.938123e+002, 7.487993e+003
1.942944e+002, 7.496233e+003
1.947765e+002, 7.493810e+003
1.952586e+002, 7.486359e+003
1.957407e+002, 7.481551e+003
1.962228e+002, 7.479495e+003
1.967050e+002, 7.474314e+003
1.971871e+002, 7.460425e+003
1.976692e+002, 7.438218e+003
1.981513e+002, 7.416489e+003
1.986334e+002, 7.399873e+003
1.991155e+002, 7.381524e+003
1.995977e+002, 7.355726e+003
2.000798e+002, 7.322469e+003
2.005619e+002, 7.288028e+003
2.010440e+002, 7.258472e+003
2.015261e+002, 7.234362e+003
2.020082e+002, 7.210568e+003
2.024904e+002, 7.187890e+003
2.029725e+002, 7.164281e+003
2.034546e+002, 7.137038e+003
2.039367e+002, 7.106526e+003
2.044188e+002, 7.076786e+003
2.049009e+002, 7.054337e+003
2.053831e+002, 7.043637e+003
2.058652e+002, 7.026444e+003
2.063473e+002, 6.997894e+003
2.068294e+002, 6.966526e+003
2.073115e+002, 6.937239e+003
2.077936e+002, 6.910841e+003
2.082758e+002, 6.884761e+003
2.087579e+002, 6.854822e+003
2.092400e+002, 6.815769e+003
2.097221e+002, 6.785033e+003
2.102042e+002, 6.766023e+003
2.106863e+002, 6.751402e+003
2.111685e+002, 6.737258e+003
2.116506e+002, 6.722329e+003
2.121327e+002, 6.706395e+003
2.126148e+002, 6.688723e+003
2.130969e+002, 6.667067e+003
2.135790e+002, 6.649039e+003
2.140612e+002, 6.635800e+003
2.145433e+002, 6.625174e+003
2.150254e+002, 6.615216e+003
2.155075e+002, 6.605577e+003
2.159896e+002, 6.597181e+003
2.164717e+002, 6.591481e+003
2.169539e+002, 6.589424e+003
2.174360e+002, 6.588321e+003
2.179181e+002, 6.586829e+003
2.184002e+002, 6.586904e+003
2.188823e+002, 6.591237e+003
2.193644e+002, 6.600505e+003
2.198466e+002, 6.611582e+003
2.203287e+002, 6.619679e+003
2.208108e+002, 6.623665e+003
2.212929e+002, 6.631490e+003
2.217750e+002, 6.647813e+003
2.222571e+002, 6.667207e+003
2.227393e+002, 6.681610e+003
2.232214e+002, 6.688511e+003
2.237035e+002, 6.695356e+003
2.241856e+002, 6.713180e+003
2.246677e+002, 6.740969e+003
2.251498e+002, 6.767632e+003
2.256320e+002, 6.789355e+003
2.261141e+002, 6.808459e+003
2.265962e+002, 6.828915e+003
2.270783e+002, 6.851803e+003
2.275604e+002, 6.874825e+003
2.280425e+002, 6.894310e+003
2.285247e+002, 6.911279e+003
2.290068e+002, 6.931606e+003
2.294889e+002, 6.959252e+003
2.299710e+002, 6.991502e+003
2.304531e+002, 7.023080e+003
2.309352e+002, 7.054149e+003
2.314174e+002, 7.082630e+003
2.318995e+002, 7.105287e+003
2.323816e+002, 7.123963e+003
2.328637e+002, 7.143634e+003
2.333458e+002, 7.168407e+003
2.338279e+002, 7.196197e+003
2.343101e+002, 7.219784e+003
2.347922e+002, 7.235056e+003
2.352743e+002, 7.252612e+003
2.357564e+002, 7.277347e+003
2.362385e+002, 7.308223e+003
2.367206e+002, 7.344230e+003
2.372028e+002, 7.389998e+003
2.376849e+002, 7.440629e+003
2.381670e+002, 7.474863e+003
2.386491e+002, 7.483984e+003
2.391312e+002, 7.488334e+003
2.396133e+002, 7.493159e+003
2.400955e+002, 7.500130e+003
2.405776e+002, 7.511930e+003
2.410597e+002, 7.530274e+003
2.415418e+002, 7.554659e+003
2.420239e+002, 7.582607e+003
2.425060e+002, 7.617478e+003
2.429882e+002, 7.651611e+003
2.434703e+002, 7.682104e+003
2.439524e+002, 7.710704e+003
2.444345e+002, 7.739531e+003
2.449166e+002, 7.769201e+003
2.453987e+002, 7.800698e+003
2.458809e+002, 7.838427e+003
2.463630e+002, 7.887967e+003
2.468451e+002, 7.936963e+003
2.473272e+002, 7.982680e+003
2.478093e+002, 8.026469e+003
2.482914e+002, 8.070275e+003
2.487736e+002, 8.115368e+003
2.492557e+002, 8.160714e+003
2.497378e+002, 8.201260e+003
2.502199e+002, 8.227086e+003
2.507020e+002, 8.260955e+003
2.511841e+002, 8.310574e+003
2.516663e+002, 8.367875e+003
2.521484e+002, 8.423023e+003
2.526305e+002, 8.471567e+003
2.531126e+002, 8.515246e+003
2.535947e+002, 8.560663e+003
2.540768e+002, 8.605213e+003
2.545590e+002, 8.654870e+003
2.550411e+002, 8.711841e+003
2.555232e+002, 8.773359e+003
2.560053e+002, 8.837375e+003
2.564874e+002, 8.902788e+003
2.569695e+002, 8.969200e+003
2.574517e+002, 9.035484e+003
2.579338e+002, 9.100198e+003
2.584159e+002, 9.166999e+003
2.588980e+002, 9.236995e+003
2.593801e+002, 9.308710e+003
2.598622e+002, 9.382244e+003
2.603444e+002, 9.457444e+003
2.608265e+002, 9.531917e+003
2.613086e+002, 9.600749e+003
2.617907e+002, 9.657192e+003
2.622728e+002, 9.719317e+003
2.627549e+002, 9.792085e+003
2.632371e+002, 9.868584e+003
2.637192e+002, 9.941298e+003
2.642013e+002, 1.000846e+004
2.646834e+002, 1.007353e+004
2.651655e+002, 1.014173e+004
2.656476e+002, 1.021454e+004
2.661298e+002, 1.028686e+004
2.666119e+002, 1.035948e+004
2.670940e+002, 1.043151e+004
2.675761e+002, 1.050139e+004
2.680582e+002, 1.056924e+004
2.685403e+002, 1.063638e+004
2.690225e+002, 1.070501e+004
2.695046e+002, 1.077622e+004
2.699867e+002, 1.084271e+004
2.704688e+002, 1.090405e+004
2.709509e+002, 1.096063e+004
2.714330e+002, 1.101127e+004
2.719152e+002, 1.105610e+004
2.723973e+002, 1.109970e+004
2.728794e+002, 1.114650e+004
2.733615e+002, 1.119688e+004
2.738436e+002, 1.124380e+004
2.743257e+002, 1.128700e+004
2.748079e+002, 1.132703e+004
2.752900e+002, 1.136551e+004
2.757721e+002, 1.140216e+004
2.762542e+002, 1.143157e+004
2.767363e+002, 1.144925e+004
2.772184e+002, 1.145466e+004
2.777006e+002, 1.145617e+004
2.781827e+002, 1.145441e+004
2.786648e+002, 1.144811e+004
2.791469e+002, 1.143587e+004
2.796290e+002, 1.141798e+004
2.801111e+002, 1.139636e+004
2.805933e+002, 1.137189e+004
2.810754e+002, 1.134419e+004
2.815575e+002, 1.131367e+004
2.820396e+002, 1.128173e+004
2.825217e+002, 1.124557e+004
2.830038e+002, 1.120009e+004
2.834860e+002, 1.114740e+004
2.839681e+002, 1.109850e+004
2.844502e+002, 1.106047e+004
2.849323e+002, 1.102753e+004
2.854144e+002, 1.098669e+004
2.858965e+002, 1.093438e+004
2.863787e+002, 1.088324e+004
2.868608e+002, 1.084160e+004
2.873429e+002, 1.080729e+004
2.878250e+002, 1.077188e+004
2.883071e+002, 1.073263e+004
2.887892e+002, 1.069105e+004
2.892714e+002, 1.064874e+004
2.897535e+002, 1.060543e+004
2.902356e+002, 1.056389e+004
2.907177e+002, 1.052664e+004
2.911998e+002, 1.049214e+004
2.916819e+002, 1.045544e+004
2.921641e+002, 1.041451e+004
2.926462e+002, 1.037289e+004
2.931283e+002, 1.033439e+004
2.936104e+002, 1.029874e+004
2.940925e+002, 1.026363e+004
2.945746e+002, 1.022675e+004
2.950568e+002, 1.019017e+004
2.955389e+002, 1.015780e+004
2.960210e+002, 1.013005e+004
2.965031e+002, 1.010678e+004
2.969852e+002, 1.009092e+004
2.974673e+002, 1.007987e+004
2.979495e+002, 1.006630e+004
2.984316e+002, 1.004571e+004
2.989137e+002, 1.002216e+004
2.993958e+002, 1.000183e+004
2.998779e+002, 9.985312e+003
3.003600e+002, 9.969794e+003
3.008422e+002, 9.951884e+003
3.013243e+002, 9.933996e+003
3.018064e+002, 9.921059e+003
3.022885e+002, 9.915560e+003
3.027706e+002, 9.913919e+003
3.032527e+002, 9.911691e+003
3.037349e+002, 9.908642e+003
3.042170e+002, 9.908183e+003
3.046991e+002, 9.911175e+003
3.051812e+002, 9.918454e+003
3.056633e+002, 9.931858e+003
3.061454e+002, 9.953646e+003
3.066276e+002, 9.976584e+003
3.071097e+002, 9.993619e+003
3.075918e+002, 1.000512e+004
3.080739e+002, 1.001810e+004
3.085560e+002, 1.003473e+004
3.090381e+002, 1.005396e+004
3.095203e+002, 1.007450e+004
3.100024e+002, 1.009649e+004
3.104845e+002, 1.011863e+004
3.109666e+002, 1.013753e+004
3.114487e+002, 1.015488e+004
3.119308e+002, 1.017936e+004
3.124130e+002, 1.021371e+004
3.128951e+002, 1.025430e+004
3.133772e+002, 1.029807e+004
3.138593e+002, 1.034467e+004
3.143414e+002, 1.039105e+004
3.148235e+002, 1.043398e+004
3.153057e+002, 1.047566e+004
3.157878e+002, 1.052364e+004
3.162699e+002, 1.058110e+004
3.167520e+002, 1.063816e+004
3.172341e+002, 1.068478e+004
3.177162e+002, 1.072518e+004
3.181984e+002, 1.076890e+004
3.186805e+002, 1.081767e+004
3.191626e+002, 1.087233e+004
3.196447e+002, 1.093571e+004
3.201268e+002, 1.100929e+004
3.206089e+002, 1.108443e+004
3.210911e+002, 1.115675e+004
3.215732e+002, 1.122803e+004
3.220553e+002, 1.130003e+004
3.225374e+002, 1.137263e+004
3.230195e+002, 1.144744e+004
3.235016e+002, 1.152716e+004
3.239838e+002, 1.161234e+004
3.244659e+002, 1.169483e+004
3.249480e+002, 1.176816e+004
3.254301e+002, 1.183942e+004
3.259122e+002, 1.191583e+004
3.263943e+002, 1.199857e+004
3.268765e+002, 1.208575e+004
3.273586e+002, 1.217664e+004
3.278407e+002, 1.227136e+004
3.283228e+002, 1.236821e+004
3.288049e+002, 1.246521e+004
3.292870e+002, 1.256679e+004
3.297692e+002, 1.267938e+004
3.302513e+002, 1.280155e+004
3.307334e+002, 1.292046e+004
3.312155e+002, 1.302683e+004
3.316976e+002, 1.312533e+004
3.321797e+002, 1.322602e+004
3.326619e+002, 1.332911e+004
3.331440e+002, 1.343666e+004
3.336261e+002, 1.355335e+004
3.341082e+002, 1.367584e+004
3.345903e+002, 1.379800e+004
3.350724e+002, 1.391407e+004
3.355546e+002, 1.402977e+004
3.360367e+002, 1.415395e+004
3.365188e+002, 1.428698e+004
3.370009e+002, 1.441974e+004
3.374830e+002, 1.454814e+004
3.379651e+002, 1.467241e+004
3.384473e+002, 1.479203e+004
3.389294e+002, 1.490530e+004
3.394115e+002, 1.501652e+004
3.398936e+002, 1.512979e+004
3.403757e+002, 1.524466e+004
3.408578e+002, 1.535340e+004
3.413400e+002, 1.545105e+004
3.418221e+002, 1.554396e+004
3.423042e+002, 1.564274e+004
3.427863e+002, 1.574886e+004
3.432684e+002, 1.585425e+004
3.437505e+002, 1.595705e+004
3.442327e+002, 1.605621e+004
3.447148e+002, 1.614825e+004
3.451969e+002, 1.623101e+004
3.456790e+002, 1.631024e+004
3.461611e+002, 1.639160e+004
3.466432e+002, 1.647478e+004
3.471254e+002, 1.655982e+004
3.476075e+002, 1.665264e+004
3.480896e+002, 1.674437e+004
3.485717e+002, 1.682278e+004
3.490538e+002, 1.688706e+004
3.495359e+002, 1.694155e+004
3.500181e+002, 1.698636e+004
3.505002e+002, 1.702352e+004
3.509823e+002, 1.706348e+004
3.514644e+002, 1.711072e+004
3.519465e+002, 1.715733e+004
3.524286e+002, 1.719878e+004
3.529108e+002, 1.723518e+004
3.533929e+002, 1.726840e+004
3.538750e+002, 1.730009e+004
3.543571e+002, 1.732785e+004
3.548392e+002, 1.734529e+004
3.553214e+002, 1.734793e+004
3.558035e+002, 1.735196e+004
3.562856e+002, 1.736915e+004
3.567677e+002, 1.739049e+004
3.572498e+002, 1.739898e+004
3.577319e+002, 1.738911e+004
3.582141e+002, 1.736926e+004
3.586962e+002, 1.735002e+004
3.591783e+002, 1.733195e+004
3.596604e+002, 1.731110e+004
3.601425e+002, 1.729069e+004
3.606246e+002, 1.726496e+004
3.611068e+002, 1.722659e+004
3.615889e+002, 1.717536e+004
3.620710e+002, 1.712111e+004
3.625531e+002, 1.707303e+004
3.630352e+002, 1.703041e+004
3.635173e+002, 1.697696e+004
3.639995e+002, 1.690391e+004
3.644816e+002, 1.682954e+004
3.649637e+002, 1.676351e+004
3.654458e+002, 1.670334e+004
3.659279e+002, 1.664117e+004
3.664100e+002, 1.657242e+004
3.668922e+002, 1.650014e+004
3.673743e+002, 1.643558e+004
3.678564e+002, 1.638361e+004
3.683385e+002, 1.633161e+004
3.688206e+002, 1.628333e+004
3.693027e+002, 1.623179e+004
3.697849e+002, 1.616929e+004
3.702670e+002, 1.609390e+004
3.707491e+002, 1.600770e+004
3.712312e+002, 1.591227e+004
3.717133e+002, 1.580279e+004
3.721954e+002, 1.570051e+004
3.726776e+002, 1.561060e+004
3.731597e+002, 1.552341e+004
3.736418e+002, 1.543209e+004
3.741239e+002, 1.533730e+004
3.746060e+002, 1.524389e+004
3.750881e+002, 1.515479e+004
3.755703e+002, 1.507030e+004
3.760524e+002, 1.498665e+004
3.765345e+002, 1.490331e+004
3.770166e+002, 1.482104e+004
3.774987e+002, 1.474043e+004
3.779808e+002, 1.466064e+004
3.784630e+002, 1.457947e+004
3.789451e+002, 1.449589e+004
3.794272e+002, 1.441234e+004
3.799093e+002, 1.433490e+004
3.803914e+002, 1.426631e+004
3.808735e+002, 1.419920e+004
3.813557e+002, 1.413244e+004
3.818378e+002, 1.406745e+004
3.823199e+002, 1.400442e+004
3.828020e+002, 1.394345e+004
3.832841e+002, 1.388585e+004
3.837662e+002, 1.383400e+004
3.842484e+002, 1.378879e+004
3.847305e+002, 1.374147e+004
3.852126e+002, 1.368724e+004
3.856947e+002, 1.363511e+004
3.861768e+002, 1.358774e+004
3.866589e+002, 1.354466e+004
3.871411e+002, 1.350494e+004
3.876232e+002, 1.346857e+004
3.881053e+002, 1.343382e+004
3.885874e+002, 1.339486e+004
3.890695e+002, 1.335089e+004
3.895516e+002, 1.330396e+004
3.900338e+002, 1.324749e+004
3.905159e+002, 1.319226e+004
3.909980e+002, 1.314801e+004
3.914801e+002, 1.311742e+004
3.919622e+002, 1.309746e+004
3.924443e+002, 1.308781e+004
3.929265e+002, 1.309030e+004
3.934086e+002, 1.308590e+004
3.938907e+002, 1.306518e+004
3.943728e+002, 1.304369e+004
3.948549e+002, 1.303146e+004
3.953370e+002, 1.302679e+004
3.958192e+002, 1.302176e+004
3.963013e+002, 1.300928e+004
3.967834e+002, 1.299263e+004
3.972655e+002, 1.298291e+004
3.977476e+002, 1.298135e+004
3.982297e+002, 1.298362e+004
3.987119e+002, 1.298598e+004
3.991940e+002, 1.299117e+004
3.996761e+002, 1.300409e+004
4.001582e+002, 1.302804e+004
4.006403e+002, 1.305536e+004
4.011224e+002, 1.307905e+004
4.016046e+002, 1.309933e+004
4.020867e+002, 1.311657e+004
4.025688e+002, 1.312758e+004
4.030509e+002, 1.313939e+004
4.035330e+002, 1.315975e+004
4.040151e+002, 1.318858e+004
4.044973e+002, 1.322188e+004
4.049794e+002, 1.325940e+004
4.054615e+002, 1.329983e+004
4.059436e+002, 1.334228e+004
4.064257e+002, 1.338700e+004
4.069078e+002, 1.342891e+004
4.073900e+002, 1.346095e+004
4.078721e+002, 1.348570e+004
4.083542e+002, 1.351724e+004
4.088363e+002, 1.356167e+004
4.093184e+002, 1.360856e+004
4.098005e+002, 1.365002e+004
4.102827e+002, 1.368795e+004
4.107648e+002, 1.372856e+004
4.112469e+002, 1.377487e+004
4.117290e+002, 1.382480e+004
4.122111e+002, 1.387328e+004
4.126932e+002, 1.391819e+004
4.131754e+002, 1.396670e+004
4.136575e+002, 1.401875e+004
4.141396e+002, 1.407549e+004
4.146217e+002, 1.414044e+004
4.151038e+002, 1.421332e+004
4.155859e+002, 1.428788e+004
4.160681e+002, 1.435828e+004
4.165502e+002, 1.442427e+004
4.170323e+002, 1.448707e+004
4.175144e+002, 1.454246e+004
4.179965e+002, 1.459940e+004
4.184786e+002, 1.466122e+004
4.189608e+002, 1.472718e+004
4.194429e+002, 1.479607e+004
4.199250e+002, 1.486726e+004
4.204071e+002, 1.494075e+004
4.208892e+002, 1.501728e+004
4.213713e+002, 1.510720e+004
4.218535e+002, 1.518318e+004
4.223356e+002, 1.523502e+004
4.228177e+002, 1.528068e+004
4.232998e+002, 1.533149e+004
4.237819e+002, 1.539033e+004
4.242640e+002, 1.545563e+004
4.247462e+002, 1.552660e+004
4.252283e+002, 1.560398e+004
4.257104e+002, 1.568046e+004
4.261925e+002, 1.575628e+004
4.266746e+002, 1.583076e+004
4.271567e+002, 1.590497e+004
4.276389e+002, 1.597747e+004
4.281210e+002, 1.604317e+004
4.286031e+002, 1.609794e+004
4.290852e+002, 1.615206e+004
4.295673e+002, 1.622906e+004
4.300494e+002, 1.633722e+004
4.305316e+002, 1.643894e+004
4.310137e+002, 1.651532e+004
4.314958e+002, 1.658879e+004
4.319779e+002, 1.667674e+004
4.324600e+002, 1.677897e+004
4.329421e+002, 1.687591e+004
4.334243e+002, 1.694820e+004
4.339064e+002, 1.700185e+004
4.343885e+002, 1.706331e+004
4.348706e+002, 1.713500e+004
4.353527e+002, 1.721244e+004
4.358348e+002, 1.729922e+004
4.363170e+002, 1.738899e+004
4.367991e+002, 1.747093e+004
4.372812e+002, 1.753770e+004
4.377633e+002, 1.760184e+004
4.382454e+002, 1.767582e+004
4.387275e+002, 1.775845e+004
4.392097e+002, 1.783899e+004
4.396918e+002, 1.791162e+004
4.401739e+002, 1.798312e+004
4.406560e+002, 1.806460e+004
4.411381e+002, 1.815678e+004
4.416202e+002, 1.824843e+004
4.421024e+002, 1.834127e+004
4.425845e+002, 1.842919e+004
4.430666e+002, 1.850187e+004
4.435487e+002, 1.855943e+004
4.440308e+002, 1.861297e+004
4.445129e+002, 1.866885e+004
4.449951e+002, 1.872778e+004
4.454772e+002, 1.879777e+004
4.459593e+002, 1.889061e+004
4.464414e+002, 1.897872e+004
4.469235e+002, 1.905457e+004
4.474056e+002, 1.912023e+004
4.478878e+002, 1.917864e+004
4.483699e+002, 1.923088e+004
4.488520e+002, 1.927769e+004
4.493341e+002, 1.931990e+004
4.498162e+002, 1.935454e+004
4.502983e+002, 1.939270e+004
4.507805e+002, 1.943881e+004
4.512626e+002, 1.948376e+004
4.517447e+002, 1.952491e+004
4.522268e+002, 1.956101e+004
4.527089e+002, 1.959062e+004
4.531910e+002, 1.961225e+004
4.536732e+002, 1.962723e+004
4.541553e+002, 1.964076e+004
4.546374e+002, 1.965263e+004
4.551195e+002, 1.966321e+004
4.556016e+002, 1.967579e+004
4.560837e+002, 1.968523e+004
4.565659e+002, 1.968442e+004
4.570480e+002, 1.967316e+004
4.575301e+002, 1.966173e+004
4.580122e+002, 1.966452e+004
4.584943e+002, 1.968103e+004
4.589764e+002, 1.968454e+004
4.594586e+002, 1.967287e+004
4.599407e+002, 1.964912e+004
4.604228e+002, 1.961288e+004
4.609049e+002, 1.956774e+004
4.613870e+002, 1.951954e+004
4.618691e+002, 1.946912e+004
4.623513e+002, 1.941847e+004
4.628334e+002, 1.937147e+004
4.633155e+002, 1.932791e+004
4.637976e+002, 1.928270e+004
4.642797e+002, 1.923809e+004
4.647618e+002, 1.918618e+004
4.652440e+002, 1.911392e+004
4.657261e+002, 1.902095e+004
4.662082e+002, 1.893153e+004
4.666903e+002, 1.885831e+004
4.671724e+002, 1.879029e+004
4.676545e+002, 1.871338e+004
4.681367e+002, 1.862716e+004
4.686188e+002, 1.853954e+004
4.691009e+002, 1.845704e+004
4.695830e+002, 1.837785e+004
4.700651e+002, 1.829028e+004
4.705472e+002, 1.818319e+004
4.710294e+002, 1.808361e+004
4.715115e+002, 1.800515e+004
4.719936e+002, 1.793525e+004
4.724757e+002, 1.785810e+004
4.729578e+002, 1.776973e+004
4.734399e+002, 1.767528e+004
4.739221e+002, 1.758166e+004
4.744042e+002, 1.749125e+004
4.748863e+002, 1.738721e+004
4.753684e+002, 1.725771e+004
4.758505e+002, 1.712783e+004
4.763326e+002, 1.700462e+004
4.768148e+002, 1.688812e+004
4.772969e+002, 1.677713e+004
4.777790e+002, 1.667183e+004
4.782611e+002, 1.657170e+004
4.787432e+002, 1.647782e+004
4.792253e+002, 1.639289e+004
4.797075e+002, 1.630779e+004
4.801896e+002, 1.622637e+004
4.806717e+002, 1.614099e+004
4.811538e+002, 1.604336e+004
4.816359e+002, 1.593666e+004
4.821180e+002, 1.583357e+004
4.826002e+002, 1.574477e+004
4.830823e+002, 1.566554e+004
4.835644e+002, 1.558097e+004
4.840465e+002, 1.549051e+004
4.845286e+002, 1.539800e+004
4.850107e+002, 1.530129e+004
4.854929e+002, 1.520561e+004
4.859750e+002, 1.511649e+004
4.864571e+002, 1.503533e+004
4.869392e+002, 1.495953e+004
4.874213e+002, 1.488803e+004
4.879034e+002, 1.482063e+004
4.883856e+002, 1.475913e+004
4.888677e+002, 1.470414e+004
4.893498e+002, 1.464844e+004
4.898319e+002, 1.458480e+004
4.903140e+002, 1.451388e+004
4.907961e+002, 1.444871e+004
4.912783e+002, 1.438984e+004
4.917604e+002, 1.433548e+004
4.922425e+002, 1.428431e+004
4.927246e+002, 1.423692e+004
4.932067e+002, 1.419489e+004
4.936888e+002, 1.415893e+004
4.941710e+002, 1.412654e+004
4.946531e+002, 1.409463e+004
4.951352e+002, 1.406339e+004
4.956173e+002, 1.403211e+004
4.960994e+002, 1.400038e+004
4.965815e+002, 1.396899e+004
4.970637e+002, 1.393779e+004
4.975458e+002, 1.390736e+004
4.980279e+002, 1.387914e+004
4.985100e+002, 1.385412e+004
4.989921e+002, 1.383071e+004
4.994742e+002, 1.380307e+004
4.999564e+002, 1.376591e+004
5.004385e+002, 1.373814e+004
5.009206e+002, 1.372359e+004
5.014027e+002, 1.371801e+004
5.018848e+002, 1.372262e+004
5.023669e+002, 1.373541e+004
5.028491e+002, 1.374878e+004
5.033312e+002, 1.375934e+004
5.038133e+002, 1.376636e+004
5.042954e+002, 1.376654e+004
5.047775e+002, 1.375861e+004
5.052596e+002, 1.374978e+004
5.057418e+002, 1.373953e+004
5.062239e+002, 1.373277e+004
5.067060e+002, 1.373668e+004
5.071881e+002, 1.375328e+004
5.076702e+002, 1.377373e+004
5.081523e+002, 1.379724e+004
5.086345e+002, 1.382058e+004
5.091166e+002, 1.383622e+004
5.095987e+002, 1.384308e+004
5.100808e+002, 1.385127e+004
5.105629e+002, 1.386950e+004
5.110450e+002, 1.389685e+004
5.115272e+002, 1.392268e+004
5.120093e+002, 1.394857e+004
5.124914e+002, 1.397135e+004
5.129735e+002, 1.398277e+004
5.134556e+002, 1.399352e+004
5.139377e+002, 1.402033e+004
5.144199e+002, 1.406652e+004
5.149020e+002, 1.411909e+004
5.153841e+002, 1.416204e+004
5.158662e+002, 1.419490e+004
5.163483e+002, 1.422115e+004
5.168304e+002, 1.423845e+004
5.173126e+002, 1.425128e+004
5.177947e+002, 1.425327e+004
5.182768e+002, 1.425378e+004
5.187589e+002, 1.426702e+004
5.192410e+002, 1.429899e+004
5.197231e+002, 1.433967e+004
5.202053e+002, 1.437600e+004
5.206874e+002, 1.440768e+004
5.211695e+002, 1.443719e+004
5.216516e+002, 1.446290e+004
5.221337e+002, 1.448885e+004
5.226158e+002, 1.452013e+004
5.230980e+002, 1.455403e+004
5.235801e+002, 1.458249e+004
5.240622e+002, 1.459771e+004
5.245443e+002, 1.461105e+004
5.250264e+002, 1.463357e+004
5.255085e+002, 1.466477e+004
5.259907e+002, 1.470246e+004
5.264728e+002, 1.474917e+004
5.269549e+002, 1.479542e+004
5.274370e+002, 1.482569e+004
5.279191e+002, 1.483800e+004
5.284012e+002, 1.485058e+004
5.288834e+002, 1.486378e+004
5.293655e+002, 1.487910e+004
5.298476e+002, 1.489971e+004
5.303297e+002, 1.492351e+004
5.308118e+002, 1.494419e+004
5.312939e+002, 1.495819e+004
5.317761e+002, 1.496796e+004
5.322582e+002, 1.497950e+004
5.327403e+002, 1.499125e+004
5.332224e+002, 1.500758e+004
5.337045e+002, 1.503384e+004
5.341866e+002, 1.505909e+004
5.346688e+002, 1.507779e+004
5.351509e+002, 1.508968e+004
5.356330e+002, 1.509604e+004
5.361151e+002, 1.509658e+004
5.365972e+002, 1.509364e+004
5.370793e+002, 1.509451e+004
5.375615e+002, 1.510117e+004
5.380436e+002, 1.510375e+004
5.385257e+002, 1.509807e+004
5.390078e+002, 1.508817e+004
5.394899e+002, 1.507510e+004
5.399720e+002, 1.505959e+004
5.404542e+002, 1.504984e+004
5.409363e+002, 1.505800e+004
5.414184e+002, 1.507042e+004
5.419005e+002, 1.506680e+004
5.423826e+002, 1.504696e+004
5.428647e+002, 1.502117e+004
5.433469e+002, 1.499188e+004
5.438290e+002, 1.496278e+004
5.443111e+002, 1.494430e+004
5.447932e+002, 1.494037e+004
5.452753e+002, 1.493582e+004
5.457574e+002, 1.492784e+004
5.462396e+002, 1.491868e+004
5.467217e+002, 1.491167e+004
5.472038e+002, 1.490573e+004
5.476859e+002, 1.489579e+004
5.481680e+002, 1.487792e+004
5.486501e+002, 1.485385e+004
5.491323e+002, 1.483139e+004
5.496144e+002, 1.481169e+004
5.500965e+002, 1.479179e+004
5.505786e+002, 1.476711e+004
5.510607e+002, 1.474527e+004
5.515428e+002, 1.473397e+004
5.520250e+002, 1.473211e+004
5.525071e+002, 1.473099e+004
5.529892e+002, 1.472585e+004
5.534713e+002, 1.471624e+004
5.539534e+002, 1.469996e+004
5.544355e+002, 1.467608e+004
5.549177e+002, 1.464969e+004
5.553998e+002, 1.461955e+004
5.558819e+002, 1.459022e+004
5.563640e+002, 1.456785e+004
5.568461e+002, 1.455323e+004
5.573282e+002, 1.453977e+004
5.578104e+002, 1.452390e+004
5.582925e+002, 1.450827e+004
5.587746e+002, 1.449703e+004
5.592567e+002, 1.448974e+004
5.597388e+002, 1.448255e+004
5.602209e+002, 1.447375e+004
5.607031e+002, 1.446231e+004
5.611852e+002, 1.444488e+004
5.616673e+002, 1.441515e+004
5.621494e+002, 1.438782e+004
5.626315e+002, 1.436489e+004
5.631136e+002, 1.434303e+004
5.635958e+002, 1.431823e+004
5.640779e+002, 1.429177e+004
5.645600e+002, 1.426989e+004
5.650421e+002, 1.425781e+004
5.655242e+002, 1.425193e+004
5.660063e+002, 1.423848e+004
5.664885e+002, 1.421192e+004
5.669706e+002, 1.419408e+004
5.674527e+002, 1.419970e+004
5.679348e+002, 1.420880e+004
5.684169e+002, 1.420716e+004
5.688990e+002, 1.419529e+004
5.693812e+002, 1.418313e+004
5.698633e+002, 1.417669e+004
5.703454e+002, 1.417265e+004
5.708275e+002, 1.416706e+004
5.713096e+002, 1.415982e+004
5.717917e+002, 1.414850e+004
5.722739e+002, 1.412885e+004
5.727560e+002, 1.410970e+004
5.732381e+002, 1.410971e+004
5.737202e+002, 1.413631e+004
5.742023e+002, 1.415186e+004
5.746844e+002, 1.414522e+004
5.751666e+002, 1.413323e+004
5.756487e+002, 1.412296e+004
5.761308e+002, 1.411718e+004
5.766129e+002, 1.412163e+004
5.770950e+002, 1.413987e+004
5.775771e+002, 1.416350e+004
5.780593e+002, 1.417176e+004
5.785414e+002, 1.415396e+004
5.790235e+002, 1.414988e+004
5.795056e+002, 1.416992e+004
5.799877e+002, 1.419633e+004
5.804698e+002, 1.422658e+004
5.809520e+002, 1.425672e+004
5.814341e+002, 1.428007e+004
5.819162e+002, 1.429351e+004
5.823983e+002, 1.429900e+004
5.828804e+002, 1.429322e+004
5.833625e+002, 1.427824e+004
5.838447e+002, 1.427738e+004
5.843268e+002, 1.429788e+004
5.848089e+002, 1.432978e+004
5.852910e+002, 1.436834e+004
5.857731e+002, 1.441202e+004
5.862552e+002, 1.444343e+004
5.867374e+002, 1.444853e+004
5.872195e+002, 1.445420e+004
5.877016e+002, 1.447690e+004
5.881837e+002, 1.450899e+004
5.886658e+002, 1.453523e+004
5.891479e+002, 1.455145e+004
5.896301e+002, 1.456777e+004
5.901122e+002, 1.459756e+004
5.905943e+002, 1.464257e+004
5.910764e+002, 1.468409e+004
5.915585e+002, 1.471664e+004
5.920406e+002, 1.475212e+004
5.925228e+002, 1.479695e+004
5.930049e+002, 1.484442e+004
5.934870e+002, 1.488447e+004
5.939691e+002, 1.491500e+004
5.944512e+002, 1.494704e+004
5.949333e+002, 1.499366e+004
5.954155e+002, 1.505133e+004
5.958976e+002, 1.510346e+004
5.963797e+002, 1.514775e+004
5.968618e+002, 1.519260e+004
5.973439e+002, 1.524346e+004
5.978260e+002, 1.529789e+004
5.983082e+002, 1.534894e+004
5.987903e+002, 1.539494e+004
5.992724e+002, 1.544193e+004
5.997545e+002, 1.548491e+004
6.002366e+002, 1.553426e+004
6.007188e+002, 1.560735e+004
6.012009e+002, 1.570083e+004
6.016830e+002, 1.578979e+004
6.021651e+002, 1.585723e+004
6.026472e+002, 1.590888e+004
6.031293e+002, 1.596564e+004
6.036115e+002, 1.602838e+004
6.040936e+002, 1.609496e+004
6.045757e+002, 1.616669e+004
6.050578e+002, 1.624014e+004
6.055399e+002, 1.631477e+004
6.060220e+002, 1.638915e+004
6.065042e+002, 1.646085e+004
6.069863e+002, 1.652720e+004
6.074684e+002, 1.659135e+004
6.079505e+002, 1.665677e+004
6.084326e+002, 1.672378e+004
6.089147e+002, 1.679913e+004
6.093969e+002, 1.688649e+004
6.098790e+002, 1.697948e+004
6.103611e+002, 1.707270e+004
6.108432e+002, 1.716641e+004
6.113253e+002, 1.725757e+004
6.118074e+002, 1.734499e+004
6.122896e+002, 1.743072e+004
6.127717e+002, 1.751522e+004
6.132538e+002, 1.759891e+004
6.137359e+002, 1.768084e+004
6.142180e+002, 1.776135e+004
6.147001e+002, 1.784499e+004
6.151823e+002, 1.793768e+004
6.156644e+002, 1.803961e+004
6.161465e+002, 1.814690e+004
6.166286e+002, 1.827074e+004
6.171107e+002, 1.838338e+004
6.175928e+002, 1.846865e+004
6.180750e+002, 1.854466e+004
6.185571e+002, 1.862857e+004
6.190392e+002, 1.872369e+004
6.195213e+002, 1.882644e+004
6.200034e+002, 1.894127e+004
6.204855e+002, 1.905997e+004
6.209677e+002, 1.915944e+004
6.214498e+002, 1.923772e+004
6.219319e+002, 1.932735e+004
6.224140e+002, 1.944835e+004
6.228961e+002, 1.958619e+004
6.233782e+002, 1.971158e+004
6.238604e+002, 1.982353e+004
6.243425e+002, 1.992823e+004
6.248246e+002, 2.001949e+004
6.253067e+002, 2.010899e+004
6.257888e+002, 2.020171e+004
6.262709e+002, 2.029940e+004
6.267531e+002, 2.040734e+004
6.272352e+002, 2.052775e+004
6.277173e+002, 2.065315e+004
6.281994e+002, 2.076878e+004
6.286815e+002, 2.087344e+004
6.291636e+002, 2.097609e+004
6.296458e+002, 2.107995e+004
6.301279e+002, 2.117691e+004
6.306100e+002, 2.125668e+004
6.310921e+002, 2.132940e+004
6.315742e+002, 2.141274e+004
6.320563e+002, 2.151222e+004
6.325385e+002, 2.161956e+004
6.330206e+002, 2.173481e+004
6.335027e+002, 2.185203e+004
6.339848e+002, 2.196125e+004
6.344669e+002, 2.206088e+004
6.349490e+002, 2.214935e+004
6.354312e+002, 2.222385e+004
6.359133e+002, 2.228797e+004
6.363954e+002, 2.235946e+004
6.368775e+002, 2.244415e+004
6.373596e+002, 2.252832e+004
6.378417e+002, 2.261167e+004
6.383239e+002, 2.269394e+004
6.388060e+002, 2.277758e+004
6.392881e+002, 2.286025e+004
6.397702e+002, 2.293416e+004
6.402523e+002, 2.299314e+004
6.407344e+002, 2.304475e+004
6.412166e+002, 2.310262e+004
6.416987e+002, 2.316712e+004
6.421808e+002, 2.323411e+004
6.426629e+002, 2.330779e+004
6.431450e+002, 2.337607e+004
6.436271e+002, 2.342035e+004
6.441093e+002, 2.344865e+004
6.445914e+002, 2.349047e+004
6.450735e+002, 2.356088e+004
6.455556e+002, 2.363271e+004
6.460377e+002, 2.369646e+004
6.465198e+002, 2.375265e+004
6.470020e+002, 2.379877e+004
6.474841e+002, 2.383570e+004
6.479662e+002, 2.387218e+004
6.484483e+002, 2.391587e+004
6.489304e+002, 2.396587e+004
6.494125e+002, 2.401954e+004
6.498947e+002, 2.408805e+004
6.503768e+002, 2.413804e+004
6.508589e+002, 2.415322e+004
6.513410e+002, 2.415708e+004
6.518231e+002, 2.416295e+004
6.523052e+002, 2.417207e+004
6.527874e+002, 2.418278e+004
6.532695e+002, 2.419518e+004
6.537516e+002, 2.420772e+004
6.542337e+002, 2.421868e+004
6.547158e+002, 2.422807e+004
6.551979e+002, 2.423605e+004
6.556801e+002, 2.424262e+004
6.561622e+002, 2.424830e+004
6.566443e+002, 2.425487e+004
6.571264e+002, 2.426286e+004
6.576085e+002, 2.426067e+004
6.580906e+002, 2.423039e+004
6.585728e+002, 2.421382e+004
6.590549e+002, 2.423982e+004
6.595370e+002, 2.427300e+004
6.600191e+002, 2.427358e+004
6.605012e+002, 2.423837e+004
6.609833e+002, 2.419600e+004
6.614655e+002, 2.416955e+004
6.619476e+002, 2.415396e+004
6.624297e+002, 2.413590e+004
6.629118e+002, 2.411613e+004
6.633939e+002, 2.408813e+004
6.638760e+002, 2.404774e+004
6.643582e+002, 2.400101e+004
6.648403e+002, 2.395082e+004
6.653224e+002, 2.389788e+004
6.658045e+002, 2.385791e+004
6.662866e+002, 2.384679e+004
6.667687e+002, 2.383530e+004
6.672509e+002, 2.380841e+004
6.677330e+002, 2.377000e+004
6.682151e+002, 2.372843e+004
6.686972e+002, 2.368523e+004
6.691793e+002, 2.363282e+004
6.696614e+002, 2.355946e+004
6.701436e+002, 2.346762e+004
6.706257e+002, 2.339553e+004
6.711078e+002, 2.335718e+004
6.715899e+002, 2.330933e+004
6.720720e+002, 2.323453e+004
6.725541e+002, 2.314856e+004
6.730363e+002, 2.305847e+004
6.735184e+002, 2.296623e+004
6.740005e+002, 2.288122e+004
6.744826e+002, 2.281186e+004
6.749647e+002, 2.274689e+004
6.754468e+002, 2.267788e+004
6.759290e+002, 2.260370e+004
6.764111e+002, 2.251926e+004
6.768932e+002, 2.242291e+004
6.773753e+002, 2.232426e+004
6.778574e+002, 2.223535e+004
6.783395e+002, 2.215666e+004
6.788217e+002, 2.207637e+004
6.793038e+002, 2.199921e+004
6.797859e+002, 2.191407e+004
6.802680e+002, 2.181876e+004
6.807501e+002, 2.171594e+004
6.812322e+002, 2.160197e+004
6.817144e+002, 2.148090e+004
6.821965e+002, 2.137003e+004
6.826786e+002, 2.128965e+004
6.831607e+002, 2.122140e+004
6.836428e+002, 2.113845e+004
6.841249e+002, 2.104082e+004
6.846071e+002, 2.092835e+004
6.850892e+002, 2.079632e+004
6.855713e+002, 2.066468e+004
6.860534e+002, 2.055664e+004
6.865355e+002, 2.047429e+004
6.870176e+002, 2.038604e+004
6.874998e+002, 2.029525e+004
6.879819e+002, 2.019518e+004
6.884640e+002, 2.007550e+004
6.889461e+002, 1.995126e+004
6.894282e+002, 1.983582e+004
6.899103e+002, 1.973166e+004
6.903925e+002, 1.963516e+004
6.908746e+002, 1.954910e+004
6.913567e+002, 1.946440e+004
6.918388e+002, 1.935577e+004
6.923209e+002, 1.922221e+004
6.928030e+002, 1.909287e+004
6.932852e+002, 1.897596e+004
6.937673e+002, 1.886462e+004
6.942494e+002, 1.875123e+004
6.947315e+002, 1.863596e+004
6.952136e+002, 1.852476e+004
6.956957e+002, 1.841783e+004
6.961779e+002, 1.831442e+004
6.966600e+002, 1.821842e+004
6.971421e+002, 1.812340e+004
6.976242e+002, 1.801853e+004
6.981063e+002, 1.790556e+004
6.985884e+002, 1.779974e+004
6.990706e+002, 1.771454e+004
6.995527e+002, 1.764163e+004
7.000348e+002, 1.755601e+004
7.005169e+002, 1.745583e+004
7.009990e+002, 1.735424e+004
7.014811e+002, 1.725231e+004
7.019633e+002, 1.715122e+004
7.024454e+002, 1.704980e+004
7.029275e+002, 1.694957e+004
7.034096e+002, 1.685429e+004
7.038917e+002, 1.676602e+004
7.043738e+002, 1.668070e+004
7.048560e+002, 1.659547e+004
7.053381e+002, 1.651214e+004
7.058202e+002, 1.643452e+004
7.063023e+002, 1.636120e+004
7.067844e+002, 1.628374e+004
7.072665e+002, 1.619634e+004
7.077487e+002, 1.610163e+004
7.082308e+002, 1.600815e+004
7.087129e+002, 1.591548e+004
7.091950e+002, 1.582626e+004
7.096771e+002, 1.574292e+004
7.101592e+002, 1.566046e+004
7.106414e+002, 1.557661e+004
7.111235e+002, 1.549150e+004
7.116056e+002, 1.540492e+004
7.120877e+002, 1.531572e+004
7.125698e+002, 1.522797e+004
7.130519e+002, 1.514362e+004
7.135341e+002, 1.506280e+004
7.140162e+002, 1.498689e+004
7.144983e+002, 1.491534e+004
7.149804e+002, 1.484516e+004
7.154625e+002, 1.477442e+004
7.159446e+002, 1.470268e+004
7.164268e+002, 1.462649e+004
7.169089e+002, 1.454162e+004
7.173910e+002, 1.447106e+004
7.178731e+002, 1.442745e+004
7.183552e+002, 1.438076e+004
7.188373e+002, 1.431236e+004
7.193195e+002, 1.423410e+004
7.198016e+002, 1.416374e+004
7.202837e+002, 1.410502e+004
7.207658e+002, 1.404510e+004
7.212479e+002, 1.397403e+004
7.217300e+002, 1.390141e+004
7.222122e+002, 1.383771e+004
7.226943e+002, 1.378185e+004
7.231764e+002, 1.372837e+004
7.236585e+002, 1.367496e+004
7.241406e+002, 1.361924e+004
7.246227e+002, 1.355681e+004
7.251049e+002, 1.348586e+004
7.255870e+002, 1.342218e+004
7.260691e+002, 1.337100e+004
7.265512e+002, 1.331904e+004
7.270333e+002, 1.325895e+004
7.275154e+002, 1.319775e+004
7.279976e+002, 1.314215e+004
7.284797e+002, 1.309291e+004
7.289618e+002, 1.304962e+004
7.294439e+002, 1.301392e+004
7.299260e+002, 1.298277e+004
7.304081e+002, 1.295821e+004
7.308903e+002, 1.293561e+004
7.313724e+002, 1.290477e+004
7.318545e+002, 1.286269e+004
7.323366e+002, 1.281200e+004
7.328187e+002, 1.275419e+004
7.333008e+002, 1.269007e+004
7.337830e+002, 1.262743e+004
7.342651e+002, 1.256390e+004
7.347472e+002, 1.250714e+004
7.352293e+002, 1.245935e+004
7.357114e+002, 1.241894e+004
7.361935e+002, 1.238931e+004
7.366757e+002, 1.236743e+004
7.371578e+002, 1.233975e+004
7.376399e+002, 1.229741e+004
7.381220e+002, 1.225423e+004
7.386041e+002, 1.222025e+004
7.390862e+002, 1.219121e+004
7.395684e+002, 1.216088e+004
7.400505e+002, 1.212833e+004
7.405326e+002, 1.209488e+004
7.410147e+002, 1.206101e+004
7.414968e+002, 1.202823e+004
7.419789e+002, 1.200270e+004
7.424611e+002, 1.198876e+004
7.429432e+002, 1.196549e+004
7.434253e+002, 1.192273e+004
7.439074e+002, 1.188076e+004
7.443895e+002, 1.185067e+004
7.448716e+002, 1.182931e+004
7.453538e+002, 1.181207e+004
7.458359e+002, 1.180039e+004
7.463180e+002, 1.178586e+004
7.468001e+002, 1.176179e+004
7.472822e+002, 1.173533e+004
7.477643e+002, 1.171263e+004
7.482465e+002, 1.169434e+004
7.487286e+002, 1.168158e+004
7.492107e+002, 1.167495e+004
7.496928e+002, 1.166697e+004
7.501749e+002, 1.164531e+004
7.506570e+002, 1.160927e+004
7.511392e+002, 1.157268e+004
7.516213e+002, 1.153204e+004
7.521034e+002, 1.149876e+004
7.525855e+002, 1.148263e+004
7.530676e+002, 1.147257e+004
7.535497e+002, 1.145424e+004
7.540319e+002, 1.142710e+004
7.545140e+002, 1.140337e+004
7.549961e+002, 1.138834e+004
7.554782e+002, 1.137489e+004
7.559603e+002, 1.135901e+004
7.564424e+002, 1.134181e+004
7.569246e+002, 1.132401e+004
7.574067e+002, 1.130639e+004
7.578888e+002, 1.129234e+004
7.583709e+002, 1.128607e+004
7.588530e+002, 1.128385e+004
7.593351e+002, 1.127106e+004
7.598173e+002, 1.124579e+004
7.602994e+002, 1.122712e+004
7.607815e+002, 1.122114e+004
7.612636e+002, 1.121939e+004
7.617457e+002, 1.121663e+004
7.622278e+002, 1.121241e+004
7.627100e+002, 1.120469e+004
7.631921e+002, 1.119211e+004
7.636742e+002, 1.117830e+004
7.641563e+002, 1.116250e+004
7.646384e+002, 1.114728e+004
7.651205e+002, 1.113178e+004
7.656027e+002, 1.111891e+004
7.660848e+002, 1.111748e+004
7.665669e+002, 1.113225e+004
7.670490e+002, 1.114861e+004
7.675311e+002, 1.114586e+004
7.680132e+002, 1.112713e+004
7.684954e+002, 1.110974e+004
7.689775e+002, 1.109480e+004
7.694596e+002, 1.107988e+004
7.699417e+002, 1.106395e+004
7.704238e+002, 1.104688e+004
7.709059e+002, 1.102798e+004
7.713881e+002, 1.100607e+004
7.718702e+002, 1.098726e+004
7.723523e+002, 1.097579e+004
7.728344e+002, 1.096208e+004
7.733165e+002, 1.093884e+004
7.737986e+002, 1.091402e+004
7.742808e+002, 1.089665e+004
7.747629e+002, 1.088776e+004
7.752450e+002, 1.088222e+004
7.757271e+002, 1.088007e+004
7.762092e+002, 1.087601e+004
7.766913e+002, 1.085900e+004
7.771735e+002, 1.083262e+004
7.776556e+002, 1.081203e+004
7.781377e+002, 1.080073e+004
7.786198e+002, 1.079381e+004
7.791019e+002, 1.078828e+004
7.795840e+002, 1.078281e+004
7.800662e+002, 1.077069e+004
7.805483e+002, 1.075044e+004
7.810304e+002, 1.072612e+004
7.815125e+002, 1.069282e+004
7.819946e+002, 1.066083e+004
7.824767e+002, 1.063594e+004
7.829589e+002, 1.061562e+004
7.834410e+002, 1.059524e+004
7.839231e+002, 1.057372e+004
7.844052e+002, 1.055127e+004
7.848873e+002, 1.052877e+004
7.853694e+002, 1.050493e+004
7.858516e+002, 1.047685e+004
7.863337e+002, 1.044605e+004
7.868158e+002, 1.041842e+004
7.872979e+002, 1.039629e+004
7.877800e+002, 1.037483e+004
7.882621e+002, 1.034652e+004
7.887443e+002, 1.031193e+004
7.892264e+002, 1.028294e+004
7.897085e+002, 1.025853e+004
7.901906e+002, 1.024330e+004
7.906727e+002, 1.024644e+004
7.911548e+002, 1.025162e+004
7.916370e+002, 1.024238e+004
7.921191e+002, 1.022022e+004
7.926012e+002, 1.019530e+004
7.930833e+002, 1.016831e+004
7.935654e+002, 1.013952e+004
7.940475e+002, 1.011237e+004
7.945297e+002, 1.008124e+004
7.950118e+002, 1.003863e+004
7.954939e+002, 9.985967e+003
7.959760e+002, 9.929959e+003
7.964581e+002, 9.873723e+003
7.969402e+002, 9.819293e+003
7.974224e+002, 9.769104e+003
7.979045e+002, 9.723146e+003
7.983866e+002, 9.685073e+003
7.988687e+002, 9.656644e+003
7.993508e+002, 9.623000e+003
7.998329e+002, 9.574226e+003
8.003151e+002, 9.519545e+003
8.007972e+002, 9.477807e+003
8.012793e+002, 9.454672e+003
8.017614e+002, 9.421624e+003
8.022435e+002, 9.369216e+003
8.027256e+002, 9.319422e+003
8.032078e+002, 9.278704e+003
8.036899e+002, 9.243776e+003
8.041720e+002, 9.212444e+003
8.046541e+002, 9.183603e+003
8.051362e+002, 9.153342e+003
8.056183e+002, 9.120060e+003
8.061005e+002, 9.084239e+003
8.065826e+002, 9.045810e+003
8.070647e+002, 9.005590e+003
8.075468e+002, 8.964925e+003
8.080289e+002, 8.924123e+003
8.085110e+002, 8.884919e+003
8.089932e+002, 8.848798e+003
8.094753e+002, 8.813896e+003
8.099574e+002, 8.774489e+003
8.104395e+002, 8.729170e+003
8.109216e+002, 8.684670e+003
8.114037e+002, 8.641044e+003
8.118859e+002, 8.599014e+003
8.123680e+002, 8.562017e+003
8.128501e+002, 8.525400e+003
8.133322e+002, 8.481022e+003
8.138143e+002, 8.427050e+003
8.142964e+002, 8.377067e+003
8.147786e+002, 8.332942e+003
8.152607e+002, 8.294654e+003
8.157428e+002, 8.265655e+003
8.162249e+002, 8.240960e+003
8.167070e+002, 8.215243e+003
8.171891e+002, 8.186778e+003
8.176713e+002, 8.154133e+003
8.181534e+002, 8.115068e+003
8.186355e+002, 8.073158e+003
8.191176e+002, 8.035535e+003
8.195997e+002, 8.001649e+003
8.200818e+002, 7.967417e+003
8.205640e+002, 7.932052e+003
8.210461e+002, 7.896661e+003
8.215282e+002, 7.862329e+003
8.220103e+002, 7.828085e+003
8.224924e+002, 7.791430e+003
8.229745e+002, 7.751412e+003
8.234567e+002, 7.710392e+003
8.239388e+002, 7.668901e+003
8.244209e+002, 7.625655e+003
8.249030e+002, 7.576200e+003
8.253851e+002, 7.526610e+003
8.258672e+002, 7.485169e+003
8.263494e+002, 7.452864e+003
8.268315e+002, 7.423812e+003
8.273136e+002, 7.398140e+003
8.277957e+002, 7.371969e+003
8.282778e+002, 7.342939e+003
8.287599e+002, 7.310948e+003
8.292421e+002, 7.273483e+003
8.297242e+002, 7.231646e+003
8.302063e+002, 7.194242e+003
8.306884e+002, 7.168533e+003
8.311705e+002, 7.149695e+003
8.316526e+002, 7.125486e+003
8.321348e+002, 7.095812e+003
8.326169e+002, 7.065829e+003
8.330990e+002, 7.035044e+003
8.335811e+002, 7.007402e+003
8.340632e+002, 6.985279e+003
8.345453e+002, 6.967589e+003
8.350275e+002, 6.952751e+003
8.355096e+002, 6.944526e+003
8.359917e+002, 6.927373e+003
8.364738e+002, 6.891344e+003
8.369559e+002, 6.857839e+003
8.374380e+002, 6.836170e+003
8.379202e+002, 6.820182e+003
8.384023e+002, 6.803043e+003
8.388844e+002, 6.783845e+003
8.393665e+002, 6.764851e+003
8.398486e+002, 6.748237e+003
8.403307e+002, 6.731125e+003
8.408129e+002, 6.710251e+003
8.412950e+002, 6.686972e+003
8.417771e+002, 6.662025e+003
8.422592e+002, 6.636769e+003
8.427413e+002, 6.618186e+003
8.432234e+002, 6.611548e+003
8.437056e+002, 6.609780e+003
8.441877e+002, 6.596844e+003
8.446698e+002, 6.571315e+003
8.451519e+002, 6.554105e+003
8.456340e+002, 6.549542e+003
8.461161e+002, 6.542450e+003
8.465983e+002, 6.523654e+003
8.470804e+002, 6.501587e+003
8.475625e+002, 6.488992e+003
8.480446e+002, 6.486542e+003
8.485267e+002, 6.480729e+003
8.490089e+002, 6.465329e+003
8.494910e+002, 6.453792e+003
8.499731e+002, 6.450379e+003
8.504552e+002, 6.452000e+003
8.509373e+002, 6.460833e+003
8.514194e+002, 6.472159e+003
8.519016e+002, 6.473004e+003
8.523837e+002, 6.456131e+003
8.528658e+002, 6.433188e+003
8.533479e+002, 6.411563e+003
8.538300e+002, 6.392491e+003
8.543121e+002, 6.379273e+003
8.547943e+002, 6.371130e+003
8.552764e+002, 6.363467e+003
8.557585e+002, 6.354354e+003
8.562406e+002, 6.345732e+003
8.567227e+002, 6.339914e+003
8.572048e+002, 6.336887e+003
8.576870e+002, 6.337466e+003
8.581691e+002, 6.343700e+003
8.586512e+002, 6.345070e+003
8.591333e+002, 6.337850e+003
8.596154e+002, 6.326598e+003
8.600975e+002, 6.312632e+003
8.605797e+002, 6.297552e+003
8.610618e+002, 6.289977e+003
8.615439e+002, 6.294875e+003
8.620260e+002, 6.298824e+003
8.625081e+002, 6.301303e+003
8.629902e+002, 6.301632e+003
8.634724e+002, 6.299249e+003
8.639545e+002, 6.294554e+003
8.644366e+002, 6.287451e+003
8.649187e+002, 6.278016e+003
8.654008e+002, 6.269518e+003
8.658829e+002, 6.262904e+003
8.663651e+002, 6.259300e+003
8.668472e+002, 6.262529e+003
8.673293e+002, 6.269312e+003
8.678114e+002, 6.272038e+003
8.682935e+002, 6.269075e+003
8.687756e+002, 6.262427e+003
8.692578e+002, 6.253088e+003
8.697399e+002, 6.242856e+003
8.702220e+002, 6.236437e+003
8.707041e+002, 6.233963e+003
8.711862e+002, 6.232837e+003
8.716683e+002, 6.233967e+003
8.721505e+002, 6.231781e+003
8.726326e+002, 6.221479e+003
8.731147e+002, 6.208396e+003
8.735968e+002, 6.201757e+003
8.740789e+002, 6.202977e+003
8.745610e+002, 6.203016e+003
8.750432e+002, 6.204812e+003
8.755253e+002, 6.201642e+003
8.760074e+002, 6.187982e+003
8.764895e+002, 6.171963e+003
8.769716e+002, 6.160936e+003
8.774537e+002, 6.153841e+003
8.779359e+002, 6.144188e+003
8.784180e+002, 6.128165e+003
8.789001e+002, 6.113243e+003
8.793822e+002, 6.104094e+003
8.798643e+002, 6.098394e+003
8.803464e+002, 6.095737e+003
8.808286e+002, 6.093925e+003
8.813107e+002, 6.087272e+003
8.817928e+002, 6.074050e+003
8.822749e+002, 6.059852e+003
8.827570e+002, 6.051701e+003
8.832391e+002, 6.046914e+003
8.837213e+002, 6.034763e+003
8.842034e+002, 6.016067e+003
8.846855e+002, 6.006515e+003
8.851676e+002, 6.011007e+003
8.856497e+002, 6.016616e+003
8.861318e+002, 6.014362e+003
8.866140e+002, 6.004123e+003
8.870961e+002, 5.984506e+003
8.875782e+002, 5.949828e+003
8.880603e+002, 5.920186e+003
8.885424e+002, 5.897300e+003
8.890245e+002, 5.877267e+003
8.895067e+002, 5.859840e+003
8.899888e+002, 5.843544e+003
8.904709e+002, 5.826405e+003
8.909530e+002, 5.808293e+003
8.914351e+002, 5.791615e+003
8.919172e+002, 5.778540e+003
8.923994e+002, 5.764752e+003
8.928815e+002, 5.748319e+003
8.933636e+002, 5.730472e+003
8.938457e+002, 5.713104e+003
8.943278e+002, 5.695459e+003
8.948099e+002, 5.674578e+003
8.952921e+002, 5.648890e+003
8.957742e+002, 5.622552e+003
8.962563e+002, 5.599721e+003
8.967384e+002, 5.578847e+003
8.972205e+002, 5.556365e+003
8.977026e+002, 5.533502e+003
8.981848e+002, 5.517096e+003
8.986669e+002, 5.508876e+003
8.991490e+002, 5.501218e+003
8.996311e+002, 5.486772e+003
9.001132e+002, 5.466657e+003
9.005953e+002, 5.444532e+003
9.010775e+002, 5.420134e+003
9.015596e+002, 5.397441e+003
9.020417e+002, 5.377946e+003
9.025238e+002, 5.356889e+003
9.030059e+002, 5.330048e+003
9.034880e+002, 5.301189e+003
9.039702e+002, 5.277690e+003
9.044523e+002, 5.259808e+003
9.049344e+002, 5.246398e+003
9.054165e+002, 5.243531e+003
9.058986e+002, 5.237189e+003
9.063807e+002, 5.223051e+003
9.068629e+002, 5.205023e+003
9.073450e+002, 5.187452e+003
9.078271e+002, 5.169247e+003
9.083092e+002, 5.145269e+003
9.087913e+002, 5.111445e+003
9.092734e+002, 5.076977e+003
9.097556e+002, 5.042692e+003
9.102377e+002, 5.012172e+003
9.107198e+002, 4.990789e+003
9.112019e+002, 4.975022e+003
9.116840e+002, 4.958008e+003
9.121661e+002, 4.937750e+003
9.126483e+002, 4.916704e+003
9.131304e+002, 4.897588e+003
9.136125e+002, 4.878342e+003
9.140946e+002, 4.854352e+003
9.145767e+002, 4.827500e+003
9.150588e+002, 4.804101e+003
9.155410e+002, 4.785054e+003
9.160231e+002, 4.768029e+003
9.165052e+002, 4.751544e+003
9.169873e+002, 4.735604e+003
9.174694e+002, 4.720858e+003
9.179515e+002, 4.707466e+003
9.184337e+002, 4.689220e+003
9.189158e+002, 4.665086e+003
9.193979e+002, 4.640196e+003
9.198800e+002, 4.615534e+003
9.203621e+002, 4.592635e+003
9.208442e+002, 4.574721e+003
9.213264e+002, 4.560720e+003
9.218085e+002, 4.539765e+003
9.222906e+002, 4.501446e+003
9.227727e+002, 4.473146e+003
9.232548e+002, 4.461312e+003
9.237369e+002, 4.453568e+003
9.242191e+002, 4.448756e+003
9.247012e+002, 4.442388e+003
9.251833e+002, 4.427361e+003
9.256654e+002, 4.402627e+003
9.261475e+002, 4.376456e+003
9.266296e+002, 4.348101e+003
9.271118e+002, 4.322781e+003
9.275939e+002, 4.305183e+003
9.280760e+002, 4.290429e+003
9.285581e+002, 4.272831e+003
9.290402e+002, 4.252855e+003
9.295223e+002, 4.234570e+003
9.300045e+002, 4.219725e+003
9.304866e+002, 4.206549e+003
9.309687e+002, 4.193614e+003
9.314508e+002, 4.181058e+003
9.319329e+002, 4.170851e+003
9.324150e+002, 4.161213e+003
9.328972e+002, 4.146398e+003
9.333793e+002, 4.125084e+003
9.338614e+002, 4.100513e+003
9.343435e+002, 4.074796e+003
9.348256e+002, 4.049665e+003
9.353077e+002, 4.029919e+003
9.357899e+002, 4.015271e+003
9.362720e+002, 4.001640e+003
9.367541e+002, 3.988989e+003
9.372362e+002, 3.973208e+003
9.377183e+002, 3.951354e+003
9.382004e+002, 3.928383e+003
9.386826e+002, 3.912420e+003
9.391647e+002, 3.903707e+003
9.396468e+002, 3.889530e+003
9.401289e+002, 3.867266e+003
9.406110e+002, 3.845969e+003
9.410931e+002, 3.827376e+003
9.415753e+002, 3.810328e+003
9.420574e+002, 3.793974e+003
9.425395e+002, 3.778571e+003
9.430216e+002, 3.764742e+003
9.435037e+002, 3.753481e+003
9.439858e+002, 3.740937e+003
9.444680e+002, 3.725675e+003
9.449501e+002, 3.710518e+003
9.454322e+002, 3.696639e+003
9.459143e+002, 3.683243e+003
9.463964e+002, 3.669326e+003
9.468785e+002, 3.654980e+003
9.473607e+002, 3.641293e+003
9.478428e+002, 3.629040e+003
9.483249e+002, 3.616290e+003
9.488070e+002, 3.601419e+003
9.492891e+002, 3.586076e+003
9.497712e+002, 3.571549e+003
9.502534e+002, 3.557878e+003
9.507355e+002, 3.545567e+003
9.512176e+002, 3.534483e+003
9.516997e+002, 3.522659e+003
9.521818e+002, 3.507755e+003
9.526639e+002, 3.492513e+003
9.531461e+002, 3.481842e+003
9.536282e+002, 3.473532e+003
9.541103e+002, 3.461547e+003
9.545924e+002, 3.446120e+003
9.550745e+002, 3.433542e+003
9.555566e+002, 3.426937e+003
9.560388e+002, 3.421559e+003
9.565209e+002, 3.410661e+003
9.570030e+002, 3.395317e+003
9.574851e+002, 3.379899e+003
9.579672e+002, 3.364375e+003
9.584493e+002, 3.354208e+003
9.589315e+002, 3.351318e+003
9.594136e+002, 3.348137e+003
9.598957e+002, 3.339060e+003
9.603778e+002, 3.325756e+003
9.608599e+002, 3.311999e+003
9.613420e+002, 3.297160e+003
9.618242e+002, 3.285792e+003
9.623063e+002, 3.280337e+003
9.627884e+002, 3.272221e+003
9.632705e+002, 3.257037e+003
9.637526e+002, 3.240220e+003
9.642347e+002, 3.226562e+003
9.647169e+002, 3.216004e+003
9.651990e+002, 3.208002e+003
9.656811e+002, 3.205404e+003
9.661632e+002, 3.201028e+003
9.666453e+002, 3.194495e+003
9.671274e+002, 3.186622e+003
9.676096e+002, 3.176648e+003
9.680917e+002, 3.166125e+003
9.685738e+002, 3.157605e+003
9.690559e+002, 3.151004e+003
9.695380e+002, 3.142424e+003
9.700201e+002, 3.128122e+003
9.705023e+002, 3.115321e+003
9.709844e+002, 3.106635e+003
9.714665e+002, 3.100344e+003
9.719486e+002, 3.096150e+003
9.724307e+002, 3.092828e+003
9.729128e+002, 3.088561e+003
9.733950e+002, 3.082853e+003
9.738771e+002, 3.075846e+003
9.743592e+002, 3.066723e+003
9.748413e+002, 3.057159e+003
9.753234e+002, 3.048818e+003
9.758055e+002, 3.040849e+003
9.762877e+002, 3.031583e+003
9.767698e+002, 3.021359e+003
9.772519e+002, 3.011711e+003
9.777340e+002, 3.003309e+003
9.782161e+002, 2.996941e+003
9.786982e+002, 2.994708e+003
9.791804e+002, 2.994463e+003
9.796625e+002, 2.991301e+003
9.801446e+002, 2.986532e+003
9.806267e+002, 2.985893e+003
9.811088e+002, 2.989972e+003
9.815909e+002, 2.992589e+003
9.820731e+002, 2.989467e+003
9.825552e+002, 2.982612e+003
9.830373e+002, 2.975015e+003
9.835194e+002, 2.966828e+003
9.840015e+002, 2.959470e+003
9.844836e+002, 2.952944e+003
9.849658e+002, 2.944376e+003
9.854479e+002, 2.932527e+003
9.859300e+002, 2.921536e+003
9.864121e+002, 2.915399e+003
9.868942e+002, 2.912892e+003
9.873763e+002, 2.909950e+003
9.878585e+002, 2.906672e+003
9.883406e+002, 2.901756e+003
9.888227e+002, 2.893939e+003
9.893048e+002, 2.889026e+003
9.897869e+002, 2.891287e+003
9.902690e+002, 2.893919e+003
9.907512e+002, 2.887754e+003
9.912333e+002, 2.873876e+003
9.917154e+002, 2.866442e+003
9.921975e+002, 2.869368e+003
9.926796e+002, 2.870401e+003
9.931617e+002, 2.867378e+003
9.936439e+002, 2.864251e+003
9.941260e+002, 2.864355e+003
9.946081e+002, 2.864549e+003
9.950902e+002, 2.859654e+003
9.955723e+002, 2.849460e+003
9.960544e+002, 2.840840e+003
9.965366e+002, 2.833845e+003
9.970187e+002, 2.828709e+003
9.975008e+002, 2.826750e+003
9.979829e+002, 2.825368e+003
9.984650e+002, 2.822875e+003
9.989471e+002, 2.819902e+003
9.994293e+002, 2.817999e+003
9.999114e+002, 2.817457e+003
1.000393e+003, 2.815637e+003
1.000876e+003, 2.810992e+003
1.001358e+003, 2.805964e+003
1.001840e+003, 2.801156e+003
1.002322e+003, 2.796791e+003
1.002804e+003, 2.793279e+003
1.003286e+003, 2.790288e+003
1.003768e+003, 2.786499e+003
1.004250e+003, 2.781413e+003
1.004733e+003, 2.778667e+003
1.005215e+003, 2.782741e+003
1.005697e+003, 2.787204e+003
1.006179e+003, 2.787748e+003
1.006661e+003, 2.785483e+003
1.007143e+003, 2.780720e+003
1.007625e+003, 2.774747e+003
1.008107e+003, 2.770550e+003
1.008589e+003, 2.769461e+003
1.009072e+003, 2.769320e+003
1.009554e+003, 2.768792e+003
1.010036e+003, 2.767815e+003
1.010518e+003, 2.766138e+003
1.011000e+003, 2.763998e+003
1.011482e+003, 2.761194e+003
1.011964e+003, 2.758244e+003
1.012446e+003, 2.757760e+003
1.012929e+003, 2.761503e+003
1.013411e+003, 2.764895e+003
1.013893e+003, 2.761114e+003
1.014375e+003, 2.753696e+003
1.014857e+003, 2.748157e+003
1.015339e+003, 2.745502e+003
1.015821e+003, 2.750191e+003
1.016303e+003, 2.762031e+003
1.016785e+003, 2.772070e+003
1.017268e+003, 2.774342e+003
1.017750e+003, 2.770750e+003
1.018232e+003, 2.761543e+003
1.018714e+003, 2.749183e+003
1.019196e+003, 2.744928e+003
1.019678e+003, 2.748212e+003
1.020160e+003, 2.751367e+003
1.020642e+003, 2.752245e+003
1.021125e+003, 2.749973e+003
1.021607e+003, 2.743251e+003
1.022089e+003, 2.735049e+003
1.022571e+003, 2.733049e+003
1.023053e+003, 2.736782e+003
1.023535e+003, 2.737550e+003
1.024017e+003, 2.735010e+003
1.024499e+003, 2.729227e+003
1.024981e+003, 2.719302e+003
1.025464e+003, 2.713383e+003
1.025946e+003, 2.720050e+003
1.026428e+003, 2.734320e+003
1.026910e+003, 2.740158e+003
1.027392e+003, 2.736669e+003
1.027874e+003, 2.732940e+003
1.028356e+003, 2.728888e+003
1.028838e+003, 2.726325e+003
1.029321e+003, 2.725734e+003
1.029803e+003, 2.727304e+003
1.030285e+003, 2.731469e+003
1.030767e+003, 2.737802e+003
1.031249e+003, 2.745000e+003
1.031731e+003, 2.754750e+003
1.032213e+003, 2.758502e+003
1.032695e+003, 2.754053e+003
1.033177e+003, 2.748388e+003
1.033660e+003, 2.742897e+003
1.034142e+003, 2.739066e+003
1.034624e+003, 2.738535e+003
1.035106e+003, 2.741036e+003
1.035588e+003, 2.745015e+003
1.036070e+003, 2.751142e+003
1.036552e+003, 2.757425e+003
1.037034e+003, 2.766558e+003
1.037516e+003, 2.770973e+003
1.037999e+003, 2.764918e+003
1.038481e+003, 2.755873e+003
1.038963e+003, 2.751204e+003
1.039445e+003, 2.750640e+003
1.039927e+003, 2.752132e+003
1.040409e+003, 2.759183e+003
1.040891e+003, 2.762086e+003
1.041373e+003, 2.757023e+003
1.041855e+003, 2.752644e+003
1.042338e+003, 2.751910e+003
1.042820e+003, 2.753539e+003
1.043302e+003, 2.757086e+003
1.043784e+003, 2.762162e+003
1.044266e+003, 2.765913e+003
1.044748e+003, 2.770050e+003
1.045230e+003, 2.769838e+003
1.045712e+003, 2.760063e+003
1.046195e+003, 2.751882e+003
1.046677e+003, 2.749541e+003
1.047159e+003, 2.751103e+003
1.047641e+003, 2.755709e+003
1.048123e+003, 2.762590e+003
1.048605e+003, 2.767614e+003
1.049087e+003, 2.769864e+003
1.049569e+003, 2.771126e+003
1.050052e+003, 2.772285e+003
1.050534e+003, 2.771718e+003
1.051016e+003, 2.764796e+003
1.051498e+003, 2.758451e+003
1.051980e+003, 2.762256e+003
1.052462e+003, 2.774581e+003
1.052944e+003, 2.782954e+003
1.053426e+003, 2.782535e+003
1.053908e+003, 2.783468e+003
1.054391e+003, 2.791267e+003
1.054873e+003, 2.797179e+003
1.055355e+003, 2.794079e+003
1.055837e+003, 2.788594e+003
1.056319e+003, 2.787866e+003
1.056801e+003, 2.792137e+003
1.057283e+003, 2.798945e+003
1.057765e+003, 2.809834e+003
1.058248e+003, 2.818143e+003
1.058730e+003, 2.821707e+003
1.059212e+003, 2.822499e+003
1.059694e+003, 2.817952e+003
1.060176e+003, 2.813813e+003
1.060658e+003, 2.818645e+003
1.061140e+003, 2.830352e+003
1.061622e+003, 2.837339e+003
1.062104e+003, 2.835067e+003
1.062587e+003, 2.831927e+003
1.063069e+003, 2.827760e+003
1.063551e+003, 2.827162e+003
1.064033e+003, 2.836087e+003
1.064515e+003, 2.847762e+003
1.064997e+003, 2.854954e+003
1.065479e+003, 2.857457e+003
1.065961e+003, 2.857698e+003
1.066443e+003, 2.855162e+003
1.066926e+003, 2.854724e+003
1.067408e+003, 2.860071e+003
1.067890e+003, 2.866119e+003
1.068372e+003, 2.870087e+003
1.068854e+003, 2.872918e+003
1.069336e+003, 2.876011e+003
1.069818e+003, 2.879117e+003
1.070300e+003, 2.880700e+003
1.070782e+003, 2.879823e+003
1.071265e+003, 2.879923e+003
1.071747e+003, 2.883722e+003
1.072229e+003, 2.887559e+003
1.072711e+003, 2.888786e+003
1.073193e+003, 2.889234e+003
1.073675e+003, 2.891267e+003
1.074157e+003, 2.894334e+003
1.074639e+003, 2.896028e+003
1.075122e+003, 2.895406e+003
1.075604e+003, 2.895624e+003
1.076086e+003, 2.899078e+003
1.076568e+003, 2.902675e+003
1.077050e+003, 2.905307e+003
1.077532e+003, 2.906621e+003
1.078014e+003, 2.904674e+003
1.078496e+003, 2.901481e+003
1.078979e+003, 2.901461e+003
1.079461e+003, 2.905720e+003
1.079943e+003, 2.913528e+003
1.080425e+003, 2.928744e+003
1.080907e+003, 2.942233e+003
1.081389e+003, 2.947261e+003
1.081871e+003, 2.949563e+003
1.082353e+003, 2.954947e+003
1.082835e+003, 2.961976e+003
1.083318e+003, 2.966083e+003
1.083800e+003, 2.966280e+003
1.084282e+003, 2.967109e+003
1.084764e+003, 2.970652e+003
1.085246e+003, 2.975156e+003
1.085728e+003, 2.981187e+003
1.086210e+003, 2.986490e+003
1.086692e+003, 2.985856e+003
1.087175e+003, 2.984415e+003
1.087657e+003, 2.993693e+003
1.088139e+003, 3.014632e+003
1.088621e+003, 3.030281e+003
1.089103e+003, 3.031031e+003
1.089585e+003, 3.029157e+003
1.090067e+003, 3.028035e+003
1.090549e+003, 3.028165e+003
1.091031e+003, 3.029969e+003
1.091514e+003, 3.033231e+003
1.091996e+003, 3.037449e+003
1.092478e+003, 3.042667e+003
1.092960e+003, 3.050011e+003
1.093442e+003, 3.063730e+003
1.093924e+003, 3.072367e+003
1.094406e+003, 3.068307e+003
1.094888e+003, 3.061489e+003
1.095370e+003, 3.055713e+003
1.095853e+003, 3.052819e+003
1.096335e+003, 3.056036e+003
1.096817e+003, 3.064201e+003
1.097299e+003, 3.070896e+003
1.097781e+003, 3.074951e+003
1.098263e+003, 3.076185e+003
1.098745e+003, 3.070375e+003
1.099227e+003, 3.066701e+003
1.099709e+003, 3.070869e+003
1.100192e+003, 3.078995e+003
1.100674e+003, 3.087849e+003
1.101156e+003, 3.096727e+003
1.101638e+003, 3.104346e+003
1.102120e+003, 3.109337e+003
1.102602e+003, 3.117359e+003
1.103084e+003, 3.135631e+003
1.103566e+003, 3.149645e+003
1.104049e+003, 3.151140e+003
1.104531e+003, 3.148241e+003
1.105013e+003, 3.145823e+003
1.105495e+003, 3.145104e+003
1.105977e+003, 3.147044e+003
1.106459e+003, 3.151214e+003
1.106941e+003, 3.161777e+003
1.107423e+003, 3.186547e+003
1.107906e+003, 3.207898e+003
1.108388e+003, 3.222852e+003
1.108870e+003, 3.231189e+003
1.109352e+003, 3.228989e+003
1.109834e+003, 3.221721e+003
1.110316e+003, 3.218280e+003
1.110798e+003, 3.219281e+003
1.111280e+003, 3.221799e+003
1.111762e+003, 3.228168e+003
1.112245e+003, 3.232246e+003
1.112727e+003, 3.230953e+003
1.113209e+003, 3.229951e+003
1.113691e+003, 3.232337e+003
1.114173e+003, 3.236309e+003
1.114655e+003, 3.238629e+003
1.115137e+003, 3.239702e+003
1.115619e+003, 3.245636e+003
1.116102e+003, 3.259358e+003
1.116584e+003, 3.272805e+003
1.117066e+003, 3.288210e+003
1.117548e+003, 3.299695e+003
1.118030e+003, 3.303171e+003
1.118512e+003, 3.304026e+003
1.118994e+003, 3.306201e+003
1.119476e+003, 3.310228e+003
1.119958e+003, 3.318650e+003
1.120441e+003, 3.333614e+003
1.120923e+003, 3.346307e+003
1.121405e+003, 3.357364e+003
1.121887e+003, 3.364339e+003
1.122369e+003, 3.364592e+003
1.122851e+003, 3.364250e+003
1.123333e+003, 3.367810e+003
1.123815e+003, 3.373959e+003
1.124297e+003, 3.379924e+003
1.124780e+003, 3.385720e+003
1.125262e+003, 3.390875e+003
1.125744e+003, 3.394849e+003
1.126226e+003, 3.400097e+003
1.126708e+003, 3.406984e+003
1.127190e+003, 3.415467e+003
1.127672e+003, 3.425818e+003
1.128154e+003, 3.436948e+003
1.128636e+003, 3.447111e+003
1.129119e+003, 3.456608e+003
1.129601e+003, 3.468858e+003
1.130083e+003, 3.484684e+003
1.130565e+003, 3.493931e+003
1.131047e+003, 3.494864e+003
1.131529e+003, 3.495271e+003
1.132011e+003, 3.498030e+003
1.132493e+003, 3.502833e+003
1.132976e+003, 3.509440e+003
1.133458e+003, 3.517724e+003
1.133940e+003, 3.528667e+003
1.134422e+003, 3.541705e+003
1.134904e+003, 3.547606e+003
1.135386e+003, 3.546506e+003
1.135868e+003, 3.549798e+003
1.136350e+003, 3.560547e+003
1.136833e+003, 3.574913e+003
1.137315e+003, 3.590808e+003
1.137797e+003, 3.605034e+003
1.138279e+003, 3.609655e+003
1.138761e+003, 3.608649e+003
1.139243e+003, 3.616807e+003
1.139725e+003, 3.632037e+003
1.140207e+003, 3.645579e+003
1.140689e+003, 3.655897e+003
1.141172e+003, 3.664254e+003
1.141654e+003, 3.671291e+003
1.142136e+003, 3.676635e+003
1.142618e+003, 3.678710e+003
1.143100e+003, 3.680093e+003
1.143582e+003, 3.684234e+003
1.144064e+003, 3.691393e+003
1.144546e+003, 3.701635e+003
1.145029e+003, 3.715443e+003
1.145511e+003, 3.736497e+003
1.145993e+003, 3.764407e+003
1.146475e+003, 3.788164e+003
1.146957e+003, 3.800294e+003
1.147439e+003, 3.805334e+003
1.147921e+003, 3.804883e+003
1.148403e+003, 3.802265e+003
1.148885e+003, 3.798941e+003
1.149368e+003, 3.797711e+003
1.149850e+003, 3.804672e+003
1.150332e+003, 3.818425e+003
1.150814e+003, 3.829852e+003
1.151296e+003, 3.834477e+003
1.151778e+003, 3.840617e+003
1.152260e+003, 3.853733e+003
1.152742e+003, 3.869446e+003
1.153224e+003, 3.886803e+003
1.153707e+003, 3.903746e+003
1.154189e+003, 3.919627e+003
1.154671e+003, 3.933074e+003
1.155153e+003, 3.940331e+003
1.155635e+003, 3.940599e+003
1.156117e+003, 3.943317e+003
1.156599e+003, 3.954344e+003
1.157081e+003, 3.964156e+003
1.157563e+003, 3.968599e+003
1.158046e+003, 3.972243e+003
1.158528e+003, 3.975950e+003
1.159010e+003, 3.981761e+003
1.159492e+003, 3.994160e+003
1.159974e+003, 4.011940e+003
1.160456e+003, 4.024471e+003
1.160938e+003, 4.025669e+003
1.161420e+003, 4.031732e+003
1.161903e+003, 4.044860e+003
1.162385e+003, 4.060716e+003
1.162867e+003, 4.082168e+003
1.163349e+003, 4.101120e+003
1.163831e+003, 4.109330e+003
1.164313e+003, 4.111541e+003
1.164795e+003, 4.119282e+003
1.165277e+003, 4.133216e+003
1.165760e+003, 4.147447e+003
1.166242e+003, 4.162142e+003
1.166724e+003, 4.176466e+003
1.167206e+003, 4.189720e+003
1.167688e+003, 4.204440e+003
1.168170e+003, 4.222372e+003
1.168652e+003, 4.241088e+003
1.169134e+003, 4.257577e+003
1.169616e+003, 4.271938e+003
1.170099e+003, 4.284124e+003
1.170581e+003, 4.294127e+003
1.171063e+003, 4.303812e+003
1.171545e+003, 4.313313e+003
1.172027e+003, 4.324259e+003
1.172509e+003, 4.337224e+003
1.172991e+003, 4.352366e+003
1.173473e+003, 4.369844e+003
1.173956e+003, 4.389484e+003
1.174438e+003, 4.413406e+003
1.174920e+003, 4.438634e+003
1.175402e+003, 4.453603e+003
1.175884e+003, 4.461037e+003
1.176366e+003, 4.470425e+003
1.176848e+003, 4.483217e+003
1.177330e+003, 4.497369e+003
1.177813e+003, 4.512048e+003
1.178295e+003, 4.527811e+003
1.178777e+003, 4.544022e+003
1.179259e+003, 4.563632e+003
1.179741e+003, 4.594093e+003
1.180223e+003, 4.627538e+003
1.180705e+003, 4.656507e+003
1.181187e+003, 4.677547e+003
1.181669e+003, 4.681152e+003
1.182151e+003, 4.669724e+003
1.182634e+003, 4.662749e+003
1.183116e+003, 4.669658e+003
1.183598e+003, 4.679954e+003
1.184080e+003, 4.684522e+003
1.184562e+003, 4.693845e+003
1.185044e+003, 4.720031e+003
1.185526e+003, 4.750278e+003
1.186008e+003, 4.770908e+003
1.186490e+003, 4.784606e+003
1.186973e+003, 4.800287e+003
1.187455e+003, 4.819354e+003
1.187937e+003, 4.839853e+003
1.188419e+003, 4.862131e+003
1.188901e+003, 4.884856e+003
1.189383e+003, 4.907575e+003
1.189865e+003, 4.931063e+003
1.190347e+003, 4.956091e+003
1.190830e+003, 4.981733e+003
1.191312e+003, 5.008729e+003
1.191794e+003, 5.035534e+003
1.192276e+003, 5.053921e+003
1.192758e+003, 5.059280e+003
1.193240e+003, 5.072609e+003
1.193722e+003, 5.097141e+003
1.194204e+003, 5.119759e+003
1.194687e+003, 5.136734e+003
1.195169e+003, 5.153652e+003
1.195651e+003, 5.174219e+003
1.196133e+003, 5.196560e+003
1.196615e+003, 5.217800e+003
1.197097e+003, 5.238102e+003
1.197579e+003, 5.258144e+003
1.198061e+003, 5.278230e+003
1.198543e+003, 5.303457e+003
1.199026e+003, 5.333751e+003
1.199508e+003, 5.359372e+003
1.199990e+003, 5.377133e+003
1.200472e+003, 5.394824e+003
1.200954e+003, 5.418864e+003
1.201436e+003, 5.443851e+003
1.201918e+003, 5.460775e+003
1.202400e+003, 5.473362e+003
1.202883e+003, 5.486966e+003
1.203365e+003, 5.503093e+003
1.203847e+003, 5.525347e+003
1.204329e+003, 5.552986e+003
1.204811e+003, 5.582716e+003
1.205293e+003, 5.613098e+003
1.205775e+003, 5.642222e+003
1.206257e+003, 5.668327e+003
1.206740e+003, 5.693361e+003
1.207222e+003, 5.718808e+003
1.207704e+003, 5.743776e+003
1.208186e+003, 5.765352e+003
1.208668e+003, 5.787183e+003
1.209150e+003, 5.816414e+003
1.209632e+003, 5.851680e+003
1.210114e+003, 5.883158e+003
1.210596e+003, 5.907522e+003
1.211078e+003, 5.931585e+003
1.211561e+003, 5.954861e+003
1.212043e+003, 5.980846e+003
1.212525e+003, 6.012639e+003
1.213007e+003, 6.045194e+003
1.213489e+003, 6.073440e+003
1.213971e+003, 6.101838e+003
1.214453e+003, 6.138724e+003
1.214935e+003, 6.183193e+003
1.215417e+003, 6.218378e+003
1.215900e+003, 6.239825e+003
1.216382e+003, 6.269235e+003
1.216864e+003, 6.309427e+003
1.217346e+003, 6.349288e+003
1.217828e+003, 6.385415e+003
1.218310e+003, 6.420419e+003
1.218792e+003, 6.456987e+003
1.219274e+003, 6.492641e+003
1.219757e+003, 6.522734e+003
1.220239e+003, 6.548314e+003
1.220721e+003, 6.572982e+003
1.221203e+003, 6.598044e+003
1.221685e+003, 6.629060e+003
1.222167e+003, 6.666827e+003
1.222649e+003, 6.713449e+003
1.223131e+003, 6.768541e+003
1.223614e+003, 6.818984e+003
1.224096e+003, 6.853502e+003
1.224578e+003, 6.883469e+003
1.225060e+003, 6.921267e+003
1.225542e+003, 6.961648e+003
1.226024e+003, 6.997896e+003
1.226506e+003, 7.032348e+003
1.226988e+003, 7.070877e+003
1.227470e+003, 7.111023e+003
1.227953e+003, 7.142625e+003
1.228435e+003, 7.162211e+003
1.228917e+003, 7.186392e+003
1.229399e+003, 7.221559e+003
1.229881e+003, 7.261975e+003
1.230363e+003, 7.309752e+003
1.230845e+003, 7.358112e+003
1.231327e+003, 7.401818e+003
1.231810e+003, 7.444929e+003
1.232292e+003, 7.492380e+003
1.232774e+003, 7.543729e+003
1.233256e+003, 7.597607e+003
1.233738e+003, 7.656825e+003
1.234220e+003, 7.705077e+003
1.234702e+003, 7.736168e+003
1.235184e+003, 7.776008e+003
1.235667e+003, 7.830436e+003
1.236149e+003, 7.890531e+003
1.236631e+003, 7.953194e+003
1.237113e+003, 8.011153e+003
1.237595e+003, 8.054600e+003
1.238077e+003, 8.088976e+003
1.238559e+003, 8.133166e+003
1.239041e+003, 8.183915e+003
1.239523e+003, 8.220112e+003
1.240005e+003, 8.246332e+003
1.240488e+003, 8.289335e+003
1.240970e+003, 8.352138e+003
1.241452e+003, 8.414573e+003
1.241934e+003, 8.467114e+003
1.242416e+003, 8.521995e+003
1.242898e+003, 8.596739e+003
1.243380e+003, 8.672213e+003
1.243862e+003, 8.726470e+003
1.244344e+003, 8.773669e+003
1.244827e+003, 8.826842e+003
1.245309e+003, 8.887020e+003
1.245791e+003, 8.954895e+003
1.246273e+003, 9.029091e+003
1.246755e+003, 9.104465e+003
1.247237e+003, 9.181294e+003
1.247719e+003, 9.253975e+003
1.248201e+003, 9.320721e+003
1.248684e+003, 9.384406e+003
1.249166e+003, 9.442712e+003
1.249648e+003, 9.501371e+003
1.250130e+003, 9.560564e+003
1.250612e+003, 9.624854e+003
1.251094e+003, 9.703501e+003
1.251576e+003, 9.792984e+003
1.252058e+003, 9.867370e+003
1.252541e+003, 9.923074e+003
1.253023e+003, 9.990584e+003
1.253505e+003, 1.007190e+004
1.253987e+003, 1.015452e+004
1.254469e+003, 1.023566e+004
1.254951e+003, 1.032354e+004
1.255433e+003, 1.042347e+004
1.255915e+003, 1.052197e+004
1.256397e+003, 1.060048e+004
1.256880e+003, 1.066973e+004
1.257362e+003, 1.074485e+004
1.257844e+003, 1.082908e+004
1.258326e+003, 1.093338e+004
1.258808e+003, 1.105057e+004
1.259290e+003, 1.116590e+004
1.259772e+003, 1.127575e+004
1.260254e+003, 1.138214e+004
1.260737e+003, 1.148483e+004
1.261219e+003, 1.159048e+004
1.261701e+003, 1.171267e+004
1.262183e+003, 1.182506e+004
1.262665e+003, 1.190307e+004
1.263147e+003, 1.197980e+004
1.263629e+003, 1.208319e+004
1.264111e+003, 1.219792e+004
1.264594e+003, 1.230167e+004
1.265076e+003, 1.239534e+004
1.265558e+003, 1.248845e+004
1.266040e+003, 1.257734e+004
1.266522e+003, 1.268002e+004
1.267004e+003, 1.280027e+004
1.267486e+003, 1.292217e+004
1.267968e+003, 1.304380e+004
1.268450e+003, 1.316169e+004
1.268932e+003, 1.327349e+004
1.269415e+003, 1.338460e+004
1.269897e+003, 1.350155e+004
1.270379e+003, 1.362465e+004
1.270861e+003, 1.375843e+004
1.271343e+003, 1.389889e+004
1.271825e+003, 1.403053e+004
1.272307e+003, 1.415877e+004
1.272789e+003, 1.430413e+004
1.273271e+003, 1.446417e+004
1.273754e+003, 1.461167e+004
1.274236e+003, 1.473781e+004
1.274718e+003, 1.486600e+004
1.275200e+003, 1.501161e+004
1.275682e+003, 1.516327e+004
1.276164e+003, 1.530977e+004
1.276646e+003, 1.546486e+004
1.277128e+003, 1.564742e+004
1.277611e+003, 1.583656e+004
1.278093e+003, 1.600388e+004
1.278575e+003, 1.615692e+004
1.279057e+003, 1.632080e+004
1.279539e+003, 1.649838e+004
1.280021e+003, 1.667530e+004
1.280503e+003, 1.684464e+004
1.280985e+003, 1.702321e+004
1.281468e+003, 1.721787e+004
1.281950e+003, 1.742141e+004
1.282432e+003, 1.763199e+004
1.282914e+003, 1.784203e+004
1.283396e+003, 1.804579e+004
1.283878e+003, 1.825052e+004
1.284360e+003, 1.848013e+004
1.284842e+003, 1.871158e+004
1.285324e+003, 1.888124e+004
##END=



