##NAMES=Villiaumite
##RRUFFID=R060916
##IDEAL CHEMISTRY=NaF
##LOCALITY=St. Hilaire, Quebec, Canada
##OWNER=RRUFF
##SOURCE=Royal Ontario Museum
##DESCRIPTION=Reddish transparent single cleavage
##STATUS=The identification of this mineral has been confirmed by X-ray diffraction and chemical analysis
##URL=rruff.info/R060916
##MEASURED CHEMISTRY=Na_1.00_F_1.00_
124.4157, 101291.7
124.8979, 104535.1
125.3800, 107281.7
125.8621, 109485.7
126.3442, 111189.4
126.8263, 112406.7
127.3084, 113121.7
127.7905, 113487.9
128.2727, 113584.7
128.7548, 113435.4
129.2369, 113117.3
129.7190, 112538.6
130.2011, 111807.7
130.6832, 111237.1
131.1654, 110839.5
131.6475, 110592.6
132.1296, 110467.0
132.6117, 110460.0
133.0938, 110564.4
133.5759, 110744.1
134.0581, 111007.9
134.5402, 111486.6
135.0223, 112218.2
135.5044, 113150.0
135.9865, 114131.7
136.4686, 115148.6
136.9508, 116259.8
137.4329, 117545.1
137.9150, 119019.7
138.3971, 120476.7
138.8792, 121898.8
139.3613, 123279.7
139.8434, 124615.9
140.3256, 125949.3
140.8077, 127193.3
141.2898, 128280.1
141.7719, 129177.3
142.2540, 129991.0
142.7361, 130751.1
143.2183, 131476.2
143.7004, 132032.6
144.1825, 132392.0
144.6646, 132599.3
145.1467, 132704.2
145.6288, 132668.3
146.1110, 132571.8
146.5931, 132429.6
147.0752, 132222.6
147.5573, 131998.1
148.0394, 131768.7
148.5215, 131515.4
149.0037, 131193.3
149.4858, 130695.1
149.9679, 130225.7
150.4500, 129857.4
150.9321, 129652.8
151.4142, 129478.1
151.8964, 129334.1
152.3785, 129228.2
152.8606, 129174.2
153.3427, 129233.4
153.8248, 129319.1
154.3069, 129389.3
154.7890, 129400.6
155.2712, 129453.4
155.7533, 129568.8
156.2354, 129746.8
156.7175, 129967.1
157.1996, 130196.5
157.6817, 130482.5
158.1639, 130860.8
158.6460, 131460.7
159.1281, 132032.4
159.6102, 132488.7
160.0923, 132817.9
160.5744, 133093.4
161.0566, 133265.5
161.5387, 133405.8
162.0208, 133596.8
162.5029, 133958.6
162.9850, 134296.0
163.4671, 134503.4
163.9493, 134554.8
164.4314, 134551.2
164.9135, 134537.3
165.3956, 134501.4
165.8777, 134424.5
166.3598, 134292.3
166.8420, 134127.1
167.3241, 133938.4
167.8062, 133719.7
168.2883, 133520.9
168.7704, 133385.8
169.2525, 133300.8
169.7346, 133225.9
170.2168, 133149.0
170.6989, 133072.8
171.1810, 132993.9
171.6631, 132894.9
172.1452, 132828.0
172.6273, 132847.3
173.1095, 132940.7
173.5916, 133058.5
174.0737, 133181.9
174.5558, 133306.1
175.0379, 133417.3
175.5201, 133485.3
176.0022, 133567.0
176.4843, 133742.3
176.9664, 134001.4
177.4485, 134274.3
177.9306, 134508.9
178.4128, 134715.3
178.8949, 134918.9
179.3770, 135108.6
179.8591, 135311.0
180.3412, 135579.5
180.8233, 135916.5
181.3055, 136269.2
181.7876, 136596.3
182.2697, 136900.5
182.7518, 137204.1
183.2339, 137503.7
183.7160, 137807.5
184.1982, 138124.2
184.6803, 138451.4
185.1624, 138798.2
185.6445, 139187.0
186.1266, 139608.7
186.6087, 140036.2
187.0908, 140462.1
187.5730, 140883.3
188.0551, 141267.4
188.5372, 141612.1
189.0193, 141941.1
189.5014, 142298.7
189.9835, 142686.4
190.4657, 143064.3
190.9478, 143403.8
191.4299, 143715.1
191.9120, 144055.9
192.3941, 144444.0
192.8762, 144832.6
193.3584, 145120.8
193.8405, 145304.3
194.3226, 145501.4
194.8047, 145797.0
195.2868, 146186.8
195.7689, 146533.0
196.2511, 146820.7
196.7332, 147077.5
197.2153, 147370.7
197.6974, 147710.5
198.1795, 148039.3
198.6616, 148329.1
199.1438, 148584.5
199.6259, 148779.8
200.1080, 148891.8
200.5901, 148957.5
201.0722, 149095.4
201.5543, 149321.5
202.0364, 149551.4
202.5186, 149722.3
203.0007, 149825.3
203.4828, 149904.8
203.9649, 149944.7
204.4470, 149961.5
204.9291, 150056.5
205.4113, 150258.2
205.8934, 150444.0
206.3755, 150505.4
206.8576, 150415.9
207.3397, 150317.7
207.8218, 150233.6
208.3040, 150161.3
208.7861, 150090.8
209.2682, 150043.6
209.7503, 149968.7
210.2324, 149799.8
210.7145, 149502.2
211.1967, 149273.3
211.6788, 149176.9
212.1609, 149207.7
212.6430, 149202.6
213.1251, 149167.2
213.6072, 149098.0
214.0894, 148977.1
214.5715, 148774.1
215.0536, 148604.2
215.5357, 148501.1
216.0178, 148462.6
216.4999, 148393.5
216.9820, 148263.5
217.4642, 148127.1
217.9463, 148048.9
218.4284, 148049.7
218.9105, 148044.0
219.3926, 148016.9
219.8747, 147969.7
220.3569, 147863.9
220.8390, 147685.4
221.3211, 147464.0
221.8032, 147223.6
222.2853, 146950.9
222.7674, 146703.9
223.2496, 146516.6
223.7317, 146406.4
224.2138, 146247.5
224.6959, 146007.6
225.1780, 145752.2
225.6601, 145565.3
226.1423, 145478.0
226.6244, 145406.5
227.1065, 145337.9
227.5886, 145283.4
228.0707, 145154.2
228.5528, 144882.6
229.0350, 144573.4
229.5171, 144403.7
229.9992, 144459.5
230.4813, 144492.4
230.9634, 144412.1
231.4455, 144172.5
231.9276, 143994.7
232.4098, 143910.5
232.8919, 143869.8
233.3740, 143788.7
233.8561, 143641.8
234.3382, 143500.3
234.8203, 143396.2
235.3025, 143358.2
235.7846, 143259.4
236.2667, 143044.8
236.7488, 142799.8
237.2309, 142697.1
237.7130, 142834.6
238.1952, 142964.2
238.6773, 143000.5
239.1594, 142916.9
239.6415, 142822.4
240.1236, 142693.5
240.6057, 142565.5
241.0879, 142509.1
241.5700, 142560.9
242.0521, 142629.1
242.5342, 142674.9
243.0163, 142669.9
243.4984, 142724.0
243.9806, 142871.3
244.4627, 143057.4
244.9448, 143165.4
245.4269, 143128.9
245.9090, 143103.9
246.3911, 143150.9
246.8732, 143299.5
247.3554, 143418.5
247.8375, 143499.2
248.3196, 143548.1
248.8017, 143584.9
249.2838, 143626.3
249.7659, 143628.7
250.2481, 143565.8
250.7302, 143397.9
251.2123, 143301.8
251.6944, 143330.5
252.1765, 143417.4
252.6586, 143412.4
253.1408, 143258.3
253.6229, 143127.9
254.1050, 143100.0
254.5871, 143225.6
255.0692, 143303.0
255.5513, 143284.8
256.0334, 143247.8
256.5156, 143360.2
256.9977, 143695.2
257.4798, 144045.6
257.9619, 144315.0
258.4440, 144452.9
258.9261, 144679.0
259.4083, 145031.9
259.8904, 145442.3
260.3725, 145752.4
260.8546, 145893.3
261.3367, 146069.5
261.8188, 146376.5
262.3010, 146866.0
262.7831, 147288.7
263.2652, 147650.8
263.7473, 147940.2
264.2294, 148134.0
264.7115, 148206.6
265.1937, 148238.1
265.6758, 148268.3
266.1579, 148312.6
266.6400, 148268.0
267.1221, 148105.4
267.6042, 147887.0
268.0864, 147748.1
268.5685, 147742.0
269.0506, 147667.4
269.5327, 147416.8
270.0148, 146954.5
270.4969, 146605.4
270.9791, 146426.5
271.4612, 146295.5
271.9433, 145983.0
272.4254, 145435.4
272.9075, 144924.1
273.3896, 144556.9
273.8718, 144344.4
274.3539, 144196.5
274.8360, 144138.4
275.3181, 144101.4
275.8002, 143963.3
276.2823, 143699.8
276.7645, 143455.5
277.2466, 143288.9
277.7287, 143199.8
278.2108, 143093.8
278.6929, 142968.6
279.1750, 142823.3
279.6572, 142643.2
280.1393, 142420.5
280.6214, 142219.9
281.1035, 142062.5
281.5856, 141945.7
282.0677, 141862.8
282.5499, 141822.3
283.0320, 141787.4
283.5141, 141707.0
283.9962, 141580.7
284.4783, 141460.4
284.9604, 141383.3
285.4425, 141334.3
285.9247, 141198.0
286.4068, 140958.6
286.8889, 140719.8
287.3710, 140618.2
287.8531, 140645.7
288.3352, 140663.7
288.8174, 140618.4
289.2995, 140531.0
289.7816, 140482.6
290.2637, 140478.2
290.7458, 140468.1
291.2279, 140394.4
291.7101, 140265.1
292.1922, 140133.6
292.6743, 140015.8
293.1564, 139906.7
293.6385, 139799.2
294.1206, 139694.5
294.6028, 139587.2
295.0849, 139468.8
295.5670, 139345.6
296.0491, 139234.4
296.5312, 139151.6
297.0133, 139083.0
297.4955, 138979.8
297.9776, 138851.8
298.4597, 138778.8
298.9418, 138876.9
299.4239, 139079.9
299.9060, 139229.2
300.3882, 139251.8
300.8703, 139239.6
301.3524, 139313.0
301.8345, 139460.0
302.3166, 139620.0
302.7987, 139744.1
303.2809, 139847.6
303.7630, 139961.1
304.2451, 140088.6
304.7272, 140215.2
305.2093, 140320.0
305.6914, 140405.1
306.1736, 140482.4
306.6557, 140578.7
307.1378, 140665.8
307.6199, 140709.1
308.1020, 140695.9
308.5841, 140664.5
309.0663, 140670.1
309.5484, 140690.5
310.0305, 140659.6
310.5126, 140502.8
310.9947, 140307.6
311.4768, 140149.6
311.9590, 140046.3
312.4411, 139961.1
312.9232, 139884.8
313.4053, 139811.0
313.8874, 139729.5
314.3695, 139625.4
314.8517, 139518.4
315.3337, 139421.6
315.8159, 139338.3
316.2980, 139256.2
316.7801, 139171.0
317.2622, 139084.3
317.7443, 138997.7
318.2264, 138941.7
318.7086, 138865.2
319.1907, 138735.8
319.6728, 138545.7
320.1549, 138371.3
320.6370, 138205.9
321.1191, 138078.8
321.6013, 138018.3
322.0834, 138093.2
322.5655, 138171.0
323.0476, 138223.3
323.5297, 138246.7
324.0118, 138230.8
324.4940, 138128.9
324.9761, 138007.4
325.4582, 137916.7
325.9403, 137898.6
326.4224, 137868.8
326.9045, 137804.8
327.3867, 137708.8
327.8688, 137630.5
328.3509, 137582.7
328.8330, 137543.3
329.3151, 137502.0
329.7972, 137507.1
330.2794, 137443.5
330.7615, 137255.5
331.2436, 136986.3
331.7257, 136826.4
332.2078, 136869.7
332.6899, 136913.2
333.1721, 136855.2
333.6542, 136631.4
334.1363, 136449.2
334.6184, 136320.5
335.1005, 136233.3
335.5826, 136159.3
336.0648, 136111.0
336.5469, 136052.0
337.0290, 135962.8
337.5111, 135832.9
337.9932, 135710.7
338.4753, 135595.7
338.9575, 135481.7
339.4396, 135358.3
339.9217, 135222.0
340.4038, 135077.8
340.8859, 134921.2
341.3680, 134753.9
341.8502, 134604.4
342.3323, 134484.4
342.8144, 134361.0
343.2965, 134180.7
343.7786, 133943.2
344.2607, 133762.5
344.7429, 133705.9
345.2250, 133729.5
345.7071, 133649.7
346.1892, 133459.1
346.6713, 133254.4
347.1534, 133111.5
347.6355, 133024.1
348.1176, 132952.5
348.5998, 132868.8
349.0819, 132808.1
349.5640, 132878.7
350.0461, 133063.6
350.5282, 133192.3
351.0103, 133089.1
351.4925, 132846.5
351.9746, 132651.3
352.4567, 132543.1
352.9388, 132471.2
353.4209, 132397.4
353.9030, 132317.9
354.3852, 132219.5
354.8673, 132092.6
355.3494, 131949.4
355.8315, 131809.7
356.3136, 131685.0
356.7957, 131541.8
357.2779, 131336.5
357.7600, 131101.3
358.2421, 130894.6
358.7242, 130746.9
359.2063, 130630.8
359.6884, 130541.6
360.1706, 130480.5
360.6527, 130397.7
361.1348, 130222.4
361.6169, 130027.5
362.0990, 129894.1
362.5811, 129921.3
363.0633, 129934.7
363.5454, 129859.5
364.0275, 129701.2
364.5096, 129550.1
364.9917, 129416.6
365.4738, 129304.7
365.9560, 129217.1
366.4381, 129184.5
366.9202, 129146.5
367.4023, 129105.6
367.8844, 129059.6
368.3665, 128994.1
368.8487, 128857.3
369.3308, 128746.9
369.8129, 128706.8
370.2950, 128786.8
370.7771, 128838.3
371.2592, 128855.2
371.7414, 128845.5
372.2235, 128819.4
372.7056, 128756.9
373.1877, 128705.4
373.6698, 128677.2
374.1519, 128670.7
374.6341, 128676.3
375.1162, 128697.0
375.5983, 128718.0
376.0804, 128721.6
376.5625, 128703.3
377.0446, 128683.0
377.5267, 128677.0
378.0089, 128675.2
378.4910, 128598.5
378.9731, 128432.6
379.4552, 128268.4
379.9373, 128201.6
380.4194, 128228.6
380.9016, 128231.4
381.3837, 128191.0
381.8658, 128125.6
382.3479, 128061.2
382.8300, 128000.7
383.3121, 127958.2
383.7943, 127955.1
384.2764, 127976.6
384.7585, 127972.1
385.2406, 127924.0
385.7227, 127893.6
386.2048, 127979.7
386.6870, 128140.9
387.1691, 128270.8
387.6512, 128268.5
388.1333, 128224.5
388.6154, 128248.9
389.0975, 128343.3
389.5797, 128435.3
390.0618, 128509.0
390.5439, 128537.4
391.0260, 128484.2
391.5081, 128259.6
391.9902, 128029.6
392.4724, 127895.5
392.9545, 127846.0
393.4366, 127800.1
393.9187, 127714.5
394.4008, 127633.3
394.8829, 127595.1
395.3651, 127684.2
395.8472, 127692.7
396.3293, 127470.4
396.8114, 127134.4
397.2935, 126936.9
397.7756, 127091.5
398.2578, 127234.7
398.7399, 127227.7
399.2220, 127003.1
399.7041, 126814.6
400.1862, 126670.0
400.6683, 126555.6
401.1505, 126455.0
401.6326, 126344.1
402.1147, 126289.8
402.5968, 126338.9
403.0789, 126482.4
403.5610, 126518.0
404.0432, 126422.5
404.5253, 126260.9
405.0074, 126061.8
405.4895, 125803.1
405.9716, 125610.3
406.4537, 125509.9
406.9359, 125471.5
407.4180, 125430.9
407.9001, 125389.8
408.3822, 125326.8
408.8643, 125215.4
409.3464, 125062.7
409.8285, 124939.5
410.3106, 124854.8
410.7928, 124777.6
411.2749, 124661.7
411.7570, 124515.6
412.2391, 124382.5
412.7212, 124293.1
413.2033, 124219.0
413.6855, 124106.1
414.1676, 123956.3
414.6497, 123802.7
415.1318, 123676.1
415.6139, 123559.9
416.0960, 123432.4
416.5782, 123284.0
417.0603, 123122.2
417.5424, 122965.2
418.0245, 122800.5
418.5066, 122594.9
418.9887, 122274.8
419.4709, 121946.0
419.9530, 121694.0
420.4351, 121566.2
420.9172, 121381.6
421.3993, 121000.4
421.8814, 120555.3
422.3636, 120216.3
422.8457, 120153.3
423.3278, 120070.5
423.8099, 119886.9
424.2920, 119597.9
424.7741, 119311.4
425.2563, 119037.9
425.7384, 118765.1
426.2205, 118489.8
426.7026, 118199.3
427.1847, 117925.2
427.6668, 117672.4
428.1490, 117435.5
428.6311, 117193.5
429.1132, 116913.6
429.5953, 116688.8
430.0774, 116585.4
430.5595, 116618.9
431.0417, 116567.7
431.5238, 116415.6
432.0059, 116211.7
432.4880, 116014.0
432.9701, 115822.7
433.4522, 115622.8
433.9344, 115390.4
434.4165, 115155.9
434.8986, 115020.5
435.3807, 114984.3
435.8628, 114930.4
436.3449, 114729.9
436.8271, 114446.5
437.3092, 114224.0
437.7913, 114091.3
438.2734, 114022.1
438.7555, 114020.5
439.2376, 114064.2
439.7197, 114095.9
440.2018, 114093.7
440.6840, 114059.7
441.1661, 113970.7
441.6482, 113820.1
442.1303, 113712.0
442.6124, 113758.0
443.0945, 113848.2
443.5767, 113869.7
444.0588, 113695.4
444.5409, 113550.0
445.0230, 113524.9
445.5051, 113593.7
445.9872, 113620.7
446.4694, 113582.5
446.9515, 113503.1
447.4336, 113386.0
447.9157, 113192.3
448.3978, 113049.5
448.8799, 112980.7
449.3621, 112952.8
449.8442, 112911.6
450.3263, 112824.1
450.8084, 112799.2
451.2905, 112899.2
451.7726, 113105.7
452.2548, 113167.3
452.7369, 113044.2
453.2190, 112881.0
453.7011, 112803.1
454.1832, 112810.2
454.6653, 112773.3
455.1475, 112654.8
455.6296, 112519.4
456.1117, 112512.4
456.5938, 112617.7
457.0759, 112684.4
457.5580, 112594.8
458.0402, 112421.6
458.5223, 112309.5
459.0044, 112266.0
459.4865, 112227.1
459.9686, 112114.9
460.4507, 111977.0
460.9329, 111886.3
461.4150, 111905.0
461.8971, 111939.3
462.3792, 111937.8
462.8613, 111903.5
463.3434, 111848.8
463.8256, 111722.4
464.3077, 111618.5
464.7898, 111608.8
465.2719, 111752.9
465.7540, 111843.0
466.2361, 111796.6
466.7183, 111687.6
467.2004, 111609.9
467.6825, 111595.9
468.1646, 111581.5
468.6467, 111545.5
469.1288, 111490.0
469.6110, 111484.0
470.0930, 111575.6
470.5752, 111639.8
471.0573, 111583.5
471.5394, 111367.1
472.0215, 111196.0
472.5036, 111092.1
472.9857, 111019.4
473.4679, 110908.2
473.9500, 110757.6
474.4321, 110624.3
474.9142, 110561.1
475.3963, 110532.1
475.8784, 110398.8
476.3606, 110161.4
476.8427, 109915.2
477.3248, 109746.6
477.8069, 109635.4
478.2890, 109540.3
478.7711, 109455.1
479.2533, 109386.2
479.7354, 109366.6
480.2175, 109370.6
480.6996, 109332.4
481.1817, 109120.8
481.6638, 108927.9
482.1460, 108901.4
482.6281, 109062.4
483.1102, 109206.0
483.5923, 109232.0
484.0744, 109216.1
484.5565, 109222.9
485.0387, 109309.8
485.5208, 109356.0
486.0029, 109340.3
486.4850, 109270.0
486.9671, 109165.3
487.4492, 109001.1
487.9314, 108841.0
488.4135, 108712.0
488.8956, 108623.0
489.3777, 108535.2
489.8598, 108449.3
490.3419, 108373.6
490.8241, 108312.5
491.3062, 108267.2
491.7883, 108263.2
492.2704, 108332.1
492.7525, 108423.6
493.2346, 108394.8
493.7168, 108253.1
494.1989, 108115.8
494.6810, 108075.5
495.1631, 108084.6
495.6452, 108033.9
496.1273, 107906.0
496.6095, 107792.3
497.0916, 107791.8
497.5737, 107855.2
498.0558, 107910.7
498.5379, 107919.7
499.0201, 107927.2
499.5022, 107990.9
499.9843, 108085.9
500.4664, 108107.7
500.9485, 107922.2
501.4306, 107732.7
501.9127, 107650.6
502.3948, 107725.8
502.8770, 107800.6
503.3591, 107840.3
503.8412, 107884.4
504.3233, 107980.5
504.8054, 108180.5
505.2875, 108331.5
505.7697, 108391.2
506.2518, 108380.1
506.7339, 108408.3
507.2160, 108487.1
507.6981, 108562.4
508.1802, 108588.5
508.6624, 108569.3
509.1445, 108611.2
509.6266, 108729.9
510.1087, 108864.7
510.5908, 108944.2
511.0729, 108978.4
511.5551, 108998.0
512.0372, 108982.3
512.5193, 108992.0
513.0014, 109148.5
513.4835, 109416.5
513.9656, 109635.5
514.4478, 109660.5
514.9299, 109626.0
515.4120, 109639.6
515.8941, 109717.5
516.3762, 109822.1
516.8583, 109962.8
517.3405, 110108.1
517.8226, 110223.2
518.3047, 110243.1
518.7868, 110294.4
519.2689, 110418.9
519.7510, 110598.9
520.2332, 110750.1
520.7153, 110842.3
521.1974, 110944.6
521.6795, 111103.9
522.1616, 111345.8
522.6437, 111478.6
523.1259, 111469.2
523.6080, 111419.4
524.0901, 111453.1
524.5722, 111572.3
525.0543, 111664.8
525.5364, 111687.1
526.0186, 111695.0
526.5007, 111832.0
526.9828, 112074.3
527.4649, 112273.6
527.9470, 112304.9
528.4291, 112255.3
528.9113, 112229.3
529.3934, 112232.9
529.8755, 112277.4
530.3576, 112410.5
530.8397, 112571.4
531.3218, 112694.7
531.8040, 112726.3
532.2861, 112763.0
532.7682, 112866.0
533.2503, 113000.6
533.7324, 113072.6
534.2145, 112982.5
534.6967, 112919.1
535.1788, 112942.4
535.6609, 113062.4
536.1430, 113196.7
536.6251, 113366.9
537.1072, 113521.0
537.5894, 113597.1
538.0715, 113574.2
538.5536, 113611.4
539.0357, 113733.0
539.5178, 113907.3
539.9999, 114090.6
540.4821, 114278.4
540.9642, 114456.6
541.4463, 114609.3
541.9284, 114749.7
542.4105, 114895.7
542.8926, 115046.9
543.3748, 115227.1
543.8569, 115504.1
544.3390, 115792.3
544.8211, 115987.4
545.3032, 116041.7
545.7853, 116089.3
546.2675, 116198.5
546.7495, 116342.7
547.2316, 116484.1
547.7137, 116631.6
548.1959, 116758.3
548.6780, 116860.6
549.1601, 116939.6
549.6422, 116999.3
550.1243, 117017.6
550.6064, 117046.5
551.0886, 117109.1
551.5707, 117207.2
552.0528, 117340.5
552.5349, 117525.0
553.0170, 117709.3
553.4991, 117815.2
553.9813, 117846.1
554.4634, 117909.7
554.9455, 118042.2
555.4276, 118204.8
555.9097, 118328.4
556.3918, 118418.8
556.8740, 118504.3
557.3561, 118584.8
557.8382, 118679.6
558.3203, 118827.8
558.8024, 119033.4
559.2845, 119211.2
559.7667, 119250.4
560.2488, 119277.8
560.7309, 119411.8
561.2130, 119790.7
561.6951, 120101.7
562.1772, 120233.5
562.6594, 120268.3
563.1415, 120369.6
563.6236, 120592.3
564.1057, 120796.8
564.5878, 120953.4
565.0699, 121061.5
565.5521, 121132.0
566.0342, 121143.5
566.5163, 121178.9
566.9984, 121310.1
567.4805, 121528.6
567.9626, 121724.4
568.4448, 121893.0
568.9269, 122040.6
569.4090, 122192.9
569.8911, 122332.4
570.3732, 122406.3
570.8553, 122333.6
571.3375, 122271.4
571.8196, 122405.1
572.3017, 122675.6
572.7838, 122908.1
573.2659, 123054.7
573.7480, 123117.8
574.2302, 123052.7
574.7123, 122834.8
575.1944, 122725.0
575.6765, 122891.4
576.1586, 123095.9
576.6407, 123179.4
577.1229, 123061.7
577.6050, 122989.7
578.0871, 122975.1
578.5692, 123008.5
579.0513, 123085.9
579.5334, 123217.5
580.0156, 123330.8
580.4977, 123398.4
580.9798, 123435.6
581.4619, 123483.5
581.9440, 123541.1
582.4261, 123602.8
582.9083, 123649.4
583.3904, 123700.2
583.8725, 123794.5
584.3546, 123938.0
584.8367, 124073.0
585.3188, 124161.9
585.8010, 124219.7
586.2831, 124263.6
586.7652, 124285.6
587.2473, 124307.9
587.7294, 124343.8
588.2115, 124383.8
588.6937, 124403.7
589.1758, 124381.5
589.6579, 124369.4
590.1400, 124379.8
590.6221, 124412.7
591.1042, 124468.5
591.5864, 124560.1
592.0685, 124638.1
592.5506, 124654.9
593.0327, 124618.1
593.5148, 124630.7
593.9969, 124710.3
594.4791, 124785.5
594.9612, 124750.6
595.4433, 124649.8
595.9254, 124588.8
596.4075, 124617.0
596.8896, 124672.8
597.3718, 124714.0
597.8539, 124742.9
598.3360, 124764.3
598.8181, 124791.0
599.3002, 124800.9
599.7823, 124766.3
600.2645, 124682.7
600.7466, 124647.9
601.2287, 124686.1
601.7108, 124756.1
602.1929, 124842.6
602.6750, 124960.0
603.1572, 125048.0
603.6393, 125108.6
604.1214, 125137.3
604.6035, 125099.1
605.0856, 124995.4
605.5677, 124976.5
606.0499, 125111.9
606.5320, 125299.9
607.0141, 125357.2
607.4962, 125310.4
607.9783, 125265.3
608.4604, 125295.2
608.9425, 125341.3
609.4246, 125342.0
609.9067, 125298.1
610.3889, 125269.5
610.8710, 125329.9
611.3531, 125381.3
611.8352, 125351.9
612.3173, 125177.0
612.7994, 125048.7
613.2816, 125002.8
613.7637, 124990.3
614.2458, 124944.2
614.7279, 124824.8
615.2100, 124813.4
615.6921, 124978.8
616.1743, 125232.4
616.6564, 125332.9
617.1385, 125283.7
617.6206, 125249.3
618.1027, 125335.3
618.5848, 125477.5
619.0670, 125542.2
619.5491, 125535.5
620.0312, 125526.7
620.5133, 125553.8
620.9954, 125602.7
621.4775, 125657.7
621.9597, 125711.1
622.4418, 125784.9
622.9239, 125951.3
623.4060, 126107.5
623.8881, 126150.3
624.3702, 125904.9
624.8524, 125777.8
625.3345, 125836.8
625.8166, 126006.8
626.2987, 126128.2
626.7808, 126200.0
627.2629, 126234.2
627.7451, 126234.9
628.2272, 126202.5
628.7093, 126116.6
629.1914, 125980.7
629.6735, 125869.2
630.1556, 125863.5
630.6378, 125905.5
631.1199, 125908.3
631.6020, 125864.9
632.0841, 125816.8
632.5662, 125759.3
633.0483, 125727.3
633.5305, 125755.2
634.0126, 125867.3
634.4947, 126012.7
634.9768, 126276.6
635.4589, 126537.1
635.9410, 126595.3
636.4232, 126301.2
636.9053, 126101.2
637.3874, 126102.8
637.8695, 126243.5
638.3516, 126308.0
638.8337, 126289.1
639.3159, 126260.8
639.7980, 126255.8
640.2801, 126270.2
640.7622, 126305.5
641.2443, 126361.3
641.7264, 126399.1
642.2086, 126364.1
642.6907, 126313.1
643.1728, 126317.7
643.6549, 126407.1
644.1370, 126485.4
644.6191, 126496.9
645.1013, 126488.8
645.5834, 126510.1
646.0655, 126603.4
646.5476, 126676.6
647.0297, 126711.3
647.5118, 126725.6
647.9940, 126751.3
648.4761, 126778.9
648.9582, 126840.1
649.4403, 126963.1
649.9224, 127110.5
650.4045, 127153.3
650.8867, 127096.5
651.3688, 127049.7
651.8509, 127103.0
652.3330, 127198.6
652.8151, 127270.1
653.2972, 127313.9
653.7794, 127313.7
654.2615, 127229.8
654.7436, 127120.8
655.2257, 127038.1
655.7078, 127016.6
656.1899, 126967.6
656.6721, 126822.4
657.1542, 126677.6
657.6363, 126654.9
658.1184, 126840.7
658.6005, 126891.0
659.0826, 126707.3
659.5648, 126414.5
660.0469, 126288.2
660.5290, 126323.4
661.0111, 126393.3
661.4932, 126498.2
661.9753, 126571.6
662.4575, 126457.7
662.9396, 126195.2
663.4217, 125967.2
663.9038, 125901.1
664.3859, 125901.2
664.8680, 125911.0
665.3502, 125927.9
665.8323, 125931.9
666.3144, 125914.6
666.7965, 125882.9
667.2786, 125831.7
667.7607, 125714.6
668.2429, 125686.6
668.7250, 125775.5
669.2071, 125897.0
669.6892, 125964.8
670.1713, 125974.8
670.6534, 125897.6
671.1355, 125697.6
671.6176, 125466.2
672.0997, 125368.2
672.5818, 125359.1
673.0640, 125313.3
673.5461, 125166.8
674.0282, 124982.2
674.5103, 124761.8
674.9924, 124536.5
675.4745, 124404.5
675.9567, 124539.1
676.4388, 124651.0
676.9209, 124600.0
677.4030, 124386.2
677.8851, 124254.8
678.3672, 124224.4
678.8494, 124243.0
679.3315, 124283.3
679.8136, 124341.5
680.2957, 124411.0
680.7778, 124488.9
681.2599, 124551.2
681.7421, 124552.9
682.2242, 124518.0
682.7063, 124502.0
683.1884, 124517.9
683.6705, 124540.8
684.1526, 124564.0
684.6348, 124579.7
685.1169, 124578.0
685.5990, 124551.1
686.0811, 124516.9
686.5632, 124472.9
687.0453, 124430.0
687.5275, 124413.6
688.0096, 124450.5
688.4917, 124460.4
688.9738, 124406.0
689.4559, 124314.0
689.9380, 124305.5
690.4202, 124379.3
690.9023, 124441.6
691.3844, 124416.2
691.8665, 124345.4
692.3486, 124299.1
692.8307, 124275.8
693.3129, 124245.2
693.7950, 124142.6
694.2771, 124052.5
694.7592, 124058.3
695.2413, 124214.8
695.7234, 124305.2
696.2056, 124261.5
696.6877, 124165.5
697.1698, 124080.0
697.6519, 124021.0
698.1340, 123922.9
698.6161, 123769.0
699.0983, 123609.0
699.5804, 123515.9
700.0625, 123486.3
700.5446, 123485.3
701.0267, 123525.8
701.5089, 123552.8
701.9910, 123462.2
702.4731, 123307.6
702.9552, 123212.4
703.4373, 123279.7
703.9194, 123366.5
704.4016, 123411.7
704.8837, 123419.4
705.3658, 123424.7
705.8479, 123443.0
706.3300, 123436.2
706.8121, 123369.5
707.2943, 123250.4
707.7764, 123250.9
708.2585, 123395.5
708.7406, 123524.9
709.2227, 123506.9
709.7048, 123390.4
710.1870, 123311.6
710.6691, 123277.9
711.1512, 123273.0
711.6333, 123317.5
712.1154, 123366.8
712.5975, 123364.7
713.0797, 123278.5
713.5618, 123217.2
714.0439, 123211.0
714.5260, 123245.2
715.0081, 123305.8
715.4902, 123400.0
715.9724, 123495.7
716.4545, 123587.9
716.9366, 123679.8
717.4187, 123800.3
717.9008, 123945.0
718.3829, 123987.7
718.8651, 123854.3
719.3472, 123675.8
719.8293, 123642.4
720.3114, 123709.9
720.7935, 123763.0
721.2756, 123723.0
721.7578, 123679.9
722.2399, 123678.8
722.7220, 123715.4
723.2041, 123767.8
723.6862, 123878.5
724.1683, 123946.9
724.6505, 123917.6
725.1326, 123804.3
725.6147, 123805.2
726.0968, 123948.4
726.5789, 124065.8
727.0610, 124031.1
727.5432, 123890.0
728.0253, 123776.7
728.5074, 123695.2
728.9895, 123650.0
729.4716, 123671.0
729.9537, 123717.5
730.4359, 123750.9
730.9180, 123766.3
731.4001, 123774.6
731.8822, 123771.8
732.3643, 123769.2
732.8464, 123774.0
733.3285, 123781.3
733.8106, 123802.1
734.2927, 123828.2
734.7748, 123878.5
735.2570, 123994.5
735.7391, 124165.9
736.2212, 124315.8
736.7033, 124437.3
737.1854, 124507.6
737.6675, 124457.6
738.1497, 124346.1
738.6318, 124278.0
739.1139, 124295.1
739.5960, 124363.8
740.0781, 124540.5
740.5602, 124759.9
741.0424, 124858.1
741.5245, 124729.1
742.0066, 124645.1
742.4887, 124654.8
742.9708, 124747.7
743.4529, 124907.5
743.9351, 125134.1
744.4172, 125358.2
744.8993, 125543.4
745.3814, 125699.9
745.8635, 125844.3
746.3456, 125975.2
746.8278, 126099.9
747.3099, 126229.7
747.7920, 126342.2
748.2741, 126427.4
748.7562, 126485.3
749.2383, 126510.4
749.7205, 126516.6
750.2026, 126486.0
750.6847, 126404.9
751.1668, 126274.0
751.6489, 126170.9
752.1310, 126096.0
752.6132, 126069.4
753.0953, 126126.3
753.5774, 126243.6
754.0595, 126358.0
754.5416, 126464.2
755.0237, 126555.8
755.5059, 126624.8
755.9880, 126672.4
756.4701, 126693.1
756.9522, 126659.7
757.4343, 126654.9
757.9164, 126743.1
758.3986, 126822.0
758.8807, 126796.4
759.3628, 126626.3
759.8449, 126525.9
760.3270, 126530.1
760.8091, 126572.3
761.2913, 126567.7
761.7734, 126531.8
762.2555, 126507.5
762.7376, 126506.6
763.2197, 126531.2
763.7018, 126610.5
764.1840, 126710.2
764.6661, 126779.6
765.1482, 126733.4
765.6303, 126734.4
766.1124, 126826.1
766.5945, 126972.8
767.0767, 127111.7
767.5588, 127219.7
768.0409, 127381.9
768.5230, 127635.8
769.0051, 127918.3
769.4872, 128086.7
769.9694, 128160.7
770.4515, 128250.1
770.9336, 128448.5
771.4157, 128636.6
771.8978, 128694.8
772.3799, 128653.9
772.8621, 128601.9
773.3442, 128524.1
773.8263, 128494.3
774.3084, 128582.5
774.7905, 128751.6
775.2726, 128802.5
775.7548, 128695.8
776.2369, 128610.1
776.7190, 128639.2
777.2011, 128743.6
777.6832, 128748.3
778.1653, 128672.6
778.6475, 128674.0
779.1296, 128931.3
779.6117, 129253.0
780.0938, 129475.4
780.5759, 129589.0
781.0580, 129646.4
781.5402, 129596.9
782.0223, 129550.8
782.5044, 129553.9
782.9865, 129605.4
783.4686, 129676.9
783.9507, 129777.3
784.4329, 129866.8
784.9150, 129909.3
785.3971, 129921.3
785.8792, 129974.5
786.3613, 130071.4
786.8434, 130171.0
787.3256, 130220.6
787.8077, 130274.9
788.2898, 130402.1
788.7719, 130623.5
789.2540, 130801.9
789.7361, 130819.8
790.2183, 130853.1
790.7004, 131015.3
791.1825, 131349.3
791.6646, 131585.0
792.1467, 131701.3
792.6288, 131782.1
793.1110, 131895.6
793.5930, 132032.5
794.0751, 132195.7
794.5573, 132391.3
795.0394, 132516.0
795.5215, 132394.6
796.0036, 132215.4
796.4857, 132170.0
796.9678, 132370.6
797.4500, 132512.7
797.9321, 132533.4
798.4142, 132518.5
798.8963, 132540.8
799.3784, 132610.9
799.8605, 132665.8
800.3427, 132702.4
800.8248, 132727.6
801.3069, 132739.5
801.7890, 132747.2
802.2711, 132767.2
802.7532, 132797.0
803.2354, 132857.3
803.7175, 132998.6
804.1996, 133158.0
804.6817, 133269.5
805.1638, 133258.8
805.6459, 133294.1
806.1281, 133401.4
806.6102, 133528.2
807.0923, 133602.2
807.5744, 133623.4
808.0565, 133677.9
808.5386, 133782.6
809.0208, 133906.3
809.5029, 134035.4
809.9850, 134150.4
810.4671, 134206.2
810.9492, 134148.9
811.4313, 134115.6
811.9135, 134170.3
812.3956, 134276.6
812.8777, 134387.6
813.3598, 134502.2
813.8419, 134622.0
814.3240, 134766.3
814.8062, 134886.4
815.2883, 134871.1
815.7704, 134746.9
816.2525, 134707.7
816.7346, 134817.7
817.2167, 134970.1
817.6989, 135090.0
818.1810, 135171.6
818.6631, 135205.3
819.1452, 135098.0
819.6273, 135065.6
820.1094, 135210.1
820.5916, 135430.6
821.0737, 135609.7
821.5558, 135749.2
822.0379, 135829.1
822.5200, 135827.8
823.0021, 135805.6
823.4843, 135840.6
823.9664, 135930.3
824.4485, 136081.2
824.9306, 136349.1
825.4127, 136569.8
825.8948, 136551.3
826.3770, 136432.9
826.8591, 136421.6
827.3412, 136647.3
827.8233, 136863.3
828.3054, 137070.6
828.7875, 137240.2
829.2697, 137294.0
829.7518, 137228.9
830.2339, 137245.0
830.7160, 137417.0
831.1981, 137602.6
831.6802, 137587.5
832.1624, 137460.3
832.6445, 137386.8
833.1266, 137466.1
833.6087, 137546.1
834.0908, 137575.9
834.5729, 137574.5
835.0551, 137565.6
835.5372, 137524.8
836.0193, 137548.4
836.5014, 137666.3
836.9835, 137817.6
837.4656, 137880.7
837.9478, 137883.1
838.4299, 137957.6
838.9120, 138171.0
839.3941, 138384.6
839.8762, 138480.0
840.3583, 138502.5
840.8405, 138514.7
841.3226, 138483.0
841.8047, 138513.8
842.2868, 138647.3
842.7689, 138816.1
843.2510, 138918.9
843.7332, 138947.1
844.2153, 139002.6
844.6974, 139100.4
845.1795, 139228.4
845.6616, 139415.8
846.1437, 139609.7
846.6259, 139704.1
847.1080, 139627.3
847.5901, 139539.1
848.0722, 139487.7
848.5543, 139470.7
849.0364, 139487.8
849.5186, 139563.3
850.0007, 139607.3
850.4828, 139599.2
850.9649, 139596.9
851.4470, 139718.6
851.9291, 139920.9
852.4113, 140004.2
852.8934, 139914.5
853.3755, 139807.7
853.8576, 139791.5
854.3397, 139838.6
854.8218, 139919.8
855.3040, 140035.4
855.7860, 140178.0
856.2681, 140349.4
856.7502, 140538.9
857.2324, 140750.7
857.7145, 140983.5
858.1966, 141153.7
858.6787, 141243.6
859.1608, 141328.3
859.6429, 141497.6
860.1251, 141702.2
860.6072, 141884.8
861.0893, 142039.7
861.5714, 142139.8
862.0535, 142122.1
862.5356, 142083.9
863.0178, 142100.5
863.4999, 142188.4
863.9820, 142264.8
864.4641, 142329.2
864.9462, 142381.4
865.4283, 142392.4
865.9105, 142395.1
866.3926, 142514.0
866.8747, 142760.2
867.3568, 142930.1
867.8389, 142779.0
868.3210, 142584.0
868.8032, 142575.1
869.2853, 142839.7
869.7674, 142929.1
870.2495, 142741.0
870.7316, 142565.2
871.2137, 142584.4
871.6959, 142777.4
872.1780, 142981.9
872.6601, 143196.6
873.1422, 143375.0
873.6243, 143467.6
874.1064, 143518.7
874.5886, 143522.5
875.0707, 143488.1
875.5528, 143587.3
876.0349, 144065.9
876.5170, 144444.8
876.9991, 144510.8
877.4813, 144312.6
877.9634, 144295.9
878.4455, 144468.2
878.9276, 144668.5
879.4097, 144825.0
879.8918, 144945.9
880.3740, 144991.8
880.8561, 145001.6
881.3382, 145118.8
881.8203, 145636.6
882.3024, 146027.4
882.7845, 145987.1
883.2667, 145668.0
883.7488, 145553.7
884.2309, 145664.8
884.7130, 145897.2
885.1951, 146287.7
885.6772, 146689.0
886.1594, 146778.7
886.6415, 146648.1
887.1236, 146561.8
887.6057, 146646.9
888.0878, 146792.2
888.5699, 146995.6
889.0521, 147216.1
889.5342, 147363.5
890.0163, 147381.6
890.4984, 147469.9
890.9805, 147673.8
891.4626, 147929.8
891.9448, 148121.4
892.4269, 148268.6
892.9090, 148456.4
893.3911, 148707.6
893.8732, 148989.7
894.3553, 149354.6
894.8375, 149697.1
895.3196, 149885.4
895.8017, 149750.5
896.2838, 149695.6
896.7659, 149742.3
897.2480, 149834.4
897.7302, 149953.9
898.2123, 150083.7
898.6944, 150062.3
899.1765, 149862.2
899.6586, 149685.2
900.1407, 149763.7
900.6229, 149927.0
901.1050, 150000.8
901.5871, 149943.2
902.0692, 149903.3
902.5513, 149879.0
903.0334, 149903.7
903.5156, 150025.8
903.9977, 150241.0
904.4798, 150308.8
904.9619, 150224.1
905.4440, 150168.7
905.9261, 150313.9
906.4083, 150528.5
906.8904, 150669.6
907.3725, 150736.5
907.8546, 150823.8
908.3367, 151019.3
908.8188, 151169.3
909.3010, 151195.2
909.7831, 151132.3
910.2652, 151167.8
910.7473, 151304.0
911.2294, 151497.8
911.7115, 151795.0
912.1937, 152079.6
912.6758, 152157.6
913.1579, 152093.7
913.6400, 152058.6
914.1221, 152159.2
914.6042, 152236.4
915.0864, 152206.8
915.5685, 152150.4
916.0506, 152242.4
916.5327, 152506.2
917.0148, 152718.3
917.4969, 152832.3
917.9790, 152894.8
918.4611, 152934.9
918.9432, 152978.1
919.4254, 153070.1
919.9075, 153243.8
920.3896, 153429.7
920.8717, 153600.3
921.3538, 153775.5
921.8359, 153958.7
922.3181, 154134.1
922.8002, 154410.9
923.2823, 154810.8
923.7644, 155194.6
924.2465, 155344.2
924.7286, 155402.9
925.2108, 155640.5
925.6929, 156095.3
926.1750, 156458.1
926.6571, 156561.8
927.1392, 156565.4
927.6213, 156518.9
928.1035, 156424.9
928.5856, 156555.0
929.0677, 156952.4
929.5498, 157324.3
930.0319, 157493.1
930.5140, 157535.8
930.9962, 157574.8
931.4783, 157611.2
931.9604, 157639.3
932.4425, 157632.4
932.9246, 157646.7
933.4067, 157714.3
933.8889, 157816.3
934.3710, 157898.2
934.8531, 157945.8
935.3352, 158050.0
935.8173, 158238.2
936.2994, 158481.6
936.7816, 158814.4
937.2637, 159153.6
937.7458, 159310.7
938.2279, 159089.0
938.7100, 158912.7
939.1921, 158938.9
939.6743, 159071.7
940.1564, 159219.2
940.6385, 159379.5
941.1206, 159581.5
941.6027, 159845.1
942.0848, 160071.8
942.5670, 160125.0
943.0491, 160087.7
943.5312, 160089.4
944.0133, 160147.5
944.4954, 160215.4
944.9775, 160237.2
945.4597, 160303.8
945.9418, 160477.7
946.4239, 160758.7
946.9060, 161007.8
947.3881, 161233.1
947.8702, 161366.6
948.3524, 161253.6
948.8345, 161094.1
949.3166, 161240.5
949.7987, 161608.4
950.2808, 161895.9
950.7629, 161879.0
951.2451, 161884.2
951.7272, 162014.2
952.2093, 162215.0
952.6914, 162366.5
953.1735, 162463.6
953.6556, 162559.8
954.1378, 162655.6
954.6199, 162782.6
955.1020, 163012.7
955.5841, 163289.2
956.0662, 163528.3
956.5483, 163702.9
957.0305, 163853.0
957.5126, 163985.7
957.9947, 164102.1
958.4768, 164196.3
958.9589, 164269.1
959.4410, 164357.9
959.9232, 164462.9
960.4053, 164616.5
960.8874, 164901.2
961.3695, 165211.3
961.8516, 165428.4
962.3337, 165544.0
962.8159, 165644.8
963.2980, 165699.5
963.7801, 165809.8
964.2622, 166056.0
964.7443, 166372.1
965.2264, 166432.9
965.7086, 166271.0
966.1907, 166173.4
966.6728, 166311.6
967.1549, 166507.5
967.6370, 166602.9
968.1191, 166654.2
968.6013, 166765.3
969.0834, 167009.6
969.5655, 167229.4
970.0476, 167420.8
970.5297, 167578.6
971.0118, 167676.6
971.4940, 167733.4
971.9761, 167830.0
972.4582, 167981.3
972.9403, 168162.8
973.4224, 168400.7
973.9045, 168636.0
974.3867, 168798.0
974.8688, 168860.7
975.3509, 169048.6
975.8330, 169404.9
976.3151, 169753.2
976.7972, 169982.4
977.2794, 170124.8
977.7615, 170270.4
978.2436, 170414.2
978.7257, 170541.3
979.2078, 170593.3
979.6899, 170675.4
980.1720, 170854.2
980.6541, 171090.2
981.1362, 171317.1
981.6183, 171553.4
982.1005, 171669.7
982.5826, 171612.7
983.0647, 171523.5
983.5468, 171587.8
984.0289, 171759.0
984.5110, 171971.2
984.9932, 172247.5
985.4753, 172447.3
985.9574, 172417.4
986.4395, 172398.1
986.9216, 172562.8
987.4037, 172923.8
987.8859, 173151.4
988.3680, 173240.6
988.8501, 173307.6
989.3322, 173425.1
989.8143, 173565.8
990.2964, 173720.3
990.7786, 173877.5
991.2607, 173990.0
991.7428, 173980.1
992.2249, 174025.4
992.7070, 174170.5
993.1891, 174385.5
993.6713, 174612.0
994.1534, 174848.7
994.6355, 175079.3
995.1176, 175291.9
995.5997, 175522.1
996.0818, 175866.9
996.5640, 176205.7
997.0461, 176381.8
997.5282, 176279.3
998.0103, 176326.1
998.4924, 176559.3
998.9745, 176835.7
999.4567, 177029.5
999.9388, 177182.3
1000.421, 177392.2
1000.903, 177658.5
1001.385, 177949.5
1001.867, 178351.3
1002.349, 178659.8
1002.831, 178691.3
1003.314, 178561.4
1003.796, 178645.0
1004.278, 178970.9
1004.760, 179230.1
1005.242, 179319.2
1005.724, 179356.0
1006.206, 179501.6
1006.688, 179698.6
1007.171, 179857.4
1007.653, 179944.0
1008.135, 180023.4
1008.617, 180085.4
1009.099, 180172.5
1009.581, 180331.0
1010.063, 180556.4
1010.545, 180748.3
1011.027, 180905.8
1011.510, 181058.9
1011.992, 181210.1
1012.474, 181375.1
1012.956, 181589.6
1013.438, 181835.5
1013.920, 181998.9
1014.402, 182041.4
1014.884, 182085.4
1015.367, 182149.1
1015.849, 182250.2
1016.331, 182443.2
1016.813, 182698.0
1017.295, 182944.7
1017.777, 183169.5
1018.259, 183369.3
1018.741, 183525.0
1019.223, 183671.9
1019.706, 183845.7
1020.188, 184056.1
1020.670, 184208.1
1021.152, 184296.1
1021.634, 184408.6
1022.116, 184598.2
1022.598, 184853.1
1023.080, 185190.3
1023.563, 185588.7
1024.045, 185942.7
1024.527, 186215.3
1025.009, 186453.5
1025.491, 186651.8
1025.973, 186824.6
1026.455, 186978.8
1026.937, 187127.6
1027.419, 187355.2
1027.901, 187713.8
1028.384, 188021.1
1028.866, 188116.4
1029.348, 188135.0
1029.830, 188197.6
1030.312, 188317.5
1030.794, 188456.7
1031.276, 188629.8
1031.758, 188776.7
1032.241, 188803.1
1032.723, 188812.7
1033.205, 188994.2
1033.687, 189307.8
1034.169, 189611.4
1034.651, 189860.9
1035.133, 190071.4
1035.615, 190215.1
1036.098, 190343.2
1036.580, 190540.8
1037.062, 190798.6
1037.544, 191099.7
1038.026, 191445.5
1038.508, 191767.5
1038.990, 192033.3
1039.472, 192233.9
1039.954, 192340.2
1040.437, 192338.3
1040.919, 192406.4
1041.401, 192574.7
1041.883, 192727.9
1042.365, 192815.4
1042.847, 192858.8
1043.329, 192878.3
1043.811, 192891.6
1044.293, 192937.6
1044.776, 193074.9
1045.258, 193199.1
1045.740, 193271.3
1046.222, 193336.5
1046.704, 193435.9
1047.186, 193569.8
1047.668, 193777.4
1048.150, 194061.6
1048.633, 194366.3
1049.115, 194670.0
1049.597, 194949.9
1050.079, 195176.7
1050.561, 195349.6
1051.043, 195540.3
1051.525, 195747.3
1052.007, 195969.4
1052.490, 196189.7
1052.972, 196446.3
1053.454, 196871.0
1053.936, 197375.0
1054.418, 197758.5
1054.900, 197879.4
1055.382, 198011.7
1055.864, 198230.7
1056.346, 198472.5
1056.828, 198708.7
1057.311, 198936.2
1057.793, 199024.7
1058.275, 198978.1
1058.757, 199007.8
1059.239, 199384.6
1059.721, 199785.3
1060.203, 199958.3
1060.685, 199952.9
1061.168, 199990.8
1061.650, 200105.7
1062.132, 200203.8
1062.614, 200262.4
1063.096, 200320.9
1063.578, 200431.3
1064.060, 200578.8
1064.542, 200751.0
1065.025, 200956.3
1065.507, 201117.7
1065.989, 201182.3
1066.471, 201222.0
1066.953, 201247.9
1067.435, 201274.5
1067.917, 201410.0
1068.399, 201640.7
1068.881, 201850.4
1069.364, 201914.1
1069.846, 202021.5
1070.328, 202329.0
1070.810, 202740.5
1071.292, 203102.1
1071.774, 203410.3
1072.256, 203632.1
1072.738, 203738.1
1073.220, 203863.2
1073.703, 204194.6
1074.185, 204584.0
1074.667, 204823.6
1075.149, 204910.9
1075.631, 204961.1
1076.113, 204965.5
1076.595, 205002.3
1077.077, 205107.5
1077.559, 205250.1
1078.042, 205365.4
1078.524, 205461.3
1079.006, 205542.4
1079.488, 205592.5
1079.970, 205706.4
1080.452, 206045.9
1080.934, 206382.0
1081.416, 206490.7
1081.899, 206356.2
1082.381, 206578.5
1082.863, 207168.7
1083.345, 207720.4
1083.827, 207914.0
1084.309, 208010.5
1084.791, 208217.7
1085.273, 208522.2
1085.755, 208915.9
1086.238, 209520.8
1086.720, 209923.1
1087.202, 210061.0
1087.684, 210074.8
1088.166, 210054.3
1088.648, 210048.4
1089.130, 210182.0
1089.612, 210460.5
1090.094, 210728.0
1090.577, 210865.1
1091.059, 211068.0
1091.541, 211459.4
1092.023, 211931.7
1092.505, 212129.2
1092.987, 212105.1
1093.469, 212223.2
1093.951, 212625.3
1094.434, 213051.5
1094.916, 213307.6
1095.398, 213507.5
1095.880, 213754.6
1096.362, 214056.0
1096.844, 214355.5
1097.326, 214655.9
1097.808, 214923.7
1098.291, 215116.1
1098.773, 215286.8
1099.255, 215494.1
1099.737, 215729.9
1100.219, 215973.8
1100.701, 216272.8
1101.183, 216490.6
1101.665, 216597.8
1102.147, 216683.0
1102.630, 216834.6
1103.112, 217036.5
1103.594, 217268.0
1104.076, 217520.0
1104.558, 217749.1
1105.040, 217876.2
1105.522, 218042.7
1106.004, 218321.7
1106.486, 218643.4
1106.969, 218781.3
1107.451, 218775.9
1107.933, 218942.5
1108.415, 219423.3
1108.897, 219798.3
1109.379, 219605.0
1109.861, 219315.1
1110.343, 219349.3
1110.826, 219715.4
1111.308, 219994.1
1111.790, 220185.8
1112.272, 220313.4
1112.754, 220360.0
1113.236, 220386.6
1113.718, 220405.4
1114.200, 220463.9
1114.682, 220654.8
1115.165, 221082.8
1115.647, 221438.9
1116.129, 221705.4
1116.611, 221917.0
1117.093, 222095.8
1117.575, 222240.7
1118.057, 222333.7
1118.539, 222385.8
1119.021, 222463.8
1119.504, 222651.8
1119.986, 222784.1
1120.468, 222787.3
1120.950, 222782.4
1121.432, 223013.0
1121.914, 223416.7
1122.396, 223754.3
1122.878, 223989.5
1123.361, 224205.5
1123.843, 224424.9
1124.325, 224667.8
1124.807, 224951.5
1125.289, 225264.9
1125.771, 225543.4
1126.253, 225791.9
1126.735, 226142.2
1127.218, 226693.2
1127.700, 227220.0
1128.182, 227449.9
1128.664, 227599.8
1129.146, 227930.8
1129.628, 228472.6
1130.110, 228988.9
1130.592, 229486.0
1131.074, 229849.6
1131.557, 229907.4
1132.039, 229868.6
1132.521, 229963.6
1133.003, 230163.8
1133.485, 230415.3
1133.967, 230840.8
1134.449, 231055.4
1134.931, 231002.8
1135.413, 230880.3
1135.896, 230844.7
1136.378, 230905.6
1136.860, 231149.7
1137.342, 231543.4
1137.824, 231798.8
1138.306, 231608.9
1138.788, 231548.4
1139.270, 231748.1
1139.752, 232098.9
1140.235, 232445.7
1140.717, 232772.3
1141.199, 233041.9
1141.681, 233234.7
1142.163, 233415.8
1142.645, 233676.6
1143.127, 233850.5
1143.609, 233809.4
1144.092, 233636.9
1144.574, 233748.5
1145.056, 234095.8
1145.538, 234278.8
1146.020, 234081.6
1146.502, 233913.8
1146.984, 234071.6
1147.466, 234375.5
1147.948, 234651.6
1148.431, 234894.1
1148.913, 235266.7
1149.395, 235772.6
1149.877, 236234.1
1150.359, 236446.8
1150.841, 236654.3
1151.323, 237087.1
1151.805, 237630.3
1152.287, 238086.9
1152.770, 238434.6
1153.252, 238677.9
1153.734, 238789.8
1154.216, 238946.2
1154.698, 239370.4
1155.180, 239868.7
1155.662, 240250.0
1156.144, 240515.2
1156.627, 240689.2
1157.109, 240725.0
1157.591, 240857.2
1158.073, 241164.9
1158.555, 241467.6
1159.037, 241496.0
1159.519, 241397.5
1160.001, 241383.6
1160.484, 241477.2
1160.966, 241625.3
1161.448, 241823.6
1161.930, 242057.9
1162.412, 242352.2
1162.894, 242635.6
1163.376, 242772.5
1163.858, 242794.6
1164.340, 242739.2
1164.823, 242566.1
1165.305, 242567.9
1165.787, 243009.2
1166.269, 243394.4
1166.751, 243425.6
1167.233, 243261.8
1167.715, 243503.3
1168.197, 244036.9
1168.679, 244426.5
1169.162, 244354.7
1169.644, 244395.7
1170.126, 244764.5
1170.608, 245293.0
1171.090, 245952.8
1171.572, 246698.8
1172.054, 247049.5
1172.536, 247057.9
1173.019, 247163.7
1173.501, 247758.1
1173.983, 248318.9
1174.465, 248581.1
1174.947, 248702.3
1175.429, 248832.5
1175.911, 248973.7
1176.393, 249255.9
1176.875, 249682.5
1177.358, 250121.0
1177.840, 250560.2
1178.322, 250901.4
1178.804, 251019.5
1179.286, 251010.0
1179.768, 251048.9
1180.250, 251134.3
1180.732, 251337.6
1181.214, 251675.9
1181.697, 252049.2
1182.179, 252378.1
1182.661, 252704.4
1183.143, 253076.1
1183.625, 253474.9
1184.107, 253819.6
1184.589, 254108.2
1185.071, 254310.0
1185.554, 254397.7
1186.036, 254470.1
1186.518, 254639.1
1187.000, 254835.2
1187.482, 254962.7
1187.964, 255017.6
1188.446, 255245.8
1188.928, 255698.9
1189.411, 255963.9
1189.893, 255803.5
1190.375, 255553.9
1190.857, 255593.8
1191.339, 255791.4
1191.821, 255986.8
1192.303, 256166.3
1192.785, 256292.5
1193.267, 256337.3
1193.750, 256478.3
1194.232, 256852.6
1194.714, 257329.9
1195.196, 257866.4
1195.678, 258357.1
1196.160, 258586.5
1196.642, 258264.2
1197.124, 258305.7
1197.606, 258782.0
1198.089, 259297.2
1198.571, 259548.0
1199.053, 259656.6
1199.535, 259741.3
1200.017, 259820.9
1200.499, 259939.8
1200.981, 260107.2
1201.463, 260321.2
1201.945, 260587.7
1202.428, 260867.2
1202.910, 261133.8
1203.392, 261380.0
1203.874, 261574.4
1204.356, 261735.3
1204.838, 261957.5
1205.320, 262248.6
1205.802, 262628.6
1206.285, 263129.9
1206.767, 263617.4
1207.249, 263871.2
1207.731, 264029.3
1208.213, 264300.8
1208.695, 264695.5
1209.177, 265073.3
1209.659, 265473.8
1210.141, 265692.7
1210.624, 265614.5
1211.106, 265503.0
1211.588, 265782.9
1212.070, 266251.8
1212.552, 266601.4
1213.034, 266772.4
1213.516, 266983.5
1213.998, 267258.2
1214.480, 267570.0
1214.963, 267940.2
1215.445, 268292.6
1215.927, 268500.3
1216.409, 268608.5
1216.891, 268680.1
1217.373, 268720.5
1217.855, 268785.7
1218.337, 268881.5
1218.820, 269016.5
1219.302, 269210.6
1219.784, 269431.2
1220.266, 269592.9
1220.748, 269745.2
1221.230, 269973.7
1221.712, 270331.2
1222.194, 270663.7
1222.677, 270947.7
1223.159, 271240.8
1223.641, 271569.6
1224.123, 271924.8
1224.605, 272324.8
1225.087, 272735.3
1225.569, 273085.1
1226.051, 273327.3
1226.533, 273542.9
1227.016, 273713.0
1227.498, 273917.3
1227.980, 274263.5
1228.462, 274645.6
1228.944, 274839.8
1229.426, 274936.7
1229.908, 275153.5
1230.390, 275653.2
1230.872, 276071.3
1231.355, 276387.9
1231.837, 276670.0
1232.319, 276991.7
1232.801, 277297.5
1233.283, 277446.6
1233.765, 277508.0
1234.247, 277705.5
1234.729, 278117.2
1235.212, 278538.3
1235.694, 278958.3
1236.176, 279350.4
1236.658, 279661.6
1237.140, 279936.7
1237.622, 280262.1
1238.104, 280599.9
1238.586, 280808.3
1239.068, 280847.6
1239.551, 280851.7
1240.033, 280815.9
1240.515, 280875.3
1240.997, 281287.3
1241.479, 281790.5
1241.961, 282095.7
1242.443, 282223.3
1242.925, 282355.7
1243.407, 282461.8
1243.890, 282797.9
1244.372, 283449.4
1244.854, 284064.0
1245.336, 284097.3
1245.818, 284022.7
1246.300, 284315.3
1246.782, 284954.8
1247.264, 285516.7
1247.747, 285994.9
1248.229, 286359.2
1248.711, 286596.9
1249.193, 286730.4
1249.675, 286681.3
1250.157, 286632.0
1250.639, 286814.1
1251.121, 287181.1
1251.604, 287372.1
1252.086, 287389.9
1252.568, 287351.0
1253.050, 287270.2
1253.532, 287247.4
1254.014, 287333.8
1254.496, 287547.6
1254.978, 287947.1
1255.460, 288482.1
1255.943, 288938.9
1256.425, 289313.6
1256.907, 289653.1
1257.389, 289959.0
1257.871, 290259.7
1258.353, 290625.9
1258.835, 290928.5
1259.317, 291052.5
1259.799, 291039.4
1260.281, 291129.4
1260.764, 291312.2
1261.246, 291526.9
1261.728, 291815.6
1262.210, 291970.9
1262.692, 291758.4
1263.174, 291529.8
1263.656, 291496.8
1264.138, 291632.6
1264.621, 291817.4
1265.103, 292052.6
1265.585, 292327.3
1266.067, 292657.2
1266.549, 292976.9
1267.031, 293142.2
1267.513, 293447.1
1267.995, 294124.7
1268.478, 295008.9
1268.960, 295520.1
1269.442, 295801.9
1269.924, 296290.5
1270.406, 297272.9
1270.888, 298088.0
1271.370, 298616.2
1271.852, 298974.6
1272.334, 299138.8
1272.817, 299236.5
1273.299, 299653.7
1273.781, 300232.7
1274.263, 300634.6
1274.745, 300654.3
1275.227, 300735.3
1275.709, 300924.8
1276.191, 301131.0
1276.673, 301335.4
1277.156, 301507.0
1277.638, 301572.2
1278.120, 301582.9
1278.602, 301630.8
1279.084, 301732.3
1279.566, 301900.3
1280.048, 302149.1
1280.530, 302405.0
1281.013, 302544.9
1281.495, 302743.6
1281.977, 303271.8
1282.459, 303945.3
1282.941, 304462.4
1283.423, 304797.5
1283.905, 304970.9
1284.387, 304973.6
1284.870, 305025.9
1285.352, 305273.0
1285.834, 305603.9
1286.316, 306015.9
1286.798, 306421.6
1287.280, 306701.1
1287.762, 306847.5
1288.244, 307119.2
1288.726, 307499.4
1289.208, 307819.0
1289.691, 307859.4
1290.173, 307970.5
1290.655, 308432.3
1291.137, 308943.4
1291.619, 309175.8
1292.101, 309170.1
1292.583, 309400.0
1293.065, 309870.6
1293.548, 310248.5
1294.030, 310231.9
1294.512, 310243.7
1294.994, 310350.1
1295.476, 310517.0
1295.958, 310698.8
##END=



