##NAMES=Vistepite
##RRUFFID=R070712
##IDEAL CHEMISTRY=Mn^2+^_4_Sn^4+^B_2_O_2_(Si_2_O_7_)_2_(OH)_2_
##LOCALITY=Rhodonite occurrence, Muzeinyi Valley, Inyl'chek Range, Issyk-Kul'skaya Oblast, Kyrgyzstan
##OWNER=RRUFF
##SOURCE=Michael Scott
##DESCRIPTION=Yellow gemmy fragments associated with rhodonite. Portion of type sample.
##STATUS=The identification of this mineral has been confirmed by single-crystal X-ray diffraction.
##URL=rruff.info/R070712
154.7179, 4719.710
155.2001, 4708.063
155.6822, 4713.377
156.1643, 4731.650
156.6464, 4750.711
157.1285, 4778.119
157.6106, 4797.245
158.0928, 4788.122
158.5749, 4773.192
159.0570, 4784.562
159.5391, 4842.822
160.0212, 4943.469
160.5033, 5034.621
160.9855, 5115.556
161.4676, 5189.647
161.9497, 5255.216
162.4318, 5314.181
162.9139, 5373.441
163.3960, 5442.080
163.8782, 5519.382
164.3603, 5558.664
164.8424, 5547.533
165.3245, 5513.110
165.8066, 5469.456
166.2887, 5418.093
166.7709, 5358.994
167.2530, 5288.104
167.7351, 5205.652
168.2172, 5132.826
168.6993, 5062.514
169.1814, 5006.642
169.6636, 4991.946
170.1457, 5033.167
170.6278, 5072.351
171.1099, 5025.103
171.5920, 4909.449
172.0741, 4826.107
172.5563, 4840.953
173.0384, 4920.449
173.5205, 4967.776
174.0026, 4960.647
174.4847, 4925.551
174.9668, 4886.457
175.4490, 4843.498
175.9311, 4798.917
176.4132, 4755.638
176.8953, 4713.195
177.3774, 4664.209
177.8595, 4596.813
178.3417, 4530.626
178.8238, 4480.072
179.3059, 4446.027
179.7880, 4416.807
180.2701, 4375.925
180.7522, 4316.213
181.2344, 4274.808
181.7165, 4278.255
182.1986, 4287.811
182.6807, 4277.208
183.1628, 4239.813
183.6449, 4192.210
184.1271, 4160.698
184.6092, 4145.298
185.0913, 4149.066
185.5734, 4192.868
186.0555, 4241.776
186.5376, 4262.948
187.0198, 4243.193
187.5019, 4198.516
187.9840, 4169.838
188.4661, 4161.287
188.9482, 4167.031
189.4303, 4201.689
189.9125, 4245.135
190.3946, 4272.078
190.8767, 4269.141
191.3588, 4244.017
191.8409, 4232.962
192.3230, 4249.299
192.8052, 4264.906
193.2873, 4274.507
193.7694, 4280.093
194.2515, 4285.119
194.7336, 4291.323
195.2157, 4298.925
195.6979, 4311.056
196.1800, 4330.735
196.6621, 4350.628
197.1442, 4363.771
197.6263, 4373.859
198.1084, 4393.019
198.5906, 4431.979
199.0727, 4488.759
199.5548, 4534.483
200.0369, 4560.470
200.5190, 4583.691
201.0011, 4614.609
201.4833, 4652.888
201.9654, 4690.856
202.4475, 4721.604
202.9296, 4746.482
203.4117, 4778.436
203.8938, 4826.938
204.3760, 4877.122
204.8581, 4915.578
205.3402, 4941.477
205.8223, 4961.423
206.3044, 4981.497
206.7865, 4999.937
207.2687, 5009.390
207.7508, 5000.959
208.2329, 4985.582
208.7150, 4976.793
209.1971, 4975.187
209.6792, 4980.599
210.1614, 4996.812
210.6435, 5020.218
211.1256, 5043.312
211.6077, 5065.731
212.0898, 5085.706
212.5719, 5096.931
213.0541, 5092.880
213.5362, 5093.053
214.0183, 5115.189
214.5004, 5151.951
214.9825, 5185.562
215.4646, 5205.133
215.9468, 5213.447
216.4289, 5221.335
216.9110, 5228.220
217.3931, 5236.098
217.8752, 5246.747
218.3573, 5259.361
218.8395, 5271.507
219.3216, 5283.669
219.8037, 5295.312
220.2858, 5299.583
220.7679, 5297.495
221.2500, 5285.333
221.7322, 5254.887
222.2143, 5211.853
222.6964, 5172.902
223.1785, 5156.461
223.6606, 5164.177
224.1427, 5156.975
224.6249, 5118.940
225.1070, 5078.770
225.5891, 5045.771
226.0712, 5020.260
226.5533, 4999.124
227.0354, 4979.785
227.5176, 4962.292
227.9997, 4946.621
228.4818, 4938.225
228.9639, 4927.013
229.4460, 4903.677
229.9281, 4871.677
230.4103, 4844.304
230.8924, 4837.667
231.3745, 4858.439
231.8566, 4869.657
232.3387, 4869.521
232.8208, 4862.322
233.3030, 4843.081
233.7851, 4815.722
234.2672, 4793.816
234.7493, 4794.821
235.2314, 4829.668
235.7135, 4847.496
236.1957, 4838.541
236.6778, 4823.838
237.1599, 4812.154
237.6420, 4805.394
238.1241, 4802.234
238.6062, 4800.507
239.0884, 4797.360
239.5705, 4806.492
240.0526, 4840.024
240.5347, 4873.995
241.0168, 4889.697
241.4989, 4887.759
241.9811, 4885.680
242.4632, 4904.764
242.9453, 4954.867
243.4274, 4996.839
243.9095, 5020.080
244.3916, 5044.003
244.8738, 5086.588
245.3559, 5147.354
245.8380, 5207.343
246.3201, 5243.985
246.8022, 5248.498
247.2843, 5254.669
247.7665, 5260.312
248.2486, 5268.946
248.7307, 5289.833
249.2128, 5321.351
249.6949, 5345.712
250.1770, 5342.600
250.6592, 5304.734
251.1413, 5256.942
251.6234, 5186.525
252.1055, 5115.396
252.5876, 5063.967
253.0697, 5033.524
253.5519, 5004.150
254.0340, 4954.362
254.5161, 4878.321
254.9982, 4800.517
255.4803, 4705.293
255.9624, 4618.838
256.4445, 4568.738
256.9267, 4556.624
257.4088, 4552.225
257.8909, 4522.078
258.3730, 4457.299
258.8551, 4414.595
259.3372, 4418.390
259.8194, 4428.650
260.3015, 4407.316
260.7836, 4351.568
261.2657, 4293.949
261.7478, 4266.944
262.2299, 4276.516
262.7121, 4281.824
263.1942, 4277.896
263.6763, 4272.527
264.1584, 4274.017
264.6405, 4282.708
265.1227, 4288.956
265.6048, 4280.855
266.0869, 4257.311
266.5690, 4249.733
267.0511, 4271.757
267.5332, 4301.257
268.0154, 4321.620
268.4975, 4331.458
268.9796, 4334.769
269.4617, 4331.118
269.9438, 4321.470
270.4259, 4325.425
270.9081, 4359.380
271.3902, 4395.947
271.8723, 4411.572
272.3544, 4405.937
272.8365, 4396.424
273.3186, 4395.165
273.8008, 4402.048
274.2829, 4408.963
274.7650, 4411.840
275.2471, 4417.679
275.7292, 4438.380
276.2113, 4472.016
276.6935, 4494.428
277.1756, 4483.648
277.6577, 4445.433
278.1398, 4425.250
278.6219, 4431.749
279.1040, 4449.212
279.5862, 4466.828
280.0683, 4485.193
280.5504, 4511.583
281.0325, 4555.043
281.5146, 4609.288
281.9967, 4648.585
282.4789, 4666.875
282.9610, 4676.358
283.4431, 4684.447
283.9252, 4690.384
284.4073, 4689.705
284.8894, 4679.316
285.3716, 4660.402
285.8537, 4638.989
286.3358, 4616.602
286.8179, 4590.096
287.3000, 4557.950
287.7821, 4520.250
288.2643, 4476.595
288.7464, 4422.714
289.2285, 4365.797
289.7106, 4323.684
290.1927, 4303.809
290.6748, 4284.006
291.1570, 4252.590
291.6391, 4212.685
292.1212, 4173.194
292.6033, 4136.042
293.0854, 4103.403
293.5675, 4079.337
294.0497, 4063.477
294.5318, 4053.906
295.0139, 4055.358
295.4960, 4062.495
295.9781, 4062.232
296.4602, 4048.980
296.9424, 4029.541
297.4245, 4015.313
297.9066, 4006.067
298.3887, 3999.805
298.8708, 3996.150
299.3529, 3995.006
299.8351, 3996.717
300.3172, 4001.779
300.7993, 4008.213
301.2814, 4013.020
301.7635, 4015.844
302.2456, 4020.065
302.7278, 4029.696
303.2099, 4039.950
303.6920, 4044.500
304.1741, 4042.071
304.6562, 4034.173
305.1383, 4018.028
305.6205, 3992.450
306.1026, 3981.284
306.5847, 3997.038
307.0668, 4023.698
307.5489, 4047.464
308.0310, 4066.581
308.5132, 4079.201
308.9953, 4080.633
309.4774, 4070.510
309.9595, 4069.618
310.4416, 4092.239
310.9237, 4114.873
311.4059, 4114.734
311.8880, 4092.703
312.3701, 4070.696
312.8522, 4063.770
313.3343, 4072.763
313.8164, 4089.061
314.2986, 4126.741
314.7807, 4158.860
315.2628, 4163.077
315.7449, 4145.447
316.2270, 4132.676
316.7091, 4141.567
317.1913, 4169.046
317.6734, 4195.248
318.1555, 4222.792
318.6376, 4246.684
319.1197, 4262.387
319.6018, 4272.966
320.0840, 4287.233
320.5661, 4310.925
321.0482, 4338.364
321.5303, 4348.914
322.0124, 4324.207
322.4945, 4310.253
322.9767, 4323.737
323.4588, 4352.155
323.9409, 4377.467
324.4230, 4392.971
324.9051, 4402.378
325.3872, 4413.119
325.8694, 4426.444
326.3515, 4438.820
326.8336, 4446.477
327.3157, 4454.649
327.7978, 4469.028
328.2799, 4490.977
328.7621, 4517.781
329.2442, 4546.866
329.7263, 4581.830
330.2084, 4608.515
330.6905, 4622.089
331.1726, 4631.257
331.6548, 4641.961
332.1369, 4654.946
332.6190, 4667.795
333.1011, 4677.808
333.5832, 4684.104
334.0653, 4692.533
334.5475, 4709.754
335.0296, 4722.709
335.5117, 4724.086
335.9938, 4715.318
336.4759, 4702.575
336.9580, 4690.840
337.4402, 4680.002
337.9223, 4661.990
338.4044, 4634.980
338.8865, 4603.236
339.3686, 4558.658
339.8507, 4511.062
340.3329, 4478.090
340.8150, 4470.611
341.2971, 4482.096
341.7792, 4484.553
342.2613, 4477.025
342.7434, 4460.182
343.2256, 4423.745
343.7077, 4382.681
344.1898, 4352.494
344.6719, 4339.281
345.1540, 4338.722
345.6361, 4344.008
346.1183, 4364.260
346.6004, 4371.925
347.0825, 4358.068
347.5646, 4338.123
348.0467, 4319.484
348.5288, 4305.279
349.0110, 4299.173
349.4931, 4310.295
349.9752, 4346.992
350.4573, 4367.609
350.9394, 4356.381
351.4215, 4341.171
351.9037, 4332.290
352.3858, 4330.760
352.8679, 4334.483
353.3500, 4345.426
353.8321, 4363.014
354.3142, 4366.531
354.7964, 4342.373
355.2785, 4320.129
355.7606, 4310.927
356.2427, 4312.078
356.7248, 4318.115
357.2069, 4328.026
357.6891, 4339.395
358.1712, 4345.147
358.6533, 4344.120
359.1354, 4339.884
359.6175, 4329.271
360.0996, 4318.121
360.5818, 4312.322
361.0639, 4312.573
361.5460, 4321.737
362.0281, 4349.708
362.5102, 4399.999
362.9923, 4437.796
363.4745, 4441.029
363.9566, 4433.449
364.4387, 4438.067
364.9208, 4458.122
365.4029, 4482.621
365.8850, 4500.686
366.3672, 4514.936
366.8493, 4544.285
367.3314, 4606.188
367.8135, 4663.666
368.2956, 4671.453
368.7777, 4633.750
369.2599, 4602.507
369.7420, 4606.476
370.2241, 4628.323
370.7062, 4634.670
371.1883, 4618.319
371.6704, 4607.734
372.1526, 4635.004
372.6347, 4692.391
373.1168, 4734.329
373.5989, 4744.555
374.0810, 4745.288
374.5631, 4753.680
375.0453, 4769.586
375.5274, 4787.057
376.0095, 4803.777
376.4916, 4818.871
376.9737, 4829.464
377.4558, 4837.333
377.9380, 4839.454
378.4201, 4835.788
378.9022, 4825.520
379.3843, 4806.942
379.8664, 4779.357
380.3485, 4743.400
380.8307, 4700.019
381.3128, 4641.587
381.7949, 4589.638
382.2770, 4549.993
382.7591, 4514.848
383.2412, 4477.824
383.7234, 4437.425
384.2055, 4395.183
384.6876, 4352.797
385.1697, 4309.513
385.6518, 4269.268
386.1339, 4225.538
386.6161, 4190.053
387.0982, 4177.422
387.5803, 4179.127
388.0624, 4171.789
388.5445, 4136.814
389.0266, 4077.389
389.5088, 4028.917
389.9909, 3995.897
390.4730, 3970.050
390.9551, 3950.127
391.4372, 3936.604
391.9193, 3931.827
392.4015, 3937.045
392.8836, 3947.118
393.3657, 3950.783
393.8478, 3943.495
394.3299, 3940.950
394.8120, 3954.560
395.2942, 3966.875
395.7763, 3963.291
396.2584, 3942.727
396.7405, 3919.455
397.2226, 3908.338
397.7047, 3909.515
398.1869, 3908.447
398.6690, 3901.236
399.1511, 3895.380
399.6332, 3895.094
400.1153, 3899.467
400.5974, 3905.708
401.0796, 3913.136
401.5617, 3921.264
402.0438, 3929.774
402.5259, 3939.532
403.0080, 3946.311
403.4901, 3944.837
403.9723, 3939.705
404.4544, 3937.394
404.9365, 3938.026
405.4186, 3943.284
405.9007, 3958.991
406.3828, 3982.421
406.8650, 3997.939
407.3471, 3997.967
407.8292, 3989.991
408.3113, 3984.587
408.7934, 3980.218
409.2755, 3983.485
409.7577, 4005.199
410.2398, 4032.327
410.7219, 4043.414
411.2040, 4034.608
411.6861, 4025.749
412.1682, 4039.036
412.6504, 4078.611
413.1325, 4102.149
413.6146, 4095.713
414.0967, 4086.769
414.5788, 4091.167
415.0609, 4106.396
415.5431, 4122.057
416.0252, 4131.803
416.5073, 4137.012
416.9894, 4144.270
417.4715, 4153.496
417.9536, 4165.187
418.4358, 4184.569
418.9179, 4204.099
419.4000, 4213.075
419.8821, 4209.127
420.3642, 4203.012
420.8463, 4212.680
421.3285, 4246.693
421.8106, 4272.856
422.2927, 4285.242
422.7748, 4295.355
423.2569, 4312.163
423.7390, 4332.518
424.2212, 4344.251
424.7033, 4333.673
425.1854, 4306.124
425.6675, 4296.458
426.1496, 4316.927
426.6317, 4334.761
427.1139, 4334.833
427.5960, 4326.325
428.0781, 4320.714
428.5602, 4322.168
429.0423, 4326.976
429.5244, 4333.869
430.0066, 4343.137
430.4887, 4340.898
430.9708, 4314.948
431.4529, 4283.470
431.9350, 4271.260
432.4171, 4279.906
432.8993, 4278.097
433.3814, 4238.027
433.8635, 4180.823
434.3456, 4147.497
434.8277, 4145.568
435.3098, 4149.879
435.7920, 4139.499
436.2741, 4115.326
436.7562, 4095.053
437.2383, 4078.787
437.7204, 4067.002
438.2025, 4059.107
438.6847, 4055.788
439.1668, 4060.800
439.6489, 4077.495
440.1310, 4099.440
440.6131, 4108.941
441.0952, 4091.449
441.5774, 4081.953
442.0595, 4088.241
442.5416, 4099.571
443.0237, 4105.123
443.5058, 4103.642
443.9879, 4102.590
444.4701, 4111.257
444.9522, 4131.878
445.4343, 4146.004
445.9164, 4143.591
446.3985, 4144.745
446.8806, 4158.906
447.3628, 4180.881
447.8449, 4200.795
448.3270, 4213.402
448.8091, 4220.645
449.2912, 4227.708
449.7733, 4235.643
450.2555, 4240.327
450.7376, 4235.863
451.2197, 4230.750
451.7018, 4230.565
452.1839, 4236.262
452.6660, 4247.579
453.1482, 4267.331
453.6303, 4293.412
454.1124, 4316.765
454.5945, 4338.439
455.0766, 4353.165
455.5587, 4348.971
456.0409, 4332.911
456.5230, 4326.550
457.0051, 4338.666
457.4872, 4359.374
457.9693, 4382.344
458.4514, 4407.005
458.9336, 4429.848
459.4157, 4448.149
459.8978, 4464.863
460.3799, 4487.959
460.8620, 4516.834
461.3441, 4551.609
461.8262, 4594.918
462.3083, 4642.778
462.7905, 4691.321
463.2726, 4739.727
463.7547, 4787.264
464.2368, 4831.247
464.7189, 4868.497
465.2010, 4929.895
465.6832, 5038.898
466.1653, 5144.875
466.6474, 5224.399
467.1295, 5291.056
467.6116, 5369.129
468.0938, 5469.994
468.5759, 5588.907
469.0580, 5715.459
469.5401, 5852.068
470.0222, 5990.599
470.5043, 6128.027
470.9865, 6267.565
471.4686, 6415.783
471.9507, 6570.952
472.4328, 6721.023
472.9149, 6861.524
473.3970, 6989.642
473.8792, 7090.731
474.3613, 7156.352
474.8434, 7218.056
475.3255, 7292.167
475.8076, 7377.662
476.2897, 7474.977
476.7719, 7589.543
477.2540, 7709.116
477.7361, 7823.331
478.2182, 7935.535
478.7003, 8051.131
479.1824, 8167.321
479.6646, 8302.866
480.1467, 8491.642
480.6288, 8757.659
481.1109, 9003.673
481.5930, 9188.198
482.0751, 9378.785
482.5573, 9625.255
483.0394, 9925.952
483.5215, 10251.22
484.0036, 10580.24
484.4857, 10915.49
484.9678, 11274.10
485.4500, 11675.35
485.9321, 12075.24
486.4142, 12467.58
486.8963, 12854.59
487.3784, 13253.75
487.8605, 13662.97
488.3427, 14037.55
488.8248, 14340.33
489.3069, 14572.22
489.7890, 14693.83
490.2711, 14686.38
490.7532, 14582.49
491.2354, 14419.46
491.7175, 14187.04
492.1996, 13855.28
492.6817, 13389.40
493.1638, 12845.35
493.6459, 12265.25
494.1281, 11651.61
494.6102, 11053.83
495.0923, 10484.56
495.5744, 9947.609
496.0565, 9451.367
496.5386, 8991.305
497.0208, 8565.054
497.5029, 8175.947
497.9850, 7817.682
498.4671, 7481.298
498.9492, 7168.025
499.4313, 6888.475
499.9135, 6654.339
500.3956, 6464.121
500.8777, 6286.525
501.3598, 6118.537
501.8419, 5968.021
502.3240, 5840.887
502.8062, 5730.746
503.2883, 5631.122
503.7704, 5539.971
504.2525, 5456.026
504.7346, 5374.738
505.2167, 5294.707
505.6989, 5230.704
506.1810, 5187.061
506.6631, 5156.483
507.1452, 5139.058
507.6273, 5130.999
508.1094, 5123.607
508.5916, 5109.821
509.0737, 5099.149
509.5558, 5109.458
510.0379, 5139.782
510.5200, 5162.354
511.0021, 5163.956
511.4843, 5157.612
511.9664, 5157.508
512.4485, 5159.179
512.9306, 5189.260
513.4127, 5272.645
513.8948, 5375.690
514.3770, 5465.376
514.8591, 5540.744
515.3412, 5617.325
515.8233, 5705.318
516.3054, 5804.431
516.7875, 5910.359
517.2697, 6016.418
517.7518, 6139.038
518.2339, 6286.779
518.7160, 6448.443
519.1981, 6608.332
519.6802, 6766.348
520.1624, 6941.028
520.6445, 7160.453
521.1266, 7426.114
521.6087, 7672.496
522.0908, 7869.939
522.5729, 8090.957
523.0551, 8374.842
523.5372, 8697.483
524.0193, 9019.337
524.5014, 9326.860
524.9835, 9636.887
525.4656, 9966.399
525.9478, 10312.45
526.4299, 10670.61
526.9120, 11042.96
527.3941, 11414.45
527.8762, 11770.47
528.3583, 12111.21
528.8405, 12425.99
529.3226, 12753.32
529.8047, 13020.73
530.2868, 13181.16
530.7689, 13242.87
531.2510, 13239.02
531.7332, 13187.45
532.2153, 13074.25
532.6974, 12861.84
533.1795, 12510.19
533.6616, 12126.26
534.1437, 11711.67
534.6259, 11271.09
535.1080, 10800.06
535.5901, 10304.12
536.0722, 9804.319
536.5543, 9308.757
537.0364, 8825.335
537.5186, 8388.908
538.0007, 8004.966
538.4828, 7641.867
538.9649, 7284.220
539.4470, 6946.750
539.9291, 6646.501
540.4113, 6385.226
540.8934, 6158.955
541.3755, 5981.507
541.8576, 5832.706
542.3397, 5679.855
542.8218, 5519.735
543.3040, 5375.794
543.7861, 5267.479
544.2682, 5190.943
544.7503, 5114.295
545.2324, 5013.225
545.7145, 4941.908
546.1967, 4940.869
546.6788, 4959.842
547.1609, 4942.306
547.6430, 4877.681
548.1251, 4797.556
548.6072, 4733.676
549.0894, 4686.076
549.5715, 4652.828
550.0536, 4639.932
550.5357, 4633.499
551.0178, 4627.579
551.4999, 4624.311
551.9821, 4627.245
552.4642, 4638.294
552.9463, 4652.040
553.4284, 4660.527
553.9105, 4666.903
554.3926, 4684.731
554.8748, 4718.002
555.3569, 4758.091
555.8390, 4802.560
556.3211, 4850.258
556.8032, 4875.593
557.2853, 4858.868
557.7675, 4839.926
558.2496, 4839.750
558.7317, 4849.454
559.2138, 4855.150
559.6959, 4851.570
560.1780, 4837.526
560.6602, 4809.607
561.1423, 4763.676
561.6244, 4720.984
562.1065, 4691.797
562.5886, 4655.976
563.0707, 4600.336
563.5529, 4534.073
564.0350, 4474.688
564.5171, 4432.008
564.9992, 4392.765
565.4813, 4330.086
565.9634, 4246.983
566.4456, 4197.307
566.9277, 4206.661
567.4098, 4228.544
567.8919, 4210.936
568.3740, 4158.316
568.8561, 4107.254
569.3383, 4058.013
569.8204, 4016.270
570.3025, 3987.623
570.7846, 3969.026
571.2667, 3953.416
571.7488, 3937.883
572.2310, 3924.023
572.7131, 3915.393
573.1952, 3914.667
573.6773, 3911.889
574.1594, 3902.994
574.6415, 3896.184
575.1237, 3899.565
575.6058, 3907.323
576.0879, 3905.795
576.5700, 3885.556
577.0521, 3860.538
577.5342, 3853.433
578.0164, 3864.373
578.4985, 3876.496
578.9806, 3887.393
579.4627, 3896.019
579.9448, 3897.540
580.4269, 3893.292
580.9091, 3898.707
581.3912, 3922.983
581.8733, 3952.127
582.3554, 3976.110
582.8375, 3997.259
583.3196, 4021.641
583.8018, 4051.484
584.2839, 4088.454
584.7660, 4137.121
585.2481, 4205.295
585.7302, 4262.282
586.2123, 4298.582
586.6945, 4334.134
587.1766, 4370.441
587.6587, 4413.327
588.1408, 4473.010
588.6229, 4555.508
589.1050, 4652.356
589.5872, 4753.646
590.0693, 4859.802
590.5514, 4967.346
591.0335, 5078.709
591.5156, 5186.345
591.9977, 5277.420
592.4799, 5355.049
592.9620, 5443.733
593.4441, 5557.718
593.9262, 5672.415
594.4083, 5776.661
594.8904, 5870.521
595.3726, 5954.611
595.8547, 6029.041
596.3368, 6090.064
596.8189, 6133.650
597.3010, 6163.205
597.7831, 6159.019
598.2653, 6103.536
598.7474, 6030.365
599.2295, 5948.952
599.7116, 5856.987
600.1937, 5745.043
600.6758, 5606.972
601.1580, 5467.787
601.6401, 5352.459
602.1222, 5258.983
602.6043, 5180.458
603.0864, 5119.101
603.5685, 5060.154
604.0507, 4991.777
604.5328, 4914.675
605.0149, 4836.819
605.4970, 4751.215
605.9791, 4672.942
606.4612, 4606.198
606.9434, 4550.539
607.4255, 4509.167
607.9076, 4480.948
608.3897, 4452.717
608.8718, 4407.144
609.3539, 4345.077
609.8361, 4309.052
610.3182, 4313.412
610.8003, 4320.237
611.2824, 4320.155
611.7645, 4314.532
612.2466, 4301.479
612.7288, 4279.760
613.2109, 4264.660
613.6930, 4269.865
614.1751, 4287.332
614.6572, 4303.261
615.1393, 4316.427
615.6215, 4328.308
616.1036, 4338.689
616.5857, 4349.544
617.0678, 4368.448
617.5499, 4403.261
618.0320, 4435.102
618.5142, 4460.050
618.9963, 4484.220
619.4784, 4515.142
619.9605, 4550.373
620.4426, 4578.473
620.9247, 4588.177
621.4069, 4590.066
621.8890, 4615.324
622.3711, 4668.725
622.8532, 4718.344
623.3353, 4763.388
623.8174, 4793.488
624.2996, 4792.292
624.7817, 4762.254
625.2638, 4741.577
625.7459, 4757.682
626.2280, 4771.924
626.7101, 4756.079
627.1923, 4713.745
627.6744, 4650.928
628.1565, 4569.894
628.6386, 4487.765
629.1207, 4435.581
629.6028, 4424.437
630.0850, 4398.457
630.5671, 4343.338
631.0492, 4287.630
631.5313, 4240.372
632.0134, 4198.369
632.4955, 4155.877
632.9777, 4110.869
633.4598, 4066.541
633.9419, 4021.185
634.4240, 3978.915
634.9061, 3959.538
635.3882, 3969.126
635.8704, 3973.364
636.3525, 3943.843
636.8346, 3886.796
637.3167, 3842.311
637.7988, 3807.914
638.2809, 3787.575
638.7631, 3789.028
639.2452, 3800.179
639.7273, 3812.855
640.2094, 3824.388
640.6915, 3832.554
641.1736, 3835.582
641.6558, 3834.018
642.1379, 3827.150
642.6200, 3811.494
643.1021, 3806.660
643.5842, 3827.394
644.0663, 3852.815
644.5485, 3859.063
645.0306, 3846.730
645.5127, 3836.756
645.9948, 3843.386
646.4769, 3847.249
646.9590, 3822.721
647.4412, 3783.322
647.9233, 3767.313
648.4054, 3789.742
648.8875, 3825.870
649.3696, 3838.767
649.8517, 3824.484
650.3339, 3806.241
650.8160, 3776.467
651.2981, 3752.014
651.7802, 3742.577
652.2623, 3739.914
652.7444, 3731.327
653.2266, 3712.535
653.7087, 3694.712
654.1908, 3687.749
654.6729, 3687.707
655.1550, 3687.527
655.6371, 3686.352
656.1193, 3679.913
656.6014, 3663.358
657.0835, 3641.097
657.5656, 3630.151
658.0477, 3651.089
658.5298, 3654.917
659.0120, 3622.699
659.4941, 3588.900
659.9762, 3579.580
660.4583, 3590.098
660.9404, 3598.742
661.4225, 3591.631
661.9047, 3579.418
662.3868, 3583.314
662.8689, 3602.605
663.3510, 3614.809
663.8331, 3615.298
664.3152, 3606.534
664.7974, 3583.881
665.2795, 3549.354
665.7616, 3537.236
666.2437, 3567.218
666.7258, 3597.661
667.2079, 3615.125
667.6901, 3623.626
668.1722, 3627.895
668.6543, 3629.255
669.1364, 3626.905
669.6185, 3617.086
670.1006, 3603.111
670.5828, 3607.099
671.0649, 3634.967
671.5470, 3661.126
672.0291, 3673.839
672.5112, 3683.870
672.9933, 3705.722
673.4755, 3739.958
673.9576, 3768.207
674.4397, 3786.880
674.9218, 3796.145
675.4039, 3783.083
675.8860, 3761.836
676.3682, 3766.994
676.8503, 3811.714
677.3324, 3875.943
677.8145, 3931.844
678.2966, 3979.066
678.7787, 4020.642
679.2609, 4052.854
679.7430, 4084.559
680.2251, 4109.996
680.7072, 4140.881
681.1893, 4194.806
681.6714, 4277.109
682.1536, 4364.255
682.6357, 4440.595
683.1178, 4515.014
683.5999, 4599.470
684.0820, 4693.926
684.5641, 4789.895
685.0463, 4882.792
685.5284, 4976.201
686.0105, 5077.617
686.4926, 5187.099
686.9747, 5304.190
687.4568, 5439.789
687.9390, 5572.782
688.4211, 5688.518
688.9032, 5796.569
689.3853, 5915.552
689.8674, 6055.090
690.3495, 6196.186
690.8317, 6334.752
691.3138, 6460.832
691.7959, 6547.519
692.2780, 6591.884
692.7601, 6624.568
693.2422, 6671.278
693.7244, 6717.290
694.2065, 6703.681
694.6886, 6598.708
695.1707, 6483.406
695.6528, 6370.750
696.1349, 6240.052
696.6171, 6067.729
697.0992, 5866.381
697.5813, 5673.527
698.0634, 5508.477
698.5455, 5352.811
699.0276, 5178.083
699.5098, 4994.330
699.9919, 4838.826
700.4740, 4720.088
700.9561, 4616.386
701.4382, 4509.824
701.9203, 4402.365
702.4025, 4309.718
702.8846, 4244.136
703.3667, 4177.364
703.8488, 4095.517
704.3309, 4021.418
704.8130, 3976.449
705.2952, 3955.832
705.7773, 3934.955
706.2594, 3897.977
706.7415, 3857.211
707.2236, 3831.428
707.7057, 3818.244
708.1879, 3801.329
708.6700, 3775.188
709.1521, 3755.651
709.6342, 3760.673
710.1163, 3788.710
710.5984, 3803.114
711.0806, 3793.195
711.5627, 3784.499
712.0448, 3780.199
712.5269, 3778.990
713.0090, 3777.808
713.4911, 3777.954
713.9733, 3786.314
714.4554, 3812.504
714.9375, 3843.002
715.4196, 3853.448
715.9017, 3846.344
716.3839, 3842.334
716.8660, 3847.507
717.3481, 3853.237
717.8302, 3851.047
718.3123, 3840.959
718.7944, 3829.577
719.2766, 3817.271
719.7587, 3803.249
720.2408, 3786.027
720.7229, 3767.896
721.2050, 3750.288
721.6871, 3733.689
722.1693, 3719.263
722.6514, 3711.588
723.1335, 3702.413
723.6156, 3667.336
724.0977, 3612.950
724.5798, 3592.940
725.0620, 3626.973
725.5441, 3670.566
726.0262, 3675.838
726.5083, 3642.832
726.9904, 3630.377
727.4725, 3666.097
727.9547, 3685.760
728.4368, 3662.763
728.9189, 3631.131
729.4010, 3624.250
729.8831, 3640.700
730.3652, 3652.242
730.8474, 3636.699
731.3295, 3612.333
731.8116, 3609.178
732.2937, 3622.216
732.7758, 3625.025
733.2579, 3610.108
733.7401, 3589.946
734.2222, 3576.296
734.7043, 3569.038
735.1864, 3563.477
735.6685, 3572.712
736.1506, 3565.757
736.6328, 3518.667
737.1149, 3469.981
737.5970, 3454.245
738.0791, 3467.845
738.5612, 3479.773
739.0433, 3471.172
739.5255, 3457.090
740.0076, 3459.156
740.4897, 3470.159
740.9718, 3462.238
741.4539, 3428.904
741.9360, 3399.454
742.4182, 3402.110
742.9003, 3432.331
743.3824, 3450.615
743.8645, 3452.969
744.3466, 3449.898
744.8287, 3440.172
745.3109, 3427.995
745.7930, 3412.565
746.2751, 3396.639
746.7572, 3389.560
747.2393, 3401.458
747.7214, 3413.474
748.2036, 3409.912
748.6857, 3395.430
749.1678, 3375.379
749.6499, 3352.113
750.1320, 3335.388
750.6141, 3333.097
751.0963, 3342.392
751.5784, 3353.869
752.0605, 3373.080
752.5426, 3378.221
753.0247, 3352.594
753.5068, 3327.052
753.9890, 3322.455
754.4711, 3332.565
754.9532, 3340.142
755.4353, 3341.418
755.9174, 3339.982
756.3995, 3337.529
756.8817, 3333.453
757.3638, 3324.581
757.8459, 3312.677
758.3280, 3306.226
758.8101, 3311.161
759.2922, 3320.985
759.7744, 3319.781
760.2565, 3305.622
760.7386, 3301.830
761.2207, 3319.095
761.7028, 3329.881
762.1849, 3311.060
762.6671, 3274.290
763.1492, 3249.877
763.6313, 3242.771
764.1134, 3237.908
764.5955, 3230.338
765.0776, 3225.091
765.5598, 3229.145
766.0419, 3238.240
766.5240, 3241.296
767.0061, 3233.354
767.4882, 3223.523
767.9703, 3225.583
768.4525, 3236.682
768.9346, 3240.840
769.4167, 3236.746
769.8988, 3228.894
770.3809, 3218.342
770.8630, 3206.857
771.3452, 3197.915
771.8273, 3192.150
772.3094, 3187.238
772.7915, 3179.291
773.2736, 3176.459
773.7557, 3190.124
774.2379, 3207.169
774.7200, 3207.054
775.2021, 3185.864
775.6842, 3165.928
776.1663, 3164.614
776.6484, 3174.533
777.1306, 3187.436
777.6127, 3201.571
778.0948, 3211.346
778.5769, 3215.102
779.0590, 3207.609
779.5411, 3177.269
780.0233, 3122.830
780.5054, 3105.352
780.9875, 3154.510
781.4696, 3191.834
781.9517, 3189.451
782.4338, 3175.140
782.9160, 3170.131
783.3981, 3174.569
783.8802, 3178.170
784.3623, 3179.354
784.8444, 3176.661
785.3265, 3166.633
785.8087, 3153.169
786.2908, 3140.671
786.7729, 3130.793
787.2550, 3126.497
787.7371, 3131.439
788.2192, 3141.022
788.7014, 3140.946
789.1835, 3130.017
789.6656, 3120.990
790.1477, 3115.704
790.6298, 3113.467
791.1119, 3115.848
791.5941, 3121.030
792.0762, 3120.679
792.5583, 3110.896
793.0404, 3101.972
793.5225, 3092.929
794.0046, 3087.484
794.4868, 3090.945
794.9689, 3099.784
795.4510, 3106.207
795.9331, 3106.977
796.4152, 3104.393
796.8973, 3097.950
797.3795, 3090.570
797.8616, 3091.249
798.3437, 3100.099
798.8258, 3107.878
799.3079, 3109.837
799.7900, 3108.882
800.2722, 3110.553
800.7543, 3116.176
801.2364, 3118.156
801.7185, 3112.881
802.2006, 3108.860
802.6827, 3107.473
803.1649, 3109.366
803.6470, 3118.067
804.1291, 3133.813
804.6112, 3142.503
805.0933, 3134.907
805.5754, 3122.259
806.0576, 3108.200
806.5397, 3096.624
807.0218, 3096.055
807.5039, 3106.987
807.9860, 3118.692
808.4681, 3122.175
808.9503, 3118.573
809.4324, 3108.399
809.9145, 3090.733
810.3966, 3083.827
810.8787, 3094.444
811.3608, 3109.663
811.8430, 3118.962
812.3251, 3123.082
812.8072, 3127.896
813.2893, 3142.252
813.7714, 3144.605
814.2535, 3121.453
814.7357, 3096.635
815.2178, 3083.643
815.6999, 3081.846
816.1820, 3087.934
816.6641, 3102.418
817.1462, 3116.542
817.6284, 3121.261
818.1105, 3122.011
818.5926, 3129.151
819.0747, 3141.732
819.5568, 3150.705
820.0389, 3151.742
820.5211, 3149.121
821.0032, 3151.428
821.4853, 3159.750
821.9674, 3150.914
822.4495, 3112.652
822.9316, 3088.706
823.4138, 3101.662
823.8959, 3131.766
824.3780, 3156.932
824.8601, 3177.514
825.3422, 3188.953
825.8243, 3184.978
826.3065, 3178.650
826.7886, 3171.938
827.2707, 3167.440
827.7528, 3168.280
828.2349, 3174.192
828.7170, 3181.829
829.1992, 3188.773
829.6813, 3197.104
830.1633, 3212.802
830.6454, 3232.276
831.1276, 3241.181
831.6097, 3237.805
832.0918, 3236.955
832.5739, 3249.869
833.0560, 3269.432
833.5381, 3274.610
834.0203, 3259.208
834.5024, 3250.937
834.9845, 3255.437
835.4666, 3260.230
835.9487, 3260.580
836.4308, 3256.832
836.9130, 3246.703
837.3951, 3227.031
837.8772, 3217.986
838.3593, 3234.096
838.8414, 3252.429
839.3235, 3261.452
839.8057, 3262.611
840.2878, 3259.043
840.7699, 3251.579
841.2520, 3239.355
841.7341, 3217.768
842.2162, 3194.139
842.6984, 3181.801
843.1805, 3179.692
843.6626, 3186.046
844.1447, 3200.864
844.6268, 3209.960
845.1089, 3199.677
845.5911, 3175.299
846.0732, 3160.254
846.5553, 3154.543
847.0374, 3159.115
847.5195, 3187.202
848.0016, 3209.595
848.4838, 3204.616
848.9659, 3183.735
849.4480, 3167.895
849.9301, 3157.952
850.4122, 3155.628
850.8943, 3167.291
851.3765, 3181.006
851.8586, 3190.234
852.3407, 3195.103
852.8228, 3195.696
853.3049, 3192.466
853.7870, 3189.257
854.2692, 3189.239
854.7513, 3191.573
855.2334, 3197.025
855.7155, 3204.010
856.1976, 3203.642
856.6797, 3193.452
857.1619, 3181.320
857.6440, 3174.963
858.1261, 3172.358
858.6082, 3160.137
859.0903, 3130.050
859.5724, 3117.243
860.0546, 3132.417
860.5367, 3157.199
861.0188, 3191.976
861.5009, 3225.401
861.9830, 3225.427
862.4651, 3167.242
862.9473, 3135.474
863.4294, 3177.025
863.9115, 3217.590
864.3936, 3204.257
864.8757, 3163.056
865.3578, 3139.109
865.8400, 3143.583
866.3221, 3155.025
866.8042, 3158.824
867.2863, 3159.603
867.7684, 3164.458
868.2505, 3171.662
868.7327, 3176.706
869.2148, 3178.250
869.6969, 3174.292
870.1790, 3161.780
870.6611, 3144.496
871.1432, 3136.495
871.6254, 3139.061
872.1075, 3140.492
872.5896, 3138.765
873.0717, 3136.550
873.5538, 3133.129
874.0359, 3131.597
874.5181, 3141.359
875.0002, 3172.655
875.4823, 3192.598
875.9644, 3194.320
876.4465, 3192.224
876.9286, 3190.523
877.4108, 3189.228
877.8929, 3188.434
878.3750, 3188.021
878.8571, 3186.021
879.3392, 3181.707
879.8214, 3175.221
880.3035, 3161.375
880.7856, 3147.701
881.2677, 3150.518
881.7498, 3168.715
882.2319, 3181.725
882.7141, 3174.045
883.1962, 3158.316
883.6783, 3158.152
884.1604, 3171.135
884.6425, 3182.458
885.1246, 3190.583
885.6068, 3195.254
886.0889, 3196.259
886.5710, 3193.861
887.0531, 3187.216
887.5352, 3173.653
888.0173, 3172.165
888.4995, 3194.129
888.9816, 3208.670
889.4637, 3199.600
889.9458, 3183.884
890.4279, 3176.792
890.9100, 3178.219
891.3922, 3183.968
891.8743, 3202.985
892.3564, 3213.851
892.8385, 3204.173
893.3206, 3188.216
893.8027, 3176.605
894.2849, 3169.919
894.7670, 3165.144
895.2491, 3160.610
895.7312, 3160.231
896.2133, 3173.618
896.6954, 3189.643
897.1776, 3190.951
897.6597, 3178.915
898.1418, 3158.541
898.6239, 3132.332
899.1060, 3113.324
899.5881, 3117.683
900.0703, 3140.673
900.5524, 3164.083
901.0345, 3188.530
901.5166, 3196.908
901.9987, 3181.660
902.4808, 3163.850
902.9630, 3161.539
903.4451, 3170.025
903.9272, 3169.439
904.4093, 3153.234
904.8914, 3141.653
905.3735, 3137.919
905.8557, 3135.744
906.3378, 3130.445
906.8199, 3126.064
907.3020, 3129.947
907.7841, 3143.801
908.2662, 3154.047
908.7484, 3153.904
909.2305, 3153.599
909.7126, 3162.991
910.1947, 3171.913
910.6768, 3164.250
911.1589, 3142.716
911.6411, 3126.858
912.1232, 3126.517
912.6053, 3137.121
913.0874, 3163.051
913.5695, 3192.727
914.0516, 3204.448
914.5338, 3198.988
915.0159, 3190.280
915.4980, 3184.802
915.9801, 3179.015
916.4622, 3166.281
916.9443, 3148.428
917.4265, 3137.308
917.9086, 3133.021
918.3907, 3135.242
918.8728, 3145.397
919.3549, 3155.683
919.8370, 3157.509
920.3192, 3153.018
920.8013, 3157.663
921.2834, 3180.394
921.7655, 3190.137
922.2476, 3171.525
922.7297, 3155.868
923.2119, 3163.946
923.6940, 3185.175
924.1761, 3204.256
924.6582, 3224.054
925.1403, 3226.845
925.6224, 3190.427
926.1046, 3159.807
926.5867, 3159.141
927.0688, 3171.059
927.5509, 3175.298
928.0330, 3171.183
928.5151, 3172.062
928.9973, 3190.794
929.4794, 3204.826
929.9615, 3188.910
930.4436, 3164.394
930.9257, 3158.027
931.4078, 3169.045
931.8900, 3187.635
932.3721, 3209.518
932.8542, 3226.283
933.3363, 3223.939
933.8184, 3210.580
934.3005, 3205.666
934.7827, 3209.346
935.2648, 3224.019
935.7469, 3250.364
936.2290, 3272.146
936.7111, 3274.076
937.1932, 3261.331
937.6754, 3250.692
938.1575, 3241.647
938.6396, 3239.250
939.1217, 3244.086
939.6038, 3256.339
940.0859, 3279.836
940.5681, 3306.421
941.0502, 3321.060
941.5323, 3322.163
942.0144, 3319.390
942.4965, 3302.195
942.9786, 3296.348
943.4608, 3319.999
943.9429, 3346.372
944.4250, 3348.182
944.9071, 3332.411
945.3892, 3332.954
945.8713, 3366.174
946.3535, 3396.155
946.8356, 3418.644
947.3177, 3430.047
947.7998, 3415.128
948.2819, 3392.276
948.7640, 3393.044
949.2462, 3424.512
949.7283, 3462.865
950.2104, 3503.663
950.6925, 3536.200
951.1746, 3545.443
951.6567, 3542.404
952.1389, 3540.043
952.6210, 3543.541
953.1031, 3563.161
953.5852, 3607.760
954.0673, 3655.313
954.5494, 3671.559
955.0316, 3668.913
955.5137, 3681.177
955.9958, 3708.161
956.4779, 3733.083
956.9600, 3749.729
957.4421, 3765.927
957.9243, 3789.556
958.4064, 3820.661
958.8885, 3863.605
959.3706, 3919.566
959.8527, 3956.963
960.3348, 3963.653
960.8170, 3986.695
961.2991, 4063.775
961.7812, 4166.844
962.2633, 4226.509
962.7454, 4227.564
963.2275, 4255.590
963.7097, 4322.675
964.1918, 4393.431
964.6739, 4456.399
965.1560, 4518.826
965.6381, 4584.259
966.1202, 4653.925
966.6024, 4740.003
967.0845, 4864.364
967.5666, 4972.917
968.0487, 5043.207
968.5308, 5113.585
969.0129, 5206.957
969.4951, 5313.577
969.9772, 5418.107
970.4593, 5517.449
970.9414, 5616.790
971.4235, 5723.299
971.9056, 5823.109
972.3878, 5904.911
972.8699, 5978.881
973.3520, 6058.907
973.8341, 6142.856
974.3162, 6220.475
974.7983, 6291.685
975.2805, 6340.752
975.7626, 6350.664
976.2447, 6335.840
976.7268, 6311.119
977.2089, 6276.373
977.6910, 6227.382
978.1732, 6163.490
978.6553, 6090.713
979.1374, 6014.864
979.6195, 5930.967
980.1016, 5829.668
980.5837, 5713.666
981.0659, 5586.586
981.5480, 5451.361
982.0301, 5324.617
982.5122, 5214.410
982.9943, 5115.308
983.4764, 5022.616
983.9586, 4934.804
984.4407, 4837.897
984.9228, 4731.710
985.4049, 4650.691
985.8870, 4605.535
986.3691, 4567.677
986.8513, 4514.097
987.3334, 4449.257
987.8155, 4384.849
988.2976, 4320.378
988.7797, 4259.883
989.2618, 4203.542
989.7440, 4150.064
990.2261, 4098.425
990.7082, 4049.510
991.1903, 4003.166
991.6724, 3959.552
992.1545, 3926.777
992.6367, 3913.747
993.1188, 3893.228
993.6009, 3855.407
994.0830, 3817.775
994.5651, 3790.781
995.0472, 3771.026
995.5294, 3751.866
996.0115, 3733.501
996.4936, 3715.041
996.9757, 3694.242
997.4578, 3676.343
997.9399, 3669.292
998.4221, 3660.335
998.9042, 3630.742
999.3863, 3589.349
999.8684, 3569.893
1000.351, 3590.441
1000.833, 3604.450
1001.315, 3593.691
1001.797, 3578.525
1002.279, 3565.838
1002.761, 3559.147
1003.243, 3566.597
1003.725, 3586.237
1004.207, 3596.952
1004.690, 3579.984
1005.172, 3565.595
1005.654, 3572.206
1006.136, 3589.231
1006.618, 3608.761
1007.100, 3629.003
1007.582, 3650.000
1008.064, 3671.546
1008.547, 3689.276
1009.029, 3692.433
1009.511, 3697.004
1009.993, 3725.651
1010.475, 3764.234
1010.957, 3783.205
1011.439, 3786.531
1011.921, 3807.883
1012.403, 3865.175
1012.886, 3933.898
1013.368, 3990.302
1013.850, 4037.916
1014.332, 4079.669
1014.814, 4118.973
1015.296, 4165.392
1015.778, 4221.009
1016.260, 4283.767
1016.742, 4353.655
1017.225, 4423.541
1017.707, 4479.959
1018.189, 4525.663
1018.671, 4570.057
1019.153, 4613.850
1019.635, 4660.637
1020.117, 4711.757
1020.599, 4755.719
1021.082, 4780.347
1021.564, 4789.543
1022.046, 4798.267
1022.528, 4805.505
1023.010, 4795.147
1023.492, 4764.871
1023.974, 4723.668
1024.456, 4675.123
1024.938, 4622.592
1025.421, 4572.081
1025.903, 4522.483
1026.385, 4454.677
1026.867, 4365.345
1027.349, 4290.138
1027.831, 4237.224
1028.313, 4193.268
1028.795, 4150.855
1029.278, 4108.195
1029.760, 4061.447
1030.242, 4009.830
1030.724, 3956.390
1031.206, 3896.424
1031.688, 3852.759
1032.170, 3836.475
1032.652, 3828.313
1033.135, 3812.810
1033.617, 3791.626
1034.099, 3769.978
1034.581, 3744.030
1035.063, 3729.907
1035.545, 3734.526
1036.027, 3737.436
1036.509, 3731.952
1036.991, 3720.524
1037.474, 3701.812
1037.956, 3677.911
1038.438, 3670.876
1038.920, 3690.985
1039.402, 3708.172
1039.884, 3721.315
1040.366, 3731.059
1040.848, 3738.616
1041.330, 3742.261
1041.813, 3736.504
1042.295, 3720.346
1042.777, 3716.468
1043.259, 3735.488
1043.741, 3751.065
1044.223, 3761.835
1044.705, 3767.499
1045.187, 3771.520
1045.670, 3768.871
1046.152, 3746.519
1046.634, 3699.563
1047.116, 3667.692
1047.598, 3663.293
1048.080, 3661.706
1048.562, 3664.865
1049.044, 3661.942
1049.526, 3639.672
1050.009, 3606.823
1050.491, 3585.549
1050.973, 3583.301
1051.455, 3569.218
1051.937, 3522.759
1052.419, 3483.305
1052.901, 3471.646
1053.383, 3466.911
1053.865, 3450.599
1054.348, 3425.066
1054.830, 3400.868
1055.312, 3378.406
1055.794, 3362.200
1056.276, 3361.088
1056.758, 3357.307
1057.240, 3337.221
1057.722, 3314.133
1058.205, 3307.591
1058.687, 3312.377
1059.169, 3299.775
1059.651, 3250.686
1060.133, 3213.143
1060.615, 3210.880
1061.097, 3214.979
1061.579, 3209.050
1062.062, 3199.332
1062.544, 3197.103
1063.026, 3201.098
1063.508, 3196.718
1063.990, 3176.042
1064.472, 3152.728
1064.954, 3118.898
1065.436, 3097.643
1065.918, 3120.820
1066.401, 3158.324
1066.883, 3162.696
1067.365, 3131.152
1067.847, 3104.863
1068.329, 3102.977
1068.811, 3102.640
1069.293, 3093.906
1069.775, 3082.968
1070.257, 3071.944
1070.740, 3063.337
1071.222, 3061.963
1071.704, 3067.937
1072.186, 3072.187
1072.668, 3071.924
1073.150, 3067.850
1073.632, 3055.500
1074.114, 3043.834
1074.597, 3041.368
1075.079, 3045.031
1075.561, 3049.969
1076.043, 3054.789
1076.525, 3054.169
1077.007, 3040.628
1077.489, 3027.628
1077.971, 3024.306
1078.453, 3022.394
1078.936, 3012.782
1079.418, 2999.137
1079.900, 2989.371
1080.382, 2985.335
1080.864, 2985.669
1081.346, 2998.453
1081.828, 3004.716
1082.310, 2986.352
1082.792, 2963.675
1083.275, 2956.235
1083.757, 2960.196
1084.239, 2964.006
1084.721, 2964.873
1085.203, 2965.087
1085.685, 2967.839
1086.167, 2967.484
1086.649, 2953.653
1087.131, 2941.463
1087.614, 2950.553
1088.096, 2972.045
1088.578, 2981.584
1089.060, 2972.400
1089.542, 2964.949
1090.024, 2969.698
1090.506, 2975.623
1090.988, 2979.730
1091.471, 2980.117
1091.953, 2971.571
1092.435, 2958.682
1092.917, 2953.145
1093.399, 2958.560
1093.881, 2962.620
1094.363, 2958.468
1094.845, 2954.774
1095.328, 2953.636
1095.810, 2956.588
1096.292, 2968.252
1096.774, 2984.403
1097.256, 2995.372
1097.738, 2999.082
1098.220, 2997.914
1098.702, 2984.012
1099.184, 2976.294
1099.667, 2991.795
1100.149, 3009.447
1100.631, 3005.070
1101.113, 2988.462
1101.595, 2989.778
1102.077, 3019.934
1102.559, 3034.354
1103.041, 2998.251
1103.523, 2975.375
1104.006, 3002.676
1104.488, 3040.785
1104.970, 3058.084
1105.452, 3059.222
1105.934, 3059.802
1106.416, 3061.416
1106.898, 3064.732
1107.380, 3080.341
1107.863, 3083.660
1108.345, 3051.550
1108.827, 3019.008
1109.309, 3018.045
1109.791, 3036.214
1110.273, 3041.003
1110.755, 3025.993
1111.237, 3016.980
1111.719, 3015.023
1112.202, 3020.917
1112.684, 3044.281
1113.166, 3066.376
1113.648, 3073.972
1114.130, 3070.989
1114.612, 3066.600
1115.094, 3061.731
1115.576, 3051.686
1116.058, 3030.168
1116.541, 3013.035
1117.023, 3003.718
1117.505, 2998.583
1117.987, 2997.482
1118.469, 2997.949
1118.951, 2995.477
1119.433, 2990.219
1119.915, 2980.131
1120.398, 2958.112
1120.880, 2946.416
1121.362, 2952.871
1121.844, 2963.331
1122.326, 2969.941
1122.808, 2974.747
1123.290, 2981.718
1123.772, 2991.087
1124.255, 2997.495
1124.737, 3002.188
1125.219, 2997.779
1125.701, 2976.218
1126.183, 2965.651
1126.665, 2985.910
1127.147, 3017.427
1127.629, 3030.993
1128.111, 3027.092
1128.594, 3013.090
1129.076, 2986.058
1129.558, 2969.017
1130.040, 2966.421
1130.522, 2964.528
1131.004, 2955.715
1131.486, 2948.105
1131.968, 2953.486
1132.450, 2969.014
1132.933, 2980.117
1133.415, 2986.763
1133.897, 2982.552
1134.379, 2966.517
1134.861, 2959.101
1135.343, 2969.860
1135.825, 2980.739
1136.307, 2969.861
1136.790, 2947.015
1137.272, 2939.733
1137.754, 2946.245
1138.236, 2961.123
1138.718, 2981.329
1139.200, 2985.551
1139.682, 2967.165
1140.164, 2949.982
1140.646, 2957.494
1141.129, 2973.948
1141.611, 2967.111
1142.093, 2947.905
1142.575, 2946.401
1143.057, 2959.491
1143.539, 2968.852
1144.021, 2969.607
1144.503, 2967.731
1144.985, 2967.619
1145.468, 2966.024
1145.950, 2955.041
1146.432, 2942.911
1146.914, 2945.029
1147.396, 2955.201
1147.878, 2960.548
1148.360, 2957.983
1148.842, 2946.944
1149.325, 2923.891
1149.807, 2906.537
1150.289, 2917.269
1150.771, 2931.857
1151.253, 2923.406
1151.735, 2906.700
1152.217, 2904.883
1152.699, 2916.891
1153.182, 2928.539
1153.664, 2936.824
1154.146, 2934.880
1154.628, 2904.926
1155.110, 2881.219
1155.592, 2888.968
1156.074, 2907.507
1156.556, 2916.478
1157.038, 2918.578
1157.521, 2927.552
1158.003, 2948.418
1158.485, 2957.027
1158.967, 2939.953
1159.449, 2921.387
1159.931, 2903.026
1160.413, 2890.720
1160.895, 2889.319
1161.377, 2896.185
1161.860, 2908.359
1162.342, 2926.832
1162.824, 2937.739
1163.306, 2939.306
1163.788, 2936.189
1164.270, 2924.284
1164.752, 2915.543
1165.234, 2917.615
1165.717, 2923.679
1166.199, 2927.649
1166.681, 2927.917
1167.163, 2903.409
1167.645, 2838.756
1168.127, 2824.236
1168.609, 2879.864
1169.091, 2921.040
1169.573, 2914.332
1170.056, 2890.826
1170.538, 2878.932
1171.020, 2876.945
1171.502, 2880.799
1171.984, 2890.246
1172.466, 2905.563
1172.948, 2925.771
1173.430, 2928.762
1173.912, 2909.391
1174.395, 2891.508
1174.877, 2892.201
1175.359, 2901.384
1175.841, 2903.626
1176.323, 2901.624
1176.805, 2903.407
1177.287, 2907.039
1177.769, 2905.920
1178.252, 2899.567
1178.734, 2890.256
1179.216, 2878.870
1179.698, 2872.267
1180.180, 2881.170
1180.662, 2894.022
1181.144, 2900.156
1181.626, 2900.244
1182.109, 2892.571
1182.591, 2880.506
1183.073, 2871.877
1183.555, 2868.606
1184.037, 2864.994
1184.519, 2854.027
1185.001, 2847.363
1185.483, 2850.152
1185.965, 2860.296
1186.448, 2887.940
1186.930, 2915.205
1187.412, 2905.929
1187.894, 2864.435
1188.376, 2856.811
1188.858, 2940.738
1189.340, 2975.215
1189.822, 2891.899
1190.304, 2818.887
1190.787, 2810.962
1191.269, 2828.133
1191.751, 2841.309
1192.233, 2850.769
1192.715, 2857.141
1193.197, 2860.112
1193.679, 2862.524
1194.161, 2868.808
1194.644, 2857.233
1195.126, 2812.734
1195.608, 2785.017
1196.090, 2810.553
1196.572, 2857.078
1197.054, 2870.610
1197.536, 2855.559
1198.018, 2845.219
1198.500, 2839.468
1198.983, 2833.615
1199.465, 2827.226
1199.947, 2823.293
1200.429, 2823.037
1200.911, 2828.188
1201.393, 2841.647
1201.875, 2858.964
1202.357, 2873.908
1202.839, 2885.571
1203.322, 2891.878
1203.804, 2892.970
1204.286, 2886.020
1204.768, 2873.264
1205.250, 2870.394
1205.732, 2889.605
1206.214, 2905.731
1206.696, 2893.731
1207.179, 2875.183
1207.661, 2866.080
1208.143, 2864.110
1208.625, 2869.180
1209.107, 2877.140
1209.589, 2875.659
1210.071, 2859.254
1210.553, 2855.720
1211.036, 2893.161
1211.518, 2916.294
1212.000, 2894.964
1212.482, 2868.391
1212.964, 2860.307
1213.446, 2863.769
1213.928, 2868.554
1214.410, 2874.491
1214.892, 2876.796
1215.375, 2872.119
1215.857, 2873.354
1216.339, 2883.222
1216.821, 2893.568
1217.303, 2903.218
1217.785, 2906.277
1218.267, 2895.134
1218.749, 2878.578
1219.231, 2882.563
1219.714, 2904.709
1220.196, 2906.596
1220.678, 2890.166
1221.160, 2878.294
1221.642, 2876.013
1222.124, 2888.769
1222.606, 2919.935
1223.088, 2945.597
1223.571, 2930.797
1224.053, 2901.749
1224.535, 2902.488
1225.017, 2917.247
1225.499, 2917.784
1225.981, 2908.231
1226.463, 2907.180
1226.945, 2918.219
1227.427, 2929.004
1227.910, 2934.677
1228.392, 2935.694
1228.874, 2925.021
1229.356, 2917.910
1229.838, 2929.065
1230.320, 2945.908
1230.802, 2957.061
1231.284, 2960.568
1231.766, 2951.505
1232.249, 2921.024
1232.731, 2908.850
1233.213, 2932.409
1233.695, 2944.764
1234.177, 2931.280
1234.659, 2917.248
1235.141, 2914.560
1235.623, 2923.187
1236.106, 2947.514
1236.588, 2981.823
1237.070, 2982.651
1237.552, 2948.838
1238.034, 2931.111
1238.516, 2933.115
1238.998, 2954.387
1239.480, 2993.841
1239.963, 3019.106
1240.445, 3003.330
1240.927, 2973.378
1241.409, 2970.803
1241.891, 2980.560
1242.373, 2973.922
1242.855, 2958.008
1243.337, 2945.309
1243.819, 2939.672
1244.302, 2948.657
1244.784, 2974.563
1245.266, 2990.728
1245.748, 2970.076
1246.230, 2951.448
1246.712, 2959.260
1247.194, 2971.979
1247.676, 2973.994
1248.158, 2970.390
1248.641, 2968.972
1249.123, 2969.971
1249.605, 2970.869
1250.087, 2974.944
1250.569, 2969.662
1251.051, 2946.181
1251.533, 2932.868
1252.015, 2939.151
1252.498, 2951.129
1252.980, 2961.074
1253.462, 2967.193
1253.944, 2960.904
1254.426, 2949.725
1254.908, 3001.344
1255.390, 3102.420
1255.872, 3106.679
1256.354, 3017.029
1256.837, 2983.057
1257.319, 3047.630
1257.801, 3097.085
1258.283, 3038.482
1258.765, 2958.060
1259.247, 2957.683
1259.729, 2988.517
1260.211, 2996.769
1260.693, 2992.015
1261.176, 2994.603
1261.658, 3001.616
1262.140, 2991.887
1262.622, 2957.553
1263.104, 2942.189
1263.586, 2982.990
1264.068, 3010.272
1264.550, 2994.852
1265.033, 2973.187
1265.515, 2961.384
1265.997, 2956.006
1266.479, 2953.179
1266.961, 2953.485
1267.443, 2961.558
1267.925, 2981.129
1268.407, 2985.035
1268.890, 2971.831
1269.372, 2955.303
1269.854, 2938.205
1270.336, 2922.287
1270.818, 2908.082
1271.300, 2902.405
1271.782, 2918.408
1272.264, 2942.865
1272.746, 2949.338
1273.229, 2945.102
1273.711, 2942.636
1274.193, 2942.556
1274.675, 2944.811
1275.157, 2947.783
1275.639, 2942.952
1276.121, 2922.133
1276.603, 2909.294
1277.085, 2921.597
1277.568, 2937.509
1278.050, 2951.345
1278.532, 2959.346
1279.014, 2953.029
1279.496, 2941.479
1279.978, 2945.847
1280.460, 2965.685
1280.942, 2961.345
1281.425, 2920.433
1281.907, 2903.316
1282.389, 2918.751
1282.871, 2931.710
1283.353, 2931.380
1283.835, 2923.375
1284.317, 2910.779
1284.799, 2899.076
##END=



