##NAMES=Vivianite
##RRUFFID=R060025
##IDEAL CHEMISTRY=Fe^2+^_3_(PO_4_)_2_&#183;8H_2_O
##LOCALITY=Gypsy mine, Minas Gerais, Brazil
##OWNER=RRUFF
##SOURCE=Eric Van Valkenburg
##DESCRIPTION=Blue-green fragment
##STATUS=The identification of this mineral has been confirmed by X-ray diffraction.
##URL=rruff.info/R060025
117.8207, 124.1147
118.3028, 128.3668
118.7849, 132.0494
119.2670, 135.4948
119.7491, 138.7004
120.2313, 141.7075
120.7134, 144.9586
121.1955, 148.7955
121.6776, 153.0022
122.1597, 157.3248
122.6418, 161.7877
123.1240, 166.2526
123.6061, 170.3675
124.0882, 174.0577
124.5703, 178.3281
125.0524, 183.6575
125.5345, 190.0761
126.0167, 197.6145
126.4988, 206.2608
126.9809, 216.0443
127.4630, 227.4808
127.9451, 240.8506
128.4272, 254.4377
128.9093, 267.5998
129.3915, 279.7645
129.8736, 288.0843
130.3557, 290.2346
130.8378, 285.9965
131.3199, 277.0361
131.8020, 263.7330
132.2842, 249.1325
132.7663, 238.9411
133.2484, 232.9685
133.7305, 228.1987
134.2126, 222.3230
134.6947, 215.5008
135.1769, 209.6977
135.6590, 205.1894
136.1411, 201.8373
136.6232, 199.2343
137.1053, 197.3482
137.5874, 196.3347
138.0696, 196.5895
138.5517, 198.2378
139.0338, 199.7922
139.5159, 201.0046
139.9980, 201.8633
140.4801, 202.1485
140.9623, 201.4913
141.4444, 200.9061
141.9265, 201.6125
142.4086, 204.0570
142.8907, 206.4698
143.3728, 208.3646
143.8550, 209.6298
144.3371, 211.2034
144.8192, 213.1103
145.3013, 215.3006
145.7834, 217.6858
146.2655, 220.6169
146.7477, 223.2587
147.2298, 225.4247
147.7119, 227.1415
148.1940, 228.2947
148.6761, 228.7576
149.1582, 228.6927
149.6404, 228.4243
150.1225, 227.9324
150.6046, 227.2656
151.0867, 226.4399
151.5688, 225.3214
152.0509, 224.2228
152.5331, 222.9697
153.0152, 221.6934
153.4973, 220.8328
153.9794, 220.9763
154.4615, 221.1106
154.9436, 220.7958
155.4258, 219.1026
155.9079, 218.0004
156.3900, 217.7770
156.8721, 218.3332
157.3542, 219.1863
157.8363, 220.0499
158.3185, 221.2851
158.8006, 223.1228
159.2827, 225.5926
159.7648, 228.6699
160.2469, 232.5645
160.7290, 237.1992
161.2112, 241.8689
161.6933, 246.5678
162.1754, 251.1165
162.6575, 255.3659
163.1396, 259.6708
163.6217, 263.3298
164.1039, 266.2196
164.5860, 268.3292
165.0681, 269.2739
165.5502, 268.5803
166.0323, 266.7246
166.5145, 264.2439
166.9966, 261.0846
167.4787, 257.5462
167.9608, 253.6579
168.4429, 249.3996
168.9250, 245.2690
169.4071, 241.4512
169.8893, 237.9708
170.3714, 234.8510
170.8535, 231.9965
171.3356, 229.5355
171.8177, 227.5429
172.2998, 226.0117
172.7820, 225.0270
173.2641, 224.7358
173.7462, 225.0446
174.2283, 225.7431
174.7104, 226.9122
175.1925, 228.3421
175.6747, 229.6853
176.1568, 230.8260
176.6389, 232.2578
177.1210, 234.5223
177.6031, 237.4883
178.0852, 240.7551
178.5674, 244.0905
179.0495, 247.5976
179.5316, 251.5210
180.0137, 255.9463
180.4958, 260.6722
180.9779, 265.2882
181.4601, 269.9620
181.9422, 275.3918
182.4243, 282.3936
182.9064, 290.4281
183.3885, 298.3158
183.8706, 305.7402
184.3528, 313.2762
184.8349, 322.1876
185.3170, 332.2804
185.7991, 342.4782
186.2812, 352.0872
186.7633, 361.1216
187.2455, 369.6249
187.7276, 377.7144
188.2097, 385.2238
188.6918, 391.7586
189.1739, 397.2888
189.6560, 402.7880
190.1382, 408.9334
190.6203, 415.6873
191.1024, 422.9509
191.5845, 430.6940
192.0666, 438.9212
192.5487, 447.5880
193.0309, 456.6102
193.5130, 466.6912
193.9951, 479.0484
194.4772, 493.5732
194.9593, 507.8113
195.4414, 521.4990
195.9236, 534.6325
196.4057, 547.1785
196.8878, 559.3867
197.3699, 569.5778
197.8520, 576.7153
198.3341, 580.8907
198.8163, 580.9363
199.2984, 576.5461
199.7805, 567.8812
200.2626, 555.2618
200.7447, 538.4162
201.2268, 518.8743
201.7090, 497.6534
202.1911, 474.5360
202.6732, 451.6722
203.1553, 429.4272
203.6374, 407.8892
204.1195, 388.3033
204.6017, 370.7305
205.0838, 354.9388
205.5659, 340.7527
206.0480, 328.1961
206.5301, 317.0601
207.0122, 307.4795
207.4944, 299.3632
207.9765, 292.3755
208.4586, 286.6852
208.9407, 281.7696
209.4228, 277.0255
209.9049, 272.2961
210.3871, 268.3302
210.8692, 265.3266
211.3513, 263.2827
211.8334, 262.0531
212.3155, 261.7545
212.7976, 262.0778
213.2798, 262.7675
213.7619, 263.9367
214.2440, 265.1142
214.7261, 266.0377
215.2082, 266.6884
215.6903, 268.2523
216.1725, 270.8228
216.6546, 274.1441
217.1367, 278.0025
217.6188, 282.5656
218.1009, 287.2490
218.5830, 291.8697
219.0651, 296.4376
219.5473, 301.4567
220.0294, 306.8638
220.5115, 312.8981
220.9936, 319.8092
221.4757, 327.8906
221.9578, 336.2924
222.4400, 344.8732
222.9221, 353.6983
223.4042, 362.7350
223.8863, 372.1558
224.3684, 381.7552
224.8505, 391.5740
225.3327, 401.8655
225.8148, 411.6916
226.2969, 420.9054
226.7790, 429.6974
227.2611, 437.0007
227.7432, 442.9028
228.2254, 447.4180
228.7075, 450.5152
229.1896, 451.9269
229.6717, 452.5240
230.1538, 452.4684
230.6359, 451.7514
231.1181, 450.3663
231.6002, 447.8009
232.0823, 445.0483
232.5644, 443.1914
233.0465, 442.2850
233.5286, 442.1063
234.0108, 442.4745
234.4929, 443.3193
234.9750, 445.6336
235.4571, 449.8820
235.9392, 455.0899
236.4213, 460.4138
236.9035, 466.3181
237.3856, 471.4445
237.8677, 475.7359
238.3498, 479.3165
238.8319, 480.9110
239.3140, 480.6890
239.7962, 478.3285
240.2783, 473.4572
240.7604, 465.8545
241.2425, 456.1009
241.7246, 443.8615
242.2067, 428.8667
242.6889, 414.3541
243.1710, 400.4425
243.6531, 386.8946
244.1352, 373.1906
244.6173, 358.7136
245.0994, 345.2466
245.5816, 333.1588
246.0637, 322.4588
246.5458, 312.5759
247.0279, 303.4812
247.5100, 295.2027
247.9921, 287.9173
248.4743, 281.8221
248.9564, 276.2049
249.4385, 270.9025
249.9206, 265.9199
250.4027, 261.4451
250.8848, 257.5233
251.3670, 254.0461
251.8491, 250.9846
252.3312, 248.3988
252.8133, 246.0339
253.2954, 243.7819
253.7775, 241.6619
254.2597, 240.0523
254.7418, 239.1594
255.2239, 238.5057
255.7060, 237.6745
256.1881, 236.4400
256.6702, 235.5728
257.1523, 235.3646
257.6345, 235.6880
258.1166, 235.3287
258.5987, 233.7791
259.0808, 232.3086
259.5629, 231.9877
260.0450, 233.4143
260.5272, 234.3380
261.0093, 234.2773
261.4914, 233.4710
261.9735, 233.2684
262.4556, 233.9087
262.9377, 234.7396
263.4199, 235.3216
263.9020, 235.5758
264.3841, 235.8346
264.8662, 236.1139
265.3483, 236.4249
265.8304, 236.7871
266.3126, 237.1268
266.7947, 237.6758
267.2768, 238.6116
267.7589, 240.0546
268.2410, 241.4892
268.7231, 242.9249
269.2053, 244.3356
269.6874, 245.6545
270.1695, 246.8862
270.6516, 248.0498
271.1337, 249.2155
271.6158, 250.4718
272.0980, 251.2530
272.5801, 251.3443
273.0622, 251.1141
273.5443, 251.5454
274.0264, 252.8691
274.5085, 253.9720
274.9907, 254.2219
275.4728, 253.5192
275.9549, 252.8294
276.4370, 252.2945
276.9191, 251.6095
277.4012, 250.1362
277.8834, 247.7722
278.3655, 245.2127
278.8476, 242.7133
279.3297, 240.2550
279.8118, 237.9556
280.2939, 235.8933
280.7761, 233.8967
281.2582, 231.7055
281.7403, 229.3063
282.2224, 226.8991
282.7045, 224.5290
283.1866, 222.2017
283.6688, 219.9769
284.1509, 217.8251
284.6330, 215.8370
285.1151, 214.1083
285.5972, 212.6354
286.0793, 211.3025
286.5615, 210.0843
287.0436, 208.9715
287.5257, 207.9192
288.0078, 206.9150
288.4899, 206.0181
288.9720, 205.3065
289.4542, 204.7679
289.9363, 204.2625
290.4184, 203.7125
290.9005, 203.1869
291.3826, 202.9015
291.8647, 202.8678
292.3469, 202.8958
292.8290, 202.7999
293.3111, 202.6135
293.7932, 202.4645
294.2753, 202.3201
294.7574, 202.2931
295.2396, 202.7189
295.7217, 203.5737
296.2038, 204.4080
296.6859, 204.5375
297.1680, 204.3481
297.6501, 205.0130
298.1323, 207.0152
298.6144, 209.4851
299.0965, 211.2261
299.5786, 212.3301
300.0607, 213.2871
300.5428, 214.2016
301.0250, 215.2397
301.5071, 216.8138
301.9892, 219.1119
302.4713, 221.5708
302.9534, 223.7467
303.4355, 225.6050
303.9177, 227.1179
304.3998, 228.0090
304.8819, 228.6122
305.3640, 229.3781
305.8461, 230.3935
306.3282, 231.3237
306.8104, 232.1225
307.2925, 232.6277
307.7746, 232.4822
308.2567, 231.0209
308.7388, 229.1424
309.2209, 227.7481
309.7031, 226.9180
310.1852, 225.9320
310.6673, 224.1830
311.1494, 221.9819
311.6315, 219.7713
312.1136, 217.4573
312.5958, 215.3659
313.0779, 213.7530
313.5600, 212.5964
314.0421, 211.5452
314.5242, 210.4661
315.0063, 209.3795
315.4885, 208.3113
315.9706, 207.2778
316.4527, 206.2324
316.9348, 205.0111
317.4169, 203.6983
317.8990, 202.6779
318.3812, 202.3642
318.8633, 202.2433
319.3454, 201.9466
319.8275, 201.1846
320.3096, 200.5796
320.7917, 200.5202
321.2739, 200.7770
321.7560, 200.7662
322.2381, 199.8713
322.7202, 199.0374
323.2023, 198.7682
323.6844, 199.4097
324.1666, 199.9203
324.6487, 200.0869
325.1308, 200.0147
325.6129, 199.8649
326.0950, 199.5135
326.5771, 199.2140
327.0593, 198.9940
327.5414, 198.8020
328.0235, 198.8983
328.5056, 199.7608
328.9877, 200.7194
329.4698, 201.0590
329.9520, 199.8146
330.4341, 199.0864
330.9162, 199.3634
331.3983, 200.6825
331.8804, 201.8894
332.3625, 203.1251
332.8447, 204.1191
333.3268, 204.6282
333.8089, 204.2251
334.2910, 204.1397
334.7731, 204.7051
335.2552, 205.7350
335.7374, 206.1207
336.2195, 205.3959
336.7016, 204.7790
337.1837, 205.0436
337.6658, 206.5226
338.1479, 207.7444
338.6301, 208.5508
339.1122, 209.1123
339.5943, 209.8182
340.0764, 210.6989
340.5585, 211.5964
341.0406, 212.3571
341.5227, 212.9615
342.0049, 213.9765
342.4870, 215.6144
342.9691, 217.2391
343.4512, 217.7494
343.9333, 217.0712
344.4154, 216.5019
344.8976, 216.6612
345.3797, 217.3184
345.8618, 217.2344
346.3439, 216.3255
346.8260, 215.2402
347.3081, 214.8134
347.7903, 214.8915
348.2724, 214.3596
348.7545, 212.7308
349.2366, 210.5408
349.7187, 208.8187
350.2008, 207.5313
350.6830, 206.4019
351.1651, 205.1915
351.6472, 203.9800
352.1293, 203.0153
352.6114, 202.4098
353.0935, 201.8994
353.5757, 201.1230
354.0578, 200.1658
354.5399, 199.3143
355.0220, 198.7548
355.5041, 198.3754
355.9862, 198.0458
356.4684, 197.7515
356.9505, 197.5448
357.4326, 197.4900
357.9147, 197.5456
358.3968, 197.6451
358.8789, 197.9309
359.3611, 198.1216
359.8432, 197.9800
360.3253, 197.5116
360.8074, 196.9808
361.2895, 196.3657
361.7716, 195.8200
362.2538, 195.4891
362.7359, 195.5610
363.2180, 195.6927
363.7001, 195.7624
364.1822, 195.7945
364.6643, 195.8715
365.1465, 196.2395
365.6286, 196.5041
366.1107, 196.4174
366.5928, 195.6879
367.0749, 195.1269
367.5570, 194.8819
368.0392, 194.8750
368.5213, 194.9707
369.0034, 195.2068
369.4855, 195.4893
369.9676, 195.8008
370.4497, 196.1402
370.9319, 196.4667
371.4140, 196.7413
371.8961, 197.0185
372.3782, 197.3696
372.8603, 197.9614
373.3424, 198.3174
373.8246, 198.2592
374.3067, 197.8570
374.7888, 197.7152
375.2709, 197.9698
375.7530, 198.2671
376.2351, 198.3791
376.7173, 198.2670
377.1994, 198.1485
377.6815, 198.0333
378.1636, 197.9344
378.6457, 197.8593
379.1278, 197.7962
379.6100, 197.8382
380.0921, 198.1105
380.5742, 198.5962
381.0563, 198.8010
381.5384, 198.6514
382.0205, 198.4902
382.5027, 198.8999
382.9848, 199.7959
383.4669, 200.3605
383.9490, 200.1770
384.4311, 199.5662
384.9132, 199.3087
385.3954, 199.3906
385.8775, 199.4515
386.3596, 199.0472
386.8417, 198.4212
387.3238, 198.0973
387.8059, 198.2399
388.2881, 198.6105
388.7702, 199.0430
389.2523, 199.5049
389.7344, 199.8959
390.2165, 200.1063
390.6986, 200.2534
391.1808, 200.4989
391.6629, 200.8901
392.1450, 201.1453
392.6271, 201.0372
393.1092, 200.6987
393.5913, 200.3056
394.0735, 199.7390
394.5556, 199.2948
395.0377, 199.0848
395.5198, 199.1132
396.0019, 199.3759
396.4840, 200.1721
396.9662, 201.0162
397.4483, 201.5766
397.9304, 201.4795
398.4125, 201.5354
398.8946, 201.9441
399.3767, 202.5872
399.8589, 203.1745
400.3410, 203.8627
400.8231, 204.3134
401.3052, 204.3428
401.7873, 203.7626
402.2694, 203.4855
402.7516, 203.6542
403.2337, 204.0173
403.7158, 204.3069
404.1979, 204.5166
404.6800, 204.6699
405.1621, 204.7779
405.6443, 204.8384
406.1264, 204.7586
406.6085, 204.4176
407.0906, 204.2590
407.5727, 204.7745
408.0548, 206.0620
408.5370, 206.7076
409.0191, 206.3706
409.5012, 205.7072
409.9833, 206.0933
410.4654, 207.5154
410.9475, 208.6660
411.4297, 208.6853
411.9118, 207.9199
412.3939, 207.5549
412.8760, 207.6090
413.3581, 207.8876
413.8402, 208.2797
414.3224, 208.7539
414.8045, 209.2425
415.2866, 209.7362
415.7687, 210.2261
416.2508, 210.7824
416.7329, 211.3611
417.2151, 211.7729
417.6972, 211.7759
418.1793, 211.6322
418.6614, 211.5644
419.1435, 211.5852
419.6256, 211.7737
420.1078, 212.2897
420.5899, 212.9749
421.0720, 213.6134
421.5541, 214.0574
422.0362, 214.4971
422.5183, 214.9633
423.0005, 215.4585
423.4826, 216.1340
423.9647, 217.3195
424.4468, 218.5122
424.9289, 219.3617
425.4110, 219.4897
425.8932, 219.7048
426.3753, 220.0006
426.8574, 220.3961
427.3395, 220.9656
427.8216, 221.8709
428.3037, 222.7119
428.7859, 223.2542
429.2680, 223.3736
429.7501, 224.1006
430.2322, 225.6890
430.7143, 227.5137
431.1964, 228.8686
431.6786, 229.6751
432.1607, 230.4031
432.6428, 231.0780
433.1249, 231.7760
433.6070, 232.7883
434.0891, 234.1421
434.5713, 235.5471
435.0534, 236.7715
435.5355, 237.8737
436.0176, 239.1969
436.4997, 240.8117
436.9818, 242.4632
437.4640, 243.7576
437.9461, 244.8313
438.4282, 246.1099
438.9103, 247.6812
439.3924, 249.6032
439.8745, 252.1053
440.3566, 255.1068
440.8387, 258.1295
441.3209, 260.8576
441.8030, 263.4362
442.2851, 265.9359
442.7672, 268.1519
443.2493, 270.7996
443.7314, 274.5209
444.2136, 278.8987
444.6957, 283.0913
445.1778, 286.8622
445.6599, 290.4075
446.1420, 293.6140
446.6241, 296.4255
447.1063, 299.7549
447.5884, 303.9798
448.0705, 308.6627
448.5526, 313.4395
449.0347, 318.3832
449.5168, 323.3612
449.9990, 328.5425
450.4811, 333.7765
450.9632, 338.5171
451.4453, 342.6463
451.9274, 346.5739
452.4095, 350.5622
452.8917, 354.5968
453.3738, 358.0508
453.8559, 360.8560
454.3380, 363.1737
454.8201, 365.3636
455.3022, 367.4212
455.7844, 368.3370
456.2665, 367.7661
456.7486, 366.0534
457.2307, 363.9342
457.7128, 361.4015
458.1949, 358.0829
458.6771, 353.4547
459.1592, 347.9418
459.6413, 342.4301
460.1234, 336.9801
460.6055, 331.5948
461.0876, 326.2711
461.5698, 320.9675
462.0519, 315.5985
462.5340, 309.9982
463.0161, 304.3976
463.4982, 298.7584
463.9803, 293.1406
464.4625, 287.8644
464.9446, 282.9366
465.4267, 278.3612
465.9088, 274.1256
466.3909, 270.1383
466.8730, 266.6180
467.3552, 263.6354
467.8373, 261.1280
468.3194, 259.0317
468.8015, 258.0578
469.2836, 256.5997
469.7657, 254.1263
470.2479, 250.7776
470.7300, 248.1705
471.2121, 246.4724
471.6942, 245.2462
472.1763, 244.3476
472.6584, 243.8966
473.1406, 243.1937
473.6227, 242.1622
474.1048, 240.9916
474.5869, 239.9088
475.0690, 238.9140
475.5511, 238.1326
476.0333, 237.6529
476.5154, 237.3943
476.9975, 237.2143
477.4796, 237.1052
477.9617, 236.8618
478.4438, 236.1723
478.9260, 235.2789
479.4081, 234.6058
479.8902, 234.2077
480.3723, 234.0478
480.8544, 234.2518
481.3365, 234.6427
481.8187, 234.9169
482.3008, 234.8224
482.7829, 234.6834
483.2650, 234.6931
483.7471, 234.8338
484.2292, 234.9489
484.7114, 234.8128
485.1935, 234.7612
485.6756, 235.0413
486.1577, 235.9993
486.6398, 236.6432
487.1219, 236.6168
487.6041, 236.3351
488.0862, 236.3238
488.5683, 236.6666
489.0504, 237.1503
489.5325, 237.8075
490.0146, 238.5941
490.4968, 239.0535
490.9789, 238.9733
491.4610, 239.1040
491.9431, 240.1346
492.4252, 242.0730
492.9073, 243.3902
493.3895, 243.9164
493.8716, 244.1006
494.3537, 244.5268
494.8358, 245.1572
495.3179, 245.7737
495.8000, 246.1852
496.2822, 246.6405
496.7643, 247.5812
497.2464, 248.9561
497.7285, 250.4129
498.2106, 251.8358
498.6927, 253.1785
499.1749, 254.4322
499.6570, 255.5988
500.1391, 256.5966
500.6212, 257.1111
501.1033, 257.5186
501.5854, 258.2701
502.0676, 259.7074
502.5497, 261.2568
503.0318, 262.8338
503.5139, 264.4257
503.9960, 265.9616
504.4781, 267.4490
504.9603, 268.9061
505.4424, 270.3042
505.9245, 271.5922
506.4066, 273.1198
506.8887, 274.9721
507.3708, 276.9564
507.8530, 278.9862
508.3351, 281.1102
508.8172, 282.7560
509.2993, 283.5571
509.7814, 284.0924
510.2635, 285.9918
510.7457, 289.2509
511.2278, 292.4043
511.7099, 294.4037
512.1920, 295.7284
512.6741, 297.6531
513.1563, 300.2189
513.6384, 302.8485
514.1205, 305.0188
514.6026, 306.9501
515.0847, 308.9997
515.5668, 311.3844
516.0490, 313.6346
516.5311, 315.2056
517.0132, 316.4456
517.4953, 318.0556
517.9774, 320.5882
518.4595, 323.2579
518.9417, 325.7632
519.4238, 328.0917
519.9059, 330.4148
520.3880, 333.0140
520.8701, 335.4250
521.3522, 337.3524
521.8344, 338.2733
522.3165, 339.8206
522.7986, 342.2955
523.2807, 345.1712
523.7628, 347.4792
524.2449, 349.1429
524.7271, 350.7808
525.2092, 352.5478
525.6913, 354.4281
526.1734, 356.5503
526.6555, 358.9259
527.1376, 361.0679
527.6198, 362.3852
528.1019, 363.2221
528.5840, 364.4346
529.0661, 366.1244
529.5482, 367.9007
530.0303, 369.3844
530.5125, 370.7139
530.9946, 372.1590
531.4767, 374.1006
531.9588, 375.7868
532.4409, 376.5587
532.9230, 376.7093
533.4052, 377.1215
533.8873, 378.4041
534.3694, 379.7049
534.8515, 380.7970
535.3336, 381.7741
535.8157, 381.8930
536.2979, 380.3174
536.7800, 378.6222
537.2621, 378.0031
537.7442, 378.9507
538.2263, 379.6987
538.7084, 380.1915
539.1906, 380.3889
539.6727, 380.1075
540.1548, 379.3033
540.6369, 378.5923
541.1190, 378.3263
541.6011, 378.2664
542.0833, 377.6432
542.5654, 376.4764
543.0475, 375.1940
543.5296, 374.1240
544.0117, 373.1301
544.4938, 372.0868
544.9760, 371.0129
545.4581, 369.5575
545.9402, 367.1198
546.4223, 364.2451
546.9044, 361.6317
547.3865, 359.7959
547.8687, 357.9432
548.3508, 355.9020
548.8329, 353.6526
549.3150, 351.1345
549.7971, 347.9772
550.2792, 344.9178
550.7614, 342.2322
551.2435, 340.0065
551.7256, 337.6019
552.2077, 334.9789
552.6898, 332.2815
553.1719, 329.5881
553.6541, 326.8854
554.1362, 324.3324
554.6183, 321.9483
555.1004, 319.6909
555.5825, 317.5229
556.0646, 315.4425
556.5468, 313.5903
557.0289, 312.0952
557.5110, 310.7816
557.9931, 309.3206
558.4752, 307.7612
558.9573, 306.4133
559.4395, 305.4221
559.9216, 304.7319
560.4037, 304.2958
560.8858, 304.1133
561.3679, 304.1443
561.8500, 304.3191
562.3322, 304.7320
562.8143, 305.4691
563.2964, 306.5479
563.7785, 307.9637
564.2606, 309.8643
564.7427, 312.0451
565.2249, 314.0745
565.7070, 315.7675
566.1891, 317.6740
566.6712, 320.0518
567.1533, 322.7661
567.6354, 325.1605
568.1176, 327.1966
568.5997, 329.1961
569.0818, 331.8651
569.5639, 334.7713
570.0460, 336.1880
570.5281, 335.9245
571.0103, 334.6617
571.4924, 332.7504
571.9745, 330.3627
572.4566, 327.8401
572.9387, 325.7904
573.4208, 322.8564
573.9030, 317.5023
574.3851, 310.6129
574.8672, 304.0918
575.3493, 298.6307
575.8314, 293.5801
576.3135, 288.8665
576.7957, 284.5020
577.2778, 280.0243
577.7599, 274.9585
578.2420, 270.3142
578.7241, 266.7845
579.2062, 264.6591
579.6884, 262.3585
580.1705, 259.7480
580.6526, 257.1842
581.1347, 255.1431
581.6168, 253.5927
582.0989, 252.0687
582.5811, 250.4681
583.0632, 248.8537
583.5453, 247.2613
584.0274, 245.6998
584.5095, 244.2535
584.9916, 242.7793
585.4738, 241.5631
585.9559, 241.1160
586.4380, 241.3272
586.9201, 241.2351
587.4022, 239.9216
587.8843, 238.4937
588.3664, 237.7146
588.8485, 237.9137
589.3306, 238.0030
589.8127, 237.9268
590.2949, 237.6384
590.7770, 237.0294
591.2591, 235.7519
591.7412, 235.0128
592.2233, 235.1929
592.7054, 235.7517
593.1876, 235.3563
593.6697, 233.9134
594.1518, 232.7284
594.6339, 232.4208
595.1160, 232.6618
595.5981, 232.6819
596.0803, 232.5011
596.5624, 232.3043
597.0445, 232.0657
597.5266, 231.9548
598.0087, 232.3000
598.4908, 233.1665
598.9730, 233.8882
599.4551, 234.0100
599.9372, 233.8585
600.4193, 233.7150
600.9014, 233.3695
601.3835, 233.4215
601.8657, 234.3603
602.3478, 235.6185
602.8299, 236.3692
603.3120, 236.4837
603.7941, 236.3176
604.2762, 235.8184
604.7584, 235.1236
605.2405, 234.7792
605.7226, 234.8125
606.2047, 235.0100
606.6868, 235.3770
607.1689, 235.8218
607.6511, 236.0039
608.1332, 235.9234
608.6153, 235.7875
609.0974, 235.6093
609.5795, 235.5386
610.0616, 235.8504
610.5438, 236.7158
611.0259, 237.4932
611.5080, 237.7920
611.9901, 237.8144
612.4722, 237.8032
612.9543, 237.6873
613.4365, 237.6896
613.9186, 237.8539
614.4007, 238.1565
614.8828, 238.5836
615.3649, 239.2402
615.8470, 239.7915
616.3292, 240.1327
616.8113, 240.2800
617.2934, 240.3541
617.7755, 240.3483
618.2576, 240.3154
618.7397, 240.2527
619.2219, 240.1914
619.7040, 240.1861
620.1861, 240.2344
620.6682, 240.4522
621.1503, 241.2902
621.6324, 242.2122
622.1146, 242.5188
622.5967, 241.8080
623.0788, 241.0015
623.5609, 240.4637
624.0430, 240.0889
624.5251, 239.7242
625.0073, 239.1866
625.4894, 238.8607
625.9715, 238.8473
626.4536, 239.0761
626.9357, 239.3633
627.4178, 239.7996
627.9000, 240.0234
628.3821, 239.7944
628.8642, 239.2086
629.3463, 238.9730
629.8284, 239.0956
630.3105, 239.1783
630.7927, 238.7935
631.2748, 238.1919
631.7569, 237.9265
632.2390, 238.0779
632.7211, 238.1433
633.2032, 237.5836
633.6854, 236.8181
634.1675, 236.3045
634.6496, 236.2115
635.1317, 236.2690
635.6138, 236.5512
636.0959, 236.9091
636.5781, 237.1036
637.0602, 237.0647
637.5423, 236.9837
638.0244, 236.8923
638.5065, 236.7794
638.9886, 236.5270
639.4708, 236.0710
639.9529, 235.8930
640.4350, 236.4245
640.9171, 237.3424
641.3992, 237.4831
641.8813, 236.8987
642.3635, 236.3210
642.8456, 236.3644
643.3277, 236.6607
643.8098, 236.8521
644.2919, 236.9115
644.7740, 236.6855
645.2562, 235.5913
645.7383, 234.4741
646.2204, 234.0891
646.7025, 235.2006
647.1846, 235.9512
647.6667, 236.1195
648.1489, 235.9739
648.6310, 235.8264
649.1131, 235.6641
649.5952, 235.5581
650.0773, 235.5247
650.5594, 235.5476
651.0416, 235.5754
651.5237, 235.6128
652.0058, 235.7334
652.4879, 236.0495
652.9700, 236.4128
653.4521, 236.6448
653.9343, 236.7436
654.4164, 236.6860
654.8985, 236.2837
655.3806, 235.8571
655.8627, 235.6058
656.3448, 235.5484
656.8270, 235.6463
657.3091, 236.0708
657.7912, 236.5041
658.2733, 236.7330
658.7554, 236.6123
659.2375, 236.7625
659.7197, 237.2929
660.2018, 237.9010
660.6839, 238.2401
661.1660, 238.3144
661.6481, 238.4311
662.1302, 238.6582
662.6124, 238.8743
663.0945, 238.9200
663.5766, 238.8239
664.0587, 238.6532
664.5408, 238.3682
665.0229, 238.0994
665.5051, 237.9088
665.9872, 237.8055
666.4693, 237.8101
666.9514, 238.0426
667.4335, 238.2746
667.9156, 238.4672
668.3978, 238.6133
668.8799, 238.5969
669.3620, 238.2617
669.8441, 238.0786
670.3262, 238.3399
670.8083, 239.0161
671.2905, 239.4612
671.7726, 239.6615
672.2547, 239.7676
672.7368, 239.8670
673.2189, 239.9696
673.7010, 240.0773
674.1832, 240.1827
674.6653, 240.3590
675.1474, 240.7430
675.6295, 241.1845
676.1116, 241.5038
676.5938, 241.5226
677.0759, 241.6547
677.5580, 242.1823
678.0401, 242.7829
678.5222, 243.0204
679.0043, 242.6404
679.4865, 242.4446
679.9686, 242.6114
680.4507, 242.9610
680.9328, 243.0607
681.4149, 242.9135
681.8970, 242.9010
682.3792, 243.3003
682.8613, 243.8041
683.3434, 243.7537
683.8255, 243.2993
684.3076, 243.0317
684.7897, 243.4857
685.2719, 244.0847
685.7540, 244.4312
686.2361, 244.5217
686.7182, 244.5886
687.2003, 244.6855
687.6824, 244.7729
688.1646, 244.8195
688.6467, 244.8076
689.1288, 244.8584
689.6109, 244.9637
690.0930, 245.1407
690.5751, 245.4360
691.0573, 245.8353
691.5394, 246.2172
692.0215, 246.5850
692.5036, 246.8002
692.9857, 246.5491
693.4678, 246.0782
693.9500, 245.8238
694.4321, 245.9311
694.9142, 246.1408
695.3963, 246.3518
695.8784, 246.5568
696.3605, 246.7457
696.8427, 247.0947
697.3248, 247.1872
697.8069, 246.7882
698.2890, 246.1968
698.7711, 246.0737
699.2532, 246.5775
699.7354, 246.9256
700.2175, 246.8705
700.6996, 246.5893
701.1817, 246.4321
701.6638, 246.4146
702.1459, 246.6328
702.6281, 247.5332
703.1102, 248.4284
703.5923, 248.3938
704.0744, 247.6163
704.5565, 247.0326
705.0386, 247.3552
705.5208, 247.7117
706.0029, 247.5474
706.4850, 246.7616
706.9671, 246.4194
707.4492, 246.7180
707.9313, 247.1766
708.4135, 247.6017
708.8956, 248.0032
709.3777, 248.0411
709.8598, 247.6477
710.3419, 247.3128
710.8240, 247.6225
711.3062, 248.3128
711.7883, 248.7973
712.2704, 249.0153
712.7525, 248.9779
713.2346, 248.4820
713.7167, 247.8453
714.1989, 247.3666
714.6810, 246.9714
715.1631, 247.0315
715.6452, 248.2336
716.1273, 249.5970
716.6094, 250.0528
717.0916, 249.2679
717.5737, 248.4902
718.0558, 247.7395
718.5379, 247.2478
719.0200, 247.6497
719.5021, 248.7978
719.9843, 249.6304
720.4664, 249.6775
720.9485, 249.4635
721.4306, 249.5944
721.9127, 249.9536
722.3948, 250.2638
722.8770, 250.4854
723.3591, 250.5593
723.8412, 250.3675
724.3233, 249.9827
724.8054, 249.7172
725.2875, 249.6145
725.7697, 249.5674
726.2518, 249.4707
726.7339, 249.4026
727.2160, 249.9176
727.6981, 251.0688
728.1802, 252.0847
728.6624, 252.5891
729.1445, 252.6490
729.6266, 252.1448
730.1087, 251.1865
730.5908, 250.6230
731.0729, 251.4500
731.5551, 252.5092
732.0372, 252.8893
732.5193, 252.4629
733.0014, 252.2050
733.4835, 252.4541
733.9656, 252.7723
734.4478, 252.9444
734.9299, 252.9402
735.4120, 253.0189
735.8941, 253.2000
736.3762, 253.3976
736.8583, 253.5975
737.3405, 253.7568
737.8226, 253.5939
738.3047, 253.0393
738.7868, 252.6846
739.2689, 253.2346
739.7510, 254.1613
740.2332, 254.8891
740.7153, 255.3046
741.1974, 255.4921
741.6795, 255.1121
742.1616, 254.7200
742.6437, 254.8909
743.1259, 255.9625
743.6080, 256.7262
744.0901, 257.0673
744.5722, 257.1667
745.0543, 257.2687
745.5364, 257.3649
746.0186, 257.3583
746.5007, 257.2137
746.9828, 257.0165
747.4649, 256.7744
747.9470, 256.5690
748.4291, 256.5355
748.9113, 256.7169
749.3934, 257.0904
749.8755, 257.9067
750.3576, 258.8578
750.8397, 259.3258
751.3218, 259.0215
751.8040, 258.7591
752.2861, 258.6849
752.7682, 258.7169
753.2503, 258.6150
753.7324, 258.3870
754.2145, 258.3045
754.6967, 258.5197
755.1788, 258.8644
755.6609, 259.1877
756.1430, 259.4511
756.6251, 259.5358
757.1072, 259.1341
757.5894, 258.8019
758.0715, 258.8162
758.5536, 259.1303
759.0357, 259.4970
759.5178, 259.9800
759.9999, 260.3913
760.4821, 260.7061
760.9642, 260.8994
761.4463, 260.7281
761.9284, 260.1721
762.4105, 259.8487
762.8926, 260.3389
763.3748, 261.1349
763.8569, 261.2339
764.3390, 260.7844
764.8211, 260.5600
765.3032, 261.4415
765.7853, 262.2527
766.2675, 262.1575
766.7496, 261.1419
767.2317, 260.6412
767.7138, 261.0917
768.1959, 261.5390
768.6780, 261.5331
769.1602, 261.1267
769.6423, 261.0682
770.1244, 261.3865
770.6065, 261.6646
771.0886, 261.5748
771.5707, 261.2678
772.0529, 260.9101
772.5350, 260.5283
773.0171, 260.3834
773.4992, 260.7948
773.9813, 261.3531
774.4634, 261.8347
774.9456, 262.2248
775.4277, 262.4232
775.9098, 262.4386
776.3919, 262.2489
776.8740, 261.7274
777.3561, 260.8710
777.8383, 260.5040
778.3204, 260.6691
778.8025, 260.9320
779.2846, 260.9506
779.7667, 260.8294
780.2488, 260.7579
780.7310, 260.7560
781.2131, 260.6962
781.6952, 260.4786
782.1773, 260.1984
782.6594, 259.8757
783.1415, 259.4225
783.6237, 259.2747
784.1058, 259.5166
784.5879, 259.9242
785.0699, 260.4039
785.5521, 260.9530
786.0342, 261.3087
786.5163, 261.4742
786.9984, 261.3215
787.4805, 260.2325
787.9626, 258.9602
788.4448, 258.7524
788.9269, 259.8900
789.4090, 260.9812
789.8911, 261.5244
790.3732, 261.6592
790.8553, 261.4132
791.3375, 260.5541
791.8196, 260.0727
792.3017, 260.0241
792.7838, 260.2352
793.2659, 260.7255
793.7480, 261.4326
794.2302, 261.5646
794.7123, 261.0110
795.1944, 260.4296
795.6765, 260.3169
796.1586, 260.5680
796.6407, 261.1600
797.1229, 262.1971
797.6050, 262.9776
798.0871, 263.2728
798.5692, 263.1981
799.0513, 262.7994
799.5334, 261.8672
800.0156, 261.3289
800.4977, 261.2596
800.9798, 261.4080
801.4619, 261.5465
801.9440, 261.6968
802.4261, 261.9767
802.9083, 262.4037
803.3904, 262.8657
803.8725, 263.4038
804.3546, 263.8488
804.8367, 263.9481
805.3188, 263.4975
805.8010, 263.2942
806.2831, 263.7401
806.7652, 264.3214
807.2473, 264.6836
807.7294, 264.7552
808.2115, 264.9813
808.6937, 265.4076
809.1758, 265.8239
809.6579, 265.9264
810.1400, 265.8770
810.6221, 266.0928
811.1042, 266.6327
811.5864, 267.2889
812.0685, 268.1266
812.5506, 268.8873
813.0327, 269.3496
813.5148, 269.4331
813.9969, 269.3295
814.4791, 268.8497
814.9612, 268.4410
815.4433, 268.4596
815.9254, 268.9167
816.4075, 269.3493
816.8896, 269.7401
817.3718, 270.1526
817.8539, 270.7436
818.3360, 271.3539
818.8181, 271.7301
819.3002, 271.8379
819.7823, 271.8653
820.2645, 271.7599
820.7466, 271.7114
821.2287, 271.8920
821.7108, 272.3726
822.1929, 272.6765
822.6750, 272.6847
823.1572, 272.8130
823.6393, 273.5492
824.1214, 274.7162
824.6035, 275.2950
825.0856, 275.2496
825.5677, 275.0682
826.0499, 274.8898
826.5320, 274.9101
827.0141, 275.5443
827.4962, 276.8893
827.9783, 277.5954
828.4604, 276.5780
828.9426, 275.5753
829.4247, 275.4548
829.9068, 276.2464
830.3889, 276.4753
830.8710, 276.0553
831.3531, 275.7396
831.8353, 276.2224
832.3174, 277.1215
832.7995, 277.7355
833.2816, 278.0483
833.7637, 278.1227
834.2458, 277.7168
834.7280, 277.3275
835.2101, 277.3279
835.6922, 277.7485
836.1743, 277.8361
836.6564, 277.4018
837.1385, 277.0155
837.6207, 277.0400
838.1028, 277.3052
838.5849, 276.8316
839.0670, 275.6936
839.5491, 274.8291
840.0313, 275.1451
840.5134, 275.7450
840.9955, 275.6826
841.4776, 275.1002
841.9597, 274.7678
842.4418, 275.2106
842.9240, 275.6110
843.4061, 275.7403
843.8882, 275.6376
844.3703, 275.4627
844.8524, 275.2129
845.3345, 274.8958
845.8167, 274.4789
846.2988, 274.0316
846.7809, 273.7276
847.2630, 273.5052
847.7451, 273.1777
848.2272, 272.3563
848.7094, 271.7337
849.1915, 271.7323
849.6736, 272.1614
850.1557, 272.4985
850.6378, 272.7795
851.1199, 272.8484
851.6021, 272.6076
852.0842, 272.2251
852.5663, 272.0511
853.0484, 272.0526
853.5305, 272.0724
854.0126, 272.0870
854.4948, 272.0401
854.9769, 271.9176
855.4590, 271.6848
855.9411, 271.2894
856.4232, 270.1860
856.9053, 269.6774
857.3875, 270.1682
857.8696, 270.9931
858.3517, 271.2769
858.8338, 271.0017
859.3159, 270.6734
859.7980, 270.3680
860.2802, 270.0197
860.7623, 269.4019
861.2444, 268.7464
861.7265, 268.4642
862.2086, 268.8058
862.6907, 269.0167
863.1729, 268.7084
863.6550, 268.2271
864.1371, 267.8938
864.6192, 267.8130
865.1013, 267.3855
865.5834, 266.4414
866.0656, 265.7163
866.5477, 266.1381
867.0298, 267.2548
867.5119, 267.8967
867.9940, 267.9547
868.4761, 267.8471
868.9583, 267.7137
869.4404, 267.5998
869.9225, 267.5179
870.4046, 267.4631
870.8867, 267.5782
871.3688, 268.0729
871.8510, 268.3320
872.3331, 267.9639
872.8152, 267.0856
873.2973, 266.0845
873.7794, 265.0187
874.2615, 264.4962
874.7437, 265.4826
875.2258, 266.7101
875.7079, 267.0471
876.1900, 266.6248
876.6721, 266.3501
877.1542, 266.4605
877.6364, 266.7204
878.1185, 267.1983
878.6006, 267.7467
879.0827, 267.7635
879.5648, 267.2521
880.0469, 266.7836
880.5291, 266.5534
881.0112, 266.4929
881.4933, 266.5910
881.9754, 266.7845
882.4575, 266.9428
882.9396, 266.8380
883.4218, 266.9177
883.9039, 267.4301
884.3860, 268.1027
884.8681, 268.5737
885.3502, 268.8363
885.8323, 268.9301
886.3145, 268.8444
886.7966, 268.6540
887.2787, 268.3346
887.7608, 268.0120
888.2429, 267.9110
888.7250, 268.0756
889.2072, 268.4907
889.6893, 269.4123
890.1714, 270.4085
890.6535, 271.1119
891.1356, 271.4923
891.6177, 271.7177
892.0999, 271.8089
892.5820, 271.6769
893.0641, 270.9499
893.5462, 269.9916
894.0283, 269.8166
894.5104, 270.4539
894.9926, 271.2993
895.4747, 272.2434
895.9568, 273.0647
896.4389, 273.5595
896.9210, 273.7187
897.4031, 274.0840
897.8853, 274.8557
898.3674, 275.3378
898.8495, 275.1270
899.3316, 274.4927
899.8137, 274.1644
900.2958, 274.1353
900.7780, 274.3546
901.2601, 274.9265
901.7422, 275.6142
902.2243, 276.3185
902.7064, 277.0257
903.1885, 277.6867
903.6707, 278.3262
904.1528, 278.8523
904.6349, 279.1817
905.1170, 279.4722
905.5991, 280.1191
906.0812, 281.0147
906.5634, 281.5563
907.0455, 281.4774
907.5276, 281.4598
908.0097, 282.1918
908.4918, 283.2444
908.9739, 284.1407
909.4561, 284.7651
909.9382, 285.2373
910.4203, 285.4634
910.9024, 285.6974
911.3845, 286.1657
911.8666, 286.8513
912.3488, 287.5356
912.8309, 288.2168
913.3130, 288.9570
913.7951, 289.7843
914.2772, 290.7287
914.7593, 291.9627
915.2415, 293.4750
915.7236, 294.5381
916.2057, 294.6527
916.6878, 294.8615
917.1699, 295.4331
917.6520, 296.3918
918.1342, 298.0771
918.6163, 300.4109
919.0984, 302.4583
919.5805, 303.5238
920.0626, 304.3758
920.5447, 305.7358
921.0269, 307.4350
921.5090, 309.1502
921.9911, 310.4837
922.4732, 312.2837
922.9553, 314.8608
923.4374, 317.7119
923.9196, 319.9867
924.4017, 321.7506
924.8838, 323.8013
925.3659, 326.3068
925.8480, 329.0152
926.3301, 331.4780
926.8123, 334.1164
927.2944, 337.5451
927.7765, 342.1566
928.2586, 346.4435
928.7407, 349.7706
929.2228, 353.3544
929.7050, 358.0731
930.1871, 363.8112
930.6692, 369.1343
931.1513, 374.0786
931.6334, 379.3254
932.1155, 385.1782
932.5977, 391.6674
933.0798, 398.9538
933.5619, 406.9382
934.0440, 415.4268
934.5261, 424.2189
935.0082, 433.7556
935.4904, 444.1842
935.9725, 455.4427
936.4546, 467.9754
936.9367, 481.7032
937.4188, 496.2052
937.9009, 511.4052
938.3831, 527.5436
938.8652, 545.1634
939.3473, 564.0387
939.8294, 583.6008
940.3115, 603.5402
940.7936, 625.2305
941.2758, 648.4120
941.7579, 673.6500
942.2400, 701.2630
942.7221, 731.0743
943.2042, 762.9698
943.6863, 796.5629
944.1685, 831.9343
944.6506, 868.6493
945.1327, 907.4571
945.6148, 949.1643
946.0969, 993.7059
946.5790, 1038.286
947.0612, 1083.877
947.5433, 1127.376
948.0254, 1168.610
948.5075, 1206.415
948.9896, 1238.851
949.4717, 1265.170
949.9539, 1281.650
950.4360, 1287.278
950.9181, 1281.826
951.4002, 1263.720
951.8823, 1235.034
952.3644, 1198.367
952.8466, 1152.771
953.3287, 1102.328
953.8108, 1045.848
954.2929, 987.2914
954.7750, 930.7082
955.2571, 876.1747
955.7393, 824.4615
956.2214, 775.6302
956.7035, 730.4431
957.1856, 689.5571
957.6677, 652.3385
958.1498, 618.4987
958.6320, 588.4625
959.1141, 560.7277
959.5962, 535.1226
960.0783, 512.4720
960.5604, 493.5956
961.0425, 477.5367
961.5247, 461.8895
962.0068, 446.9777
962.4889, 433.2913
962.9710, 421.3578
963.4531, 410.5822
963.9352, 400.8366
964.4174, 392.1812
964.8995, 384.6820
965.3816, 378.6039
965.8637, 372.2168
966.3458, 365.2425
966.8279, 358.5847
967.3101, 353.6254
967.7922, 349.5690
968.2743, 345.1327
968.7564, 340.0672
969.2385, 335.6146
969.7206, 332.4093
970.2028, 329.8003
970.6849, 327.6086
971.1670, 325.7690
971.6491, 323.5097
972.1312, 320.8358
972.6133, 318.1436
973.0955, 315.5055
973.5776, 313.1001
974.0597, 311.0005
974.5418, 309.3129
975.0239, 308.2332
975.5060, 308.8501
975.9882, 308.6224
976.4703, 306.9651
976.9524, 304.7861
977.4345, 303.1904
977.9166, 302.1195
978.3987, 301.1797
978.8809, 300.3268
979.3630, 299.7570
979.8451, 299.9579
980.3272, 300.2953
980.8093, 300.1488
981.2914, 299.4264
981.7736, 299.0299
982.2557, 299.1479
982.7377, 299.2185
983.2198, 298.9727
983.7020, 298.5446
984.1841, 298.2573
984.6662, 298.1047
985.1483, 298.0606
985.6304, 298.0236
986.1125, 298.2022
986.5947, 299.0396
987.0768, 299.9867
987.5589, 300.2172
988.0410, 299.4160
988.5231, 299.0446
989.0052, 299.2337
989.4874, 299.6030
989.9695, 299.8404
990.4516, 299.9728
990.9337, 300.1723
991.4158, 300.4306
991.8979, 300.1835
992.3801, 298.4876
992.8622, 297.0571
993.3443, 296.6591
993.8264, 297.0384
994.3085, 297.0748
994.7906, 296.7784
995.2728, 296.3932
995.7549, 295.9466
996.2370, 295.5787
996.7191, 295.7246
997.2012, 295.9460
997.6833, 295.5889
998.1655, 293.9164
998.6476, 292.6915
999.1297, 292.1406
999.6118, 291.7142
1000.094, 290.7627
1000.576, 289.4896
1001.058, 289.1049
1001.540, 289.5706
1002.022, 289.9553
1002.505, 289.4115
1002.987, 288.8276
1003.469, 289.0378
1003.951, 289.7242
1004.433, 289.3549
1004.915, 287.5228
1005.397, 286.2689
1005.879, 286.1459
1006.361, 286.6156
1006.844, 287.1675
1007.326, 287.6404
1007.808, 287.7115
1008.290, 287.1883
1008.772, 286.6601
1009.254, 286.3084
1009.736, 286.0200
1010.218, 285.7033
1010.701, 285.3612
1011.183, 285.2325
1011.665, 285.3114
1012.147, 285.4767
1012.629, 285.5957
1013.111, 285.8117
1013.593, 286.5455
1014.075, 287.4787
1014.557, 287.6391
1015.040, 286.0618
1015.522, 285.4140
1016.004, 286.3104
1016.486, 287.6406
1016.968, 287.7750
1017.450, 287.0961
1017.932, 286.7383
1018.414, 286.8762
1018.896, 287.2001
1019.379, 287.7807
1019.861, 288.2650
1020.343, 288.2762
1020.825, 287.9081
1021.307, 288.3380
1021.789, 289.6823
1022.271, 290.6815
1022.753, 290.6436
1023.236, 290.2725
1023.718, 290.5390
1024.200, 291.1340
1024.682, 291.5019
1025.164, 290.9876
1025.646, 291.0886
1026.128, 292.1381
1026.610, 293.4621
1027.093, 294.4937
1027.575, 295.2683
1028.057, 295.9274
1028.539, 296.4903
1029.021, 297.2252
1029.503, 298.4371
1029.985, 299.7344
1030.467, 300.9015
1030.949, 301.9361
1031.432, 302.7977
1031.914, 303.2400
1032.396, 304.7301
1032.878, 307.9131
1033.360, 311.2466
1033.842, 312.0368
1034.324, 311.7113
1034.806, 312.5844
1035.288, 315.3043
1035.771, 318.2519
1036.253, 321.0704
1036.735, 324.0348
1037.217, 327.2448
1037.699, 330.7398
1038.181, 334.6339
1038.663, 338.9219
1039.145, 343.2579
1039.628, 347.3798
1040.110, 351.6706
1040.592, 356.3267
1041.074, 361.3368
1041.556, 366.7243
1042.038, 372.3332
1042.520, 378.6281
1043.002, 385.6660
1043.484, 393.0870
1043.967, 400.6264
1044.449, 408.3202
1044.931, 416.3217
1045.413, 424.6748
1045.895, 433.9567
1046.377, 445.4217
1046.859, 456.6898
1047.341, 466.8853
1047.823, 476.6161
1048.306, 487.5276
1048.788, 499.4252
1049.270, 511.1372
1049.752, 522.5040
1050.234, 532.9680
1050.716, 542.5341
1051.198, 550.5642
1051.680, 556.5165
1052.163, 560.5306
1052.645, 561.8010
1053.127, 560.3759
1053.609, 555.9940
1054.091, 547.8821
1054.573, 537.2978
1055.055, 526.0532
1055.537, 514.0295
1056.020, 500.7110
1056.502, 484.8124
1056.984, 469.0978
1057.466, 453.5560
1057.948, 438.7256
1058.430, 425.1958
1058.912, 412.8886
1059.394, 401.3028
1059.876, 390.5034
1060.359, 380.5302
1060.841, 371.5851
1061.323, 363.3109
1061.805, 355.5873
1062.287, 348.4244
1062.769, 341.9546
1063.251, 336.1883
1063.733, 331.6018
1064.215, 328.5423
1064.698, 325.7979
1065.180, 321.4786
1065.662, 316.8023
1066.144, 313.4412
1066.626, 311.9835
1067.108, 310.2390
1067.590, 307.9204
1068.072, 305.4293
1068.555, 302.7776
1069.037, 300.2194
1069.519, 298.7518
1070.001, 298.0849
1070.483, 297.1874
1070.965, 295.3064
1071.447, 293.6752
1071.929, 292.9799
1072.411, 292.6158
1072.894, 292.0569
1073.376, 291.3041
1073.858, 290.4067
1074.340, 289.3814
1074.822, 288.3205
1075.304, 287.1826
1075.786, 286.1535
1076.268, 285.4795
1076.750, 285.0626
1077.233, 284.5707
1077.715, 283.9092
1078.197, 283.3495
1078.679, 282.9205
1079.161, 282.6093
1079.643, 282.4922
1080.125, 282.4482
1080.607, 282.2211
1081.090, 281.7751
1081.572, 281.4657
1082.054, 281.3524
1082.536, 281.4907
1083.018, 282.0489
1083.500, 282.7671
1083.982, 282.7724
1084.464, 282.2364
1084.946, 282.0664
1085.429, 282.7217
1085.911, 283.1854
1086.393, 282.4973
1086.875, 281.6373
1087.357, 281.5231
1087.839, 282.2198
1088.321, 282.4433
1088.803, 282.1710
1089.286, 281.8344
1089.768, 281.6576
1090.250, 281.5390
1090.732, 281.3144
1091.214, 281.0862
1091.696, 281.0654
1092.178, 281.4907
1092.660, 281.6762
1093.142, 281.5502
1093.625, 281.3451
1094.107, 281.2557
1094.589, 281.2457
1095.071, 281.1953
1095.553, 281.1348
1096.035, 281.2623
1096.517, 281.5898
1096.999, 282.2777
1097.481, 283.6693
1097.964, 285.0609
1098.446, 284.8540
1098.928, 283.4912
1099.410, 283.7389
1099.892, 286.1436
1100.374, 287.4766
1100.856, 284.3136
1101.338, 280.7079
1101.821, 279.3272
1102.303, 279.6996
1102.785, 279.5550
1103.267, 278.8764
1103.749, 278.3010
1104.231, 277.9968
1104.713, 277.9595
1105.195, 278.3719
1105.677, 278.9407
1106.160, 279.3567
1106.642, 279.5815
1107.124, 279.5534
1107.606, 279.1447
1108.088, 279.0016
1108.570, 279.7713
1109.052, 280.7003
1109.534, 280.1881
1110.016, 278.9031
1110.499, 278.2580
1110.981, 279.5995
1111.463, 280.0675
1111.945, 278.9905
1112.427, 277.8726
1112.909, 278.0689
1113.391, 279.2415
1113.873, 280.4749
1114.356, 281.6298
1114.838, 282.0605
1115.320, 280.5712
1115.802, 279.4162
1116.284, 279.5158
1116.766, 280.1924
1117.248, 280.6178
1117.730, 280.7930
1118.213, 280.7018
1118.695, 280.3406
1119.177, 280.0725
1119.659, 280.2670
1120.141, 280.5470
1120.623, 280.7110
1121.105, 280.7442
1121.587, 280.5817
1122.069, 280.1905
1122.552, 279.8951
1123.034, 279.7343
1123.516, 279.8204
1123.998, 280.7215
1124.480, 281.6387
1124.962, 281.6281
1125.444, 280.4869
1125.926, 279.6294
1126.408, 279.1693
1126.891, 278.5741
1127.373, 277.4293
1127.855, 276.4565
1128.337, 277.1600
1128.819, 278.7199
1129.301, 279.7959
1129.783, 279.9981
1130.265, 279.8192
1130.748, 279.1039
1131.230, 278.4689
1131.712, 278.2343
1132.194, 278.3424
1132.676, 278.8209
1133.158, 279.5038
1133.640, 279.9248
1134.122, 279.7413
1134.604, 279.5183
1135.087, 279.3837
1135.569, 279.2585
1136.051, 279.0833
1136.533, 278.8609
1137.015, 278.5600
1137.497, 278.2046
1137.979, 277.9607
1138.461, 278.0555
1138.943, 278.1230
1139.426, 277.7975
1139.908, 277.4716
1140.390, 277.7753
1140.872, 278.7072
1141.354, 279.2388
1141.836, 279.2948
1142.318, 279.1307
1142.800, 278.6673
1143.283, 278.3066
1143.765, 278.4291
1144.247, 278.8842
1144.729, 279.2051
1145.211, 279.3904
1145.693, 279.4700
1146.175, 279.4379
1146.657, 279.3806
1147.140, 279.3747
1147.622, 279.3882
1148.104, 279.3688
1148.586, 279.3221
1149.068, 279.3468
1149.550, 279.4004
1150.032, 279.7262
1150.514, 280.4699
1150.996, 281.2352
1151.479, 281.4200
1151.961, 281.3336
1152.443, 281.3882
1152.925, 281.6712
1153.407, 281.8502
1153.889, 281.9569
1154.371, 281.8202
1154.853, 281.2923
1155.335, 280.6249
1155.818, 280.2308
1156.300, 280.0678
1156.782, 280.1061
1157.264, 280.4687
1157.746, 280.5915
1158.228, 280.3220
1158.710, 279.9991
1159.192, 279.7754
1159.675, 279.6452
1160.157, 279.6749
1160.639, 279.7858
1161.121, 279.7658
1161.603, 279.4732
1162.085, 279.1514
1162.567, 278.6582
1163.049, 278.4143
1163.531, 278.9715
1164.014, 280.0316
1164.496, 279.9795
1164.978, 279.0670
1165.460, 278.3837
1165.942, 278.7748
1166.424, 279.0395
1166.906, 278.5814
1167.388, 278.0989
1167.870, 278.3872
1168.353, 279.3138
1168.835, 279.6018
1169.317, 279.2888
1169.799, 279.0464
1170.281, 279.4033
1170.763, 279.7332
1171.245, 279.6222
1171.727, 279.4201
1172.210, 279.5740
1172.692, 280.0672
1173.174, 280.7523
1173.656, 281.5879
1174.138, 281.9837
1174.620, 281.1195
1175.102, 280.1388
1175.584, 279.5718
1176.067, 279.3955
1176.549, 279.7766
1177.031, 280.7230
1177.513, 280.8146
1177.995, 279.8458
1178.477, 278.9220
1178.959, 278.9784
1179.441, 279.3335
1179.923, 279.5940
1180.406, 279.7614
1180.888, 279.9166
1181.370, 280.0623
1181.852, 280.0067
1182.334, 279.6706
1182.816, 279.4333
1183.298, 279.8182
1183.780, 280.2816
1184.262, 280.3400
1184.745, 280.0419
1185.227, 279.7279
1185.709, 279.3817
1186.191, 279.2296
1186.673, 279.3457
1187.155, 279.5949
1187.637, 280.1873
1188.119, 280.6112
1188.602, 280.0905
1189.084, 278.7014
1189.566, 278.3023
1190.048, 279.0049
1190.530, 279.6955
1191.012, 280.0314
1191.494, 280.2101
1191.976, 280.3848
1192.458, 280.5559
1192.941, 280.7393
1193.423, 280.9403
1193.905, 281.0333
1194.387, 281.0167
1194.869, 280.8380
1195.351, 280.3204
1195.833, 279.9531
1196.315, 280.7612
1196.797, 281.7870
1197.280, 281.6458
1197.762, 279.9418
1198.244, 279.2321
1198.726, 279.6493
1199.208, 280.1841
1199.690, 280.3828
1200.172, 280.4256
1200.654, 280.4597
1201.137, 280.5011
1201.619, 280.5620
1202.101, 280.6220
1202.583, 280.8399
1203.065, 281.2470
1203.547, 281.6031
1204.029, 281.8929
1204.511, 281.9120
1204.994, 281.0545
1205.476, 279.8947
1205.958, 279.4589
1206.440, 280.1623
1206.922, 280.4206
1207.404, 280.1800
1207.886, 279.8863
1208.368, 279.7715
1208.850, 279.8059
1209.333, 280.0269
1209.815, 280.3553
1210.297, 280.6513
1210.779, 280.9685
1211.261, 281.0405
1211.743, 280.8321
1212.225, 280.6356
1212.707, 280.6931
1213.189, 280.8365
1213.672, 280.9029
1214.154, 280.9171
1214.636, 280.9478
1215.118, 281.0709
1215.600, 280.9027
1216.082, 280.3758
1216.564, 280.0468
1217.046, 280.6991
1217.529, 281.4497
1218.011, 281.2645
1218.493, 280.5424
1218.975, 280.2702
1219.457, 280.6626
1219.939, 280.7536
1220.421, 280.4503
1220.903, 280.2585
1221.385, 280.8350
1221.868, 281.4740
1222.350, 281.4596
1222.832, 281.0218
1223.314, 280.7718
1223.796, 280.7574
1224.278, 280.7749
1224.760, 280.8069
1225.242, 280.9354
1225.724, 281.5251
1226.207, 281.9680
1226.689, 281.4849
1227.171, 280.5170
1227.653, 280.2475
1228.135, 280.8286
1228.617, 281.0667
1229.099, 280.8539
1229.581, 280.7451
1230.064, 281.4493
1230.546, 282.1657
1231.028, 282.1576
1231.510, 281.7268
1231.992, 281.6517
1232.474, 281.9685
1232.956, 282.1217
1233.438, 282.0584
1233.921, 281.8740
1234.403, 281.4856
1234.885, 281.1503
1235.367, 281.0566
1235.849, 281.1454
1236.331, 281.3577
1236.813, 281.6981
1237.295, 281.8410
1237.777, 281.7614
1238.260, 281.6273
1238.742, 281.4330
1239.224, 281.3631
1239.706, 281.6708
1240.188, 282.1030
1240.670, 282.1872
1241.152, 281.9642
1241.634, 281.9583
1242.116, 282.2165
1242.599, 282.4401
1243.081, 282.3159
1243.563, 282.2531
1244.045, 282.4765
1244.527, 282.8156
1245.009, 282.9228
1245.491, 282.8763
1245.973, 283.2649
1246.456, 284.1133
1246.938, 284.6577
1247.420, 284.2718
1247.902, 283.7831
1248.384, 283.3908
1248.866, 283.1397
1249.348, 283.1019
1249.830, 283.2643
1250.313, 283.7088
1250.795, 284.3985
1251.277, 284.7652
1251.759, 284.2093
1252.241, 283.7735
1252.723, 283.7151
1253.205, 283.8336
1253.687, 283.9257
1254.169, 283.9442
1254.651, 283.6362
1255.134, 283.0521
1255.616, 282.8905
1256.098, 283.8423
1256.580, 284.3979
1257.062, 284.1901
1257.544, 283.7813
1258.026, 283.9962
1258.508, 284.4417
1258.991, 284.3584
1259.473, 283.7979
1259.955, 283.7531
1260.437, 284.6738
1260.919, 285.1923
1261.401, 285.0342
1261.883, 284.6600
1262.365, 284.5376
1262.848, 284.5141
1263.330, 284.3918
1263.812, 284.1943
1264.294, 284.1131
1264.776, 284.1789
1265.258, 284.2729
1265.740, 284.3768
1266.222, 284.5453
1266.704, 285.0749
1267.187, 285.4782
1267.669, 285.0805
1268.151, 284.1852
1268.633, 283.9567
1269.115, 284.4473
1269.597, 284.8589
1270.079, 285.0917
1270.561, 285.2446
1271.043, 285.3896
1271.526, 285.4824
1272.008, 285.4325
1272.490, 285.3301
1272.972, 285.3719
1273.454, 285.5375
1273.936, 285.5298
1274.418, 285.3271
1274.900, 285.1417
1275.383, 285.0225
1275.865, 285.0694
1276.347, 285.3921
1276.829, 285.8150
1277.311, 286.1475
1277.793, 286.3666
1278.275, 286.3169
1278.757, 286.0202
1279.239, 285.7679
1279.722, 285.6689
1280.204, 285.6733
1280.686, 285.7819
1281.168, 285.9549
1281.650, 286.2144
1282.132, 286.4723
1282.614, 286.4221
1283.096, 286.1497
1283.578, 286.2224
1284.061, 287.2603
1284.543, 287.6315
1285.025, 286.9997
1285.507, 286.2890
1285.989, 286.5616
1286.471, 287.1791
1286.953, 287.3383
1287.435, 287.1123
1287.917, 286.8470
1288.400, 286.5546
1288.882, 286.2672
1289.364, 285.9620
1289.846, 285.9454
1290.328, 286.9001
1290.810, 287.8256
1291.292, 287.7601
1291.774, 287.1241
1292.257, 286.7717
1292.739, 286.7137
1293.221, 286.9059
1293.703, 287.3218
1294.185, 287.4776
1294.667, 286.5983
1295.149, 285.9293
1295.631, 286.3197
1296.114, 287.0768
1296.596, 287.5740
1297.078, 287.8441
1297.560, 288.0871
1298.042, 288.2990
1298.524, 288.4334
1299.006, 288.3412
1299.488, 288.3453
1299.970, 288.4778
1300.453, 288.6662
1300.935, 289.0415
1301.417, 289.4530
##END=



