##NAMES=Vladimirite
##RRUFFID=R080001
##IDEAL CHEMISTRY=Ca_4_(As^5+^O_4_)_2_(As^5+^O_3_OH)&#183;4H_2_O
##LOCALITY=Cobriza mine, Copiapó, Chile
##OWNER=RRUFF
##SOURCE=Bob Jenkins
##DESCRIPTION=Parallel aggregate of colorless thin prisms.
##STATUS=The identification of this mineral is confirmed by single-crystal X-ray diffraction and chemical analysis.
##URL=rruff.info/R080001
##MEASURED CHEMISTRY=(Ca_3.974_Zn_0.002_Mn_0.002_)_Σ=3.978_(As_1.009_O_3_OH)(AsO_4_)_2_·4H_2_O
93.40625, 341.2213
93.88837, 327.3150
94.37048, 338.1378
94.85260, 368.1361
95.33472, 401.5509
95.81683, 435.5301
96.29895, 470.5212
96.78107, 508.1319
97.26318, 548.6764
97.74530, 590.3525
98.22742, 631.8912
98.70953, 673.4339
99.19165, 712.3229
99.67377, 746.7672
100.1559, 777.1071
100.6380, 808.2858
101.1201, 840.2342
101.6022, 872.6276
102.0844, 903.9116
102.5665, 933.4741
103.0486, 964.7676
103.5307, 998.7954
104.0128, 1036.410
104.4949, 1074.608
104.9771, 1112.615
105.4592, 1151.943
105.9413, 1197.366
106.4234, 1250.424
106.9055, 1306.993
107.3876, 1364.670
107.8698, 1424.051
108.3519, 1484.780
108.8340, 1546.335
109.3161, 1609.575
109.7982, 1675.629
110.2803, 1741.330
110.7624, 1812.690
111.2446, 1892.723
111.7267, 1989.933
112.2088, 2087.817
112.6909, 2187.147
113.1730, 2288.398
113.6551, 2383.472
114.1373, 2478.891
114.6194, 2563.783
115.1015, 2630.374
115.5836, 2672.518
116.0657, 2699.279
116.5478, 2709.998
117.0300, 2704.091
117.5121, 2694.002
117.9942, 2683.246
118.4763, 2671.101
118.9584, 2656.698
119.4405, 2632.110
119.9227, 2610.065
120.4048, 2597.638
120.8869, 2595.188
121.3690, 2603.415
121.8511, 2625.574
122.3332, 2658.882
122.8154, 2697.483
123.2975, 2735.490
123.7796, 2778.304
124.2617, 2832.467
124.7438, 2899.122
125.2259, 2975.181
125.7081, 3064.051
126.1902, 3160.721
126.6723, 3235.717
127.1544, 3287.194
127.6365, 3326.250
128.1186, 3350.789
128.6008, 3356.171
129.0829, 3352.411
129.5650, 3352.274
130.0471, 3355.645
130.5292, 3361.611
131.0113, 3372.571
131.4935, 3386.518
131.9756, 3395.996
132.4577, 3404.340
132.9398, 3405.101
133.4219, 3377.188
133.9040, 3319.260
134.3862, 3245.215
134.8683, 3165.133
135.3504, 3078.798
135.8325, 2998.278
136.3146, 2925.304
136.7967, 2860.519
137.2789, 2809.529
137.7610, 2773.130
138.2431, 2746.852
138.7252, 2724.333
139.2073, 2705.063
139.6894, 2691.356
140.1716, 2684.599
140.6537, 2685.454
141.1358, 2687.849
141.6179, 2691.520
142.1000, 2696.990
142.5821, 2705.437
143.0643, 2717.910
143.5464, 2731.258
144.0285, 2743.768
144.5106, 2752.941
144.9927, 2767.720
145.4748, 2789.381
145.9570, 2816.272
146.4391, 2842.777
146.9212, 2869.047
147.4033, 2895.039
147.8854, 2921.409
148.3675, 2952.100
148.8497, 2976.916
149.3318, 2997.737
149.8139, 3013.129
150.2960, 3014.986
150.7781, 2995.579
151.2602, 2968.297
151.7424, 2940.514
152.2245, 2900.145
152.7066, 2872.744
153.1887, 2862.401
153.6708, 2868.336
154.1529, 2879.827
154.6351, 2896.984
155.1172, 2919.015
155.5993, 2945.291
156.0814, 2982.777
156.5635, 3017.629
157.0456, 3048.646
157.5278, 3075.500
158.0099, 3095.196
158.4920, 3102.804
158.9741, 3105.181
159.4562, 3108.481
159.9383, 3111.636
160.4205, 3118.253
160.9026, 3130.533
161.3847, 3148.843
161.8668, 3167.977
162.3489, 3186.239
162.8310, 3204.366
163.3132, 3223.205
163.7953, 3245.672
164.2774, 3266.875
164.7595, 3283.574
165.2416, 3294.963
165.7237, 3306.120
166.2059, 3323.702
166.6880, 3342.116
167.1701, 3352.872
167.6522, 3355.884
168.1343, 3347.716
168.6164, 3324.670
169.0986, 3284.883
169.5807, 3236.477
170.0628, 3177.110
170.5449, 3112.972
171.0270, 3056.713
171.5091, 3012.642
171.9913, 2980.374
172.4734, 2960.782
172.9555, 2955.470
173.4376, 2957.741
173.9197, 2961.303
174.4018, 2967.638
174.8840, 2980.947
175.3661, 3011.207
175.8482, 3047.205
176.3303, 3073.862
176.8124, 3087.492
177.2945, 3094.798
177.7767, 3103.459
178.2588, 3112.404
178.7409, 3116.859
179.2230, 3110.653
179.7051, 3098.328
180.1872, 3088.055
180.6694, 3080.720
181.1515, 3076.635
181.6336, 3077.035
182.1157, 3081.591
182.5978, 3087.955
183.0799, 3094.901
183.5621, 3102.489
184.0442, 3110.413
184.5263, 3117.929
185.0084, 3126.770
185.4905, 3139.508
185.9726, 3156.126
186.4547, 3177.186
186.9369, 3203.109
187.4190, 3233.980
187.9011, 3270.242
188.3832, 3316.134
188.8653, 3364.187
189.3474, 3399.555
189.8296, 3422.566
190.3117, 3434.113
190.7938, 3434.378
191.2759, 3423.651
191.7580, 3403.106
192.2401, 3369.850
192.7223, 3328.465
193.2044, 3291.188
193.6865, 3257.676
194.1686, 3227.940
194.6507, 3201.307
195.1328, 3177.821
195.6150, 3160.847
196.0971, 3151.906
196.5792, 3149.981
197.0613, 3151.154
197.5434, 3155.165
198.0255, 3163.191
198.5077, 3178.116
198.9898, 3200.338
199.4719, 3220.279
199.9540, 3235.282
200.4361, 3246.087
200.9182, 3256.839
201.4004, 3267.390
201.8825, 3278.240
202.3646, 3288.852
202.8467, 3298.559
203.3288, 3313.101
203.8109, 3334.755
204.2931, 3362.792
204.7752, 3391.075
205.2573, 3419.600
205.7394, 3448.432
206.2215, 3479.719
206.7036, 3515.123
207.1858, 3543.113
207.6679, 3562.206
208.1500, 3572.115
208.6321, 3566.344
209.1142, 3541.130
209.5963, 3507.327
210.0785, 3475.778
210.5606, 3447.101
211.0427, 3419.068
211.5248, 3390.637
212.0069, 3361.878
212.4890, 3335.602
212.9712, 3311.911
213.4533, 3290.493
213.9354, 3271.845
214.4175, 3256.959
214.8996, 3241.160
215.3817, 3221.759
215.8639, 3198.879
216.3460, 3182.812
216.8281, 3174.964
217.3102, 3171.986
217.7923, 3169.599
218.2744, 3165.544
218.7566, 3168.201
219.2387, 3182.211
219.7208, 3208.126
220.2029, 3224.620
220.6850, 3227.552
221.1671, 3225.784
221.6493, 3229.729
222.1314, 3243.517
222.6135, 3253.603
223.0956, 3256.298
223.5777, 3251.399
224.0598, 3245.612
224.5420, 3238.951
225.0241, 3231.357
225.5062, 3221.836
225.9883, 3207.451
226.4704, 3197.510
226.9525, 3194.603
227.4347, 3198.878
227.9168, 3204.639
228.3989, 3209.580
228.8810, 3218.425
229.3631, 3236.364
229.8452, 3266.738
230.3274, 3300.026
230.8095, 3334.220
231.2916, 3369.228
231.7737, 3408.460
232.2558, 3455.003
232.7379, 3502.581
233.2201, 3545.021
233.7022, 3583.868
234.1843, 3614.590
234.6664, 3636.685
235.1485, 3650.035
235.6306, 3652.383
236.1128, 3642.369
236.5949, 3622.713
237.0770, 3594.801
237.5591, 3553.725
238.0412, 3514.046
238.5233, 3479.031
239.0055, 3448.543
239.4876, 3416.857
239.9697, 3381.151
240.4518, 3347.030
240.9339, 3319.650
241.4160, 3301.469
241.8982, 3285.203
242.3803, 3269.107
242.8624, 3253.274
243.3445, 3242.464
243.8266, 3235.159
244.3087, 3234.387
244.7909, 3243.762
245.2730, 3269.318
245.7551, 3292.690
246.2372, 3309.823
246.7193, 3321.434
247.2014, 3338.623
247.6836, 3365.805
248.1657, 3392.954
248.6478, 3412.237
249.1299, 3422.197
249.6120, 3427.770
250.0941, 3429.602
250.5762, 3427.600
251.0584, 3420.828
251.5405, 3409.067
252.0226, 3392.989
252.5047, 3372.653
252.9868, 3345.702
253.4689, 3319.750
253.9511, 3294.748
254.4332, 3271.175
254.9153, 3251.615
255.3974, 3234.285
255.8795, 3223.800
256.3617, 3224.157
256.8438, 3239.228
257.3259, 3254.951
257.8080, 3269.749
258.2901, 3284.408
258.7722, 3303.292
259.2544, 3329.549
259.7365, 3354.780
260.2186, 3374.811
260.7007, 3388.471
261.1828, 3399.668
261.6649, 3408.498
262.1471, 3414.890
262.6292, 3418.609
263.1113, 3418.546
263.5934, 3417.833
264.0755, 3418.413
264.5576, 3421.351
265.0398, 3421.452
265.5219, 3417.687
266.0040, 3411.627
266.4861, 3406.089
266.9682, 3399.998
267.4503, 3397.357
267.9325, 3401.561
268.4146, 3415.270
268.8967, 3423.513
269.3788, 3424.437
269.8609, 3421.855
270.3430, 3424.269
270.8252, 3434.597
271.3073, 3440.176
271.7894, 3433.705
272.2715, 3413.611
272.7536, 3399.014
273.2357, 3391.594
273.7179, 3387.333
274.2000, 3380.510
274.6821, 3371.061
275.1642, 3359.143
275.6463, 3344.284
276.1284, 3326.454
276.6106, 3308.831
277.0927, 3291.865
277.5748, 3274.114
278.0569, 3252.885
278.5390, 3227.684
279.0211, 3203.840
279.5032, 3182.482
279.9854, 3163.981
280.4675, 3150.037
280.9496, 3140.989
281.4317, 3135.458
281.9138, 3132.808
282.3959, 3133.159
282.8781, 3133.225
283.3602, 3130.509
283.8423, 3127.112
284.3244, 3133.363
284.8065, 3150.367
285.2886, 3170.066
285.7708, 3183.695
286.2529, 3191.795
286.7350, 3205.086
287.2171, 3226.322
287.6992, 3253.866
288.1813, 3283.758
288.6635, 3316.214
289.1456, 3348.855
289.6277, 3377.997
290.1098, 3404.879
290.5919, 3437.326
291.0740, 3478.034
291.5562, 3523.179
292.0383, 3564.311
292.5204, 3601.988
293.0025, 3640.464
293.4846, 3683.638
293.9667, 3730.365
294.4489, 3777.268
294.9310, 3824.084
295.4131, 3869.501
295.8952, 3910.682
296.3773, 3948.025
296.8594, 3984.846
297.3416, 4022.231
297.8237, 4060.977
298.3058, 4103.543
298.7879, 4151.329
299.2700, 4198.443
299.7521, 4236.726
300.2343, 4267.995
300.7164, 4296.108
301.1985, 4323.984
301.6806, 4349.868
302.1627, 4370.484
302.6448, 4385.783
303.1270, 4397.158
303.6091, 4407.145
304.0912, 4414.172
304.5733, 4415.469
305.0554, 4406.952
305.5375, 4393.619
306.0197, 4382.911
306.5018, 4374.429
306.9839, 4359.888
307.4660, 4333.179
307.9481, 4296.661
308.4302, 4253.823
308.9124, 4205.372
309.3945, 4150.825
309.8766, 4085.782
310.3587, 4011.964
310.8408, 3941.557
311.3229, 3881.310
311.8051, 3827.827
312.2872, 3779.485
312.7693, 3736.617
313.2514, 3696.820
313.7335, 3656.761
314.2156, 3618.130
314.6978, 3585.288
315.1799, 3562.628
315.6620, 3544.871
316.1441, 3529.088
316.6262, 3515.018
317.1083, 3501.765
317.5905, 3486.561
318.0726, 3472.164
318.5547, 3463.215
319.0368, 3462.688
319.5189, 3467.059
320.0010, 3475.831
320.4832, 3489.995
320.9653, 3503.012
321.4474, 3511.007
321.9295, 3517.583
322.4116, 3526.962
322.8937, 3539.712
323.3759, 3555.802
323.8580, 3576.186
324.3401, 3600.904
324.8222, 3626.009
325.3043, 3650.501
325.7864, 3675.430
326.2686, 3701.606
326.7507, 3728.715
327.2328, 3757.505
327.7149, 3786.617
328.1970, 3816.335
328.6791, 3852.766
329.1613, 3901.911
329.6434, 3952.637
330.1255, 3998.970
330.6076, 4030.749
331.0897, 4072.875
331.5718, 4129.545
332.0540, 4196.757
332.5361, 4263.646
333.0182, 4330.528
333.5003, 4397.612
333.9824, 4464.240
334.4645, 4530.490
334.9467, 4597.967
335.4288, 4668.402
335.9109, 4738.461
336.3930, 4802.090
336.8751, 4861.548
337.3572, 4910.643
337.8394, 4947.847
338.3215, 4972.757
338.8036, 4988.878
339.2857, 4996.925
339.7678, 4994.916
340.2499, 4977.457
340.7321, 4941.876
341.2142, 4908.747
341.6963, 4883.716
342.1784, 4864.797
342.6605, 4841.834
343.1426, 4813.551
343.6248, 4787.983
344.1069, 4770.250
344.5890, 4760.561
345.0711, 4761.341
345.5532, 4774.066
346.0353, 4795.884
346.5175, 4820.769
346.9996, 4848.944
347.4817, 4881.919
347.9638, 4921.558
348.4459, 4966.921
348.9280, 5014.833
349.4102, 5064.951
349.8923, 5117.367
350.3744, 5170.245
350.8565, 5224.229
351.3386, 5283.246
351.8207, 5355.172
352.3029, 5430.628
352.7850, 5494.654
353.2671, 5547.548
353.7492, 5595.431
354.2313, 5643.228
354.7134, 5689.765
355.1956, 5733.917
355.6777, 5777.708
356.1598, 5816.128
356.6419, 5844.293
357.1240, 5863.052
357.6061, 5876.757
358.0883, 5891.645
358.5704, 5901.194
359.0525, 5898.396
359.5346, 5879.827
360.0167, 5852.468
360.4988, 5816.628
360.9810, 5774.958
361.4631, 5733.635
361.9452, 5691.988
362.4273, 5653.644
362.9094, 5620.519
363.3915, 5592.891
363.8737, 5569.737
364.3558, 5550.738
364.8379, 5536.139
365.3200, 5526.380
365.8021, 5525.604
366.2842, 5525.678
366.7664, 5524.768
367.2485, 5522.831
367.7306, 5519.989
368.2127, 5516.350
368.6948, 5511.923
369.1769, 5506.728
369.6591, 5506.961
370.1412, 5498.934
370.6233, 5480.375
371.1054, 5452.894
371.5875, 5422.110
372.0696, 5386.680
372.5518, 5349.991
373.0339, 5313.052
373.5160, 5275.461
373.9981, 5237.829
374.4802, 5197.214
374.9623, 5158.431
375.4445, 5130.125
375.9266, 5114.147
376.4087, 5102.742
376.8908, 5093.826
377.3729, 5087.364
377.8550, 5085.023
378.3372, 5087.972
378.8193, 5091.969
379.3014, 5092.341
379.7835, 5088.872
380.2656, 5086.644
380.7477, 5086.705
381.2299, 5088.459
381.7120, 5094.710
382.1941, 5105.699
382.6762, 5106.025
383.1583, 5079.332
383.6404, 5032.012
384.1226, 4990.297
384.6047, 4957.500
385.0868, 4927.804
385.5689, 4894.595
386.0510, 4858.214
386.5331, 4819.607
387.0153, 4777.786
387.4974, 4734.295
387.9795, 4690.967
388.4616, 4647.880
388.9437, 4604.870
389.4258, 4561.372
389.9080, 4517.927
390.3901, 4476.087
390.8722, 4437.492
391.3543, 4399.276
391.8364, 4358.804
392.3185, 4317.269
392.8007, 4277.657
393.2828, 4237.875
393.7649, 4202.768
394.2470, 4177.005
394.7291, 4163.788
395.2112, 4152.693
395.6934, 4138.969
396.1755, 4125.221
396.6576, 4115.388
397.1397, 4110.776
397.6218, 4109.791
398.1039, 4115.376
398.5861, 4128.906
399.0682, 4132.411
399.5503, 4115.100
400.0324, 4092.510
400.5145, 4076.316
400.9966, 4072.464
401.4788, 4066.741
401.9609, 4058.438
402.4430, 4047.661
402.9251, 4034.378
403.4072, 4016.656
403.8893, 3999.361
404.3714, 3985.049
404.8535, 3974.492
405.3357, 3962.849
405.8178, 3948.870
406.2999, 3935.574
406.7820, 3927.829
407.2641, 3926.348
407.7462, 3926.172
408.2284, 3925.717
408.7105, 3925.376
409.1926, 3926.849
409.6747, 3930.069
410.1568, 3935.673
410.6389, 3944.152
411.1211, 3955.455
411.6032, 3969.773
412.0853, 3987.542
412.5674, 4007.771
413.0495, 4028.204
413.5316, 4049.813
414.0138, 4076.708
414.4959, 4113.224
414.9780, 4156.095
415.4601, 4200.265
415.9422, 4245.854
416.4243, 4292.524
416.9065, 4341.898
417.3886, 4392.001
417.8707, 4438.715
418.3528, 4474.677
418.8349, 4512.993
419.3170, 4566.478
419.7992, 4631.913
420.2813, 4691.335
420.7634, 4732.872
421.2455, 4769.702
421.7276, 4811.302
422.2097, 4863.497
422.6919, 4910.856
423.1740, 4951.961
423.6561, 4985.560
424.1382, 5010.708
424.6203, 5023.036
425.1024, 5030.397
425.5846, 5035.017
426.0667, 5037.098
426.5488, 5033.116
427.0309, 5021.044
427.5130, 5004.629
427.9951, 4986.290
428.4773, 4965.954
428.9594, 4943.905
429.4415, 4920.150
429.9236, 4894.869
430.4057, 4867.723
430.8878, 4838.390
431.3700, 4808.821
431.8521, 4780.476
432.3342, 4753.391
432.8163, 4722.672
433.2984, 4687.441
433.7805, 4651.777
434.2627, 4624.722
434.7448, 4604.387
435.2269, 4570.776
435.7090, 4514.376
436.1911, 4445.515
436.6732, 4383.991
437.1554, 4329.013
437.6375, 4276.703
438.1196, 4224.554
438.6017, 4173.298
439.0838, 4124.216
439.5659, 4077.316
440.0481, 4032.297
440.5302, 3987.180
441.0123, 3943.504
441.4944, 3903.868
441.9765, 3868.012
442.4586, 3837.649
442.9408, 3814.853
443.4229, 3799.323
443.9050, 3786.622
444.3871, 3776.984
444.8692, 3768.470
445.3513, 3759.454
445.8335, 3746.845
446.3156, 3738.862
446.7977, 3737.742
447.2798, 3742.072
447.7619, 3749.542
448.2440, 3765.707
448.7262, 3778.650
449.2083, 3784.435
449.6904, 3782.607
450.1725, 3783.976
450.6546, 3792.292
451.1367, 3799.127
451.6189, 3797.063
452.1010, 3782.649
452.5831, 3771.478
453.0652, 3766.462
453.5473, 3763.814
454.0294, 3755.200
454.5116, 3740.382
454.9937, 3721.049
455.4758, 3695.764
455.9579, 3665.940
456.4400, 3638.474
456.9221, 3612.993
457.4043, 3590.954
457.8864, 3574.618
458.3685, 3562.764
458.8506, 3551.047
459.3327, 3537.370
459.8148, 3525.274
460.2970, 3520.672
460.7791, 3521.575
461.2612, 3521.572
461.7433, 3514.778
462.2254, 3506.969
462.7076, 3503.576
463.1897, 3505.353
463.6718, 3508.105
464.1539, 3509.060
464.6360, 3510.187
465.1181, 3513.438
465.6003, 3525.612
466.0824, 3533.204
466.5645, 3529.364
467.0466, 3517.344
467.5287, 3509.646
468.0108, 3510.884
468.4930, 3513.779
468.9751, 3516.285
469.4572, 3519.061
469.9393, 3518.811
470.4214, 3514.875
470.9035, 3508.426
471.3857, 3500.003
471.8678, 3488.023
472.3499, 3479.290
472.8320, 3476.169
473.3141, 3476.472
473.7962, 3471.938
474.2784, 3461.935
474.7605, 3451.874
475.2426, 3445.482
475.7247, 3442.043
476.2068, 3436.787
476.6889, 3429.180
477.1711, 3422.124
477.6532, 3419.412
478.1353, 3419.890
478.6174, 3420.300
479.0995, 3419.050
479.5816, 3417.843
480.0638, 3418.613
480.5459, 3421.045
481.0280, 3424.056
481.5101, 3427.635
481.9922, 3431.084
482.4743, 3434.197
482.9565, 3437.234
483.4386, 3438.104
483.9207, 3431.626
484.4028, 3424.337
484.8849, 3423.134
485.3670, 3436.047
485.8492, 3447.885
486.3313, 3455.219
486.8134, 3458.977
487.2955, 3464.293
487.7776, 3475.192
488.2597, 3482.781
488.7419, 3481.997
489.2240, 3469.728
489.7061, 3464.762
490.1882, 3469.141
490.6703, 3477.850
491.1524, 3485.551
491.6346, 3492.066
492.1167, 3499.137
492.5988, 3507.177
493.0809, 3515.959
493.5630, 3525.335
494.0451, 3535.281
494.5273, 3544.009
495.0094, 3550.196
495.4915, 3554.468
495.9736, 3558.741
496.4557, 3563.173
496.9378, 3565.898
497.4200, 3564.100
497.9021, 3559.797
498.3842, 3555.883
498.8663, 3551.861
499.3484, 3550.434
499.8305, 3556.947
500.3127, 3567.675
500.7948, 3573.092
501.2769, 3565.667
501.7590, 3555.728
502.2411, 3547.495
502.7232, 3541.219
503.2054, 3536.700
503.6875, 3536.000
504.1696, 3535.744
504.6517, 3533.500
505.1338, 3528.384
505.6159, 3522.852
506.0981, 3517.686
506.5802, 3511.852
507.0623, 3502.442
507.5444, 3487.937
508.0265, 3474.247
508.5086, 3463.658
508.9908, 3455.775
509.4729, 3447.642
509.9550, 3439.360
510.4371, 3430.406
510.9192, 3419.199
511.4013, 3406.787
511.8835, 3398.274
512.3655, 3395.689
512.8477, 3393.003
513.3298, 3381.109
513.8119, 3363.596
514.2940, 3348.945
514.7761, 3342.424
515.2582, 3339.225
515.7404, 3336.955
516.2225, 3335.230
516.7046, 3331.738
517.1867, 3324.631
517.6688, 3315.970
518.1509, 3306.921
518.6331, 3297.328
519.1152, 3287.993
519.5973, 3277.982
520.0794, 3268.678
520.5615, 3261.949
521.0436, 3259.003
521.5258, 3256.563
522.0079, 3254.324
522.4900, 3252.152
522.9721, 3249.243
523.4542, 3245.101
523.9363, 3241.779
524.4185, 3240.430
524.9006, 3241.062
525.3827, 3243.538
525.8648, 3248.693
526.3469, 3251.863
526.8290, 3245.665
527.3112, 3232.701
527.7933, 3222.672
528.2754, 3217.871
528.7575, 3216.946
529.2396, 3219.605
529.7217, 3224.977
530.2039, 3230.391
530.6860, 3236.898
531.1681, 3241.125
531.6502, 3238.292
532.1323, 3228.434
532.6144, 3222.872
533.0966, 3230.510
533.5787, 3241.047
534.0608, 3247.231
534.5429, 3244.991
535.0250, 3242.996
535.5071, 3240.349
535.9893, 3238.886
536.4714, 3241.723
536.9535, 3251.427
537.4356, 3260.516
537.9177, 3267.390
538.3998, 3272.335
538.8820, 3276.416
539.3641, 3279.420
539.8462, 3282.414
540.3283, 3286.334
540.8104, 3290.929
541.2925, 3294.276
541.7747, 3296.128
542.2568, 3297.747
542.7389, 3300.320
543.2210, 3303.712
543.7031, 3307.433
544.1852, 3310.608
544.6674, 3315.282
545.1495, 3326.678
545.6316, 3341.244
546.1137, 3350.078
546.5958, 3343.851
547.0779, 3335.380
547.5601, 3330.350
548.0422, 3329.140
548.5243, 3331.852
549.0064, 3343.064
549.4885, 3354.947
549.9706, 3362.757
550.4528, 3365.997
550.9349, 3365.596
551.4170, 3359.206
551.8991, 3350.943
552.3812, 3347.461
552.8633, 3350.309
553.3455, 3351.412
553.8276, 3348.296
554.3097, 3342.403
554.7918, 3338.198
555.2739, 3335.766
555.7560, 3334.167
556.2382, 3335.000
556.7203, 3335.919
557.2024, 3330.639
557.6845, 3318.757
558.1666, 3306.052
558.6487, 3295.941
559.1309, 3288.443
559.6130, 3284.043
560.0951, 3284.113
560.5772, 3284.701
561.0593, 3284.903
561.5414, 3284.177
562.0236, 3281.593
562.5057, 3275.242
562.9878, 3268.700
563.4699, 3262.392
563.9520, 3256.445
564.4341, 3252.150
564.9163, 3251.046
565.3984, 3249.355
565.8805, 3244.408
566.3626, 3234.963
566.8447, 3230.387
567.3268, 3231.912
567.8090, 3234.647
568.2911, 3231.855
568.7732, 3224.405
569.2553, 3220.639
569.7374, 3223.155
570.2195, 3228.182
570.7017, 3231.263
571.1838, 3232.589
571.6659, 3232.722
572.1480, 3231.152
572.6301, 3229.111
573.1122, 3227.108
573.5944, 3225.302
574.0765, 3224.909
574.5586, 3228.250
575.0407, 3231.851
575.5228, 3233.415
576.0049, 3231.625
576.4871, 3230.724
576.9692, 3231.556
577.4513, 3233.101
577.9334, 3234.554
578.4155, 3236.211
578.8976, 3237.102
579.3798, 3237.262
579.8619, 3236.515
580.3440, 3233.307
580.8261, 3227.240
581.3082, 3224.152
581.7903, 3228.248
582.2725, 3236.684
582.7546, 3241.155
583.2367, 3241.864
583.7188, 3241.158
584.2009, 3238.789
584.6830, 3236.827
585.1652, 3238.542
585.6473, 3244.829
586.1294, 3251.421
586.6115, 3255.520
587.0936, 3258.753
587.5757, 3262.777
588.0579, 3268.391
588.5400, 3274.308
589.0221, 3281.727
589.5042, 3289.105
589.9863, 3292.833
590.4684, 3290.229
590.9506, 3288.131
591.4327, 3287.797
591.9148, 3289.330
592.3969, 3294.672
592.8790, 3305.032
593.3611, 3314.141
593.8433, 3317.725
594.3254, 3316.457
594.8075, 3313.145
595.2896, 3307.576
595.7717, 3303.609
596.2538, 3307.054
596.7360, 3314.423
597.2181, 3319.016
597.7002, 3317.386
598.1823, 3316.322
598.6644, 3322.554
599.1465, 3332.078
599.6287, 3338.029
600.1108, 3332.574
600.5929, 3328.951
601.0750, 3332.358
601.5571, 3341.984
602.0392, 3350.030
602.5214, 3357.585
603.0035, 3361.908
603.4856, 3360.430
603.9677, 3352.343
604.4498, 3350.171
604.9319, 3355.208
605.4141, 3361.940
605.8962, 3365.060
606.3783, 3365.152
606.8604, 3365.940
607.3425, 3367.969
607.8246, 3370.412
608.3068, 3372.463
608.7889, 3374.159
609.2710, 3375.491
609.7531, 3375.751
610.2352, 3376.495
610.7173, 3379.318
611.1995, 3383.503
611.6816, 3387.100
612.1637, 3391.675
612.6458, 3393.559
613.1279, 3389.642
613.6100, 3379.673
614.0922, 3374.265
614.5743, 3376.219
615.0564, 3379.024
615.5385, 3378.575
616.0206, 3373.725
616.5027, 3372.938
616.9849, 3377.137
617.4670, 3382.659
617.9491, 3385.483
618.4312, 3385.930
618.9133, 3385.068
619.3954, 3382.316
619.8776, 3380.417
620.3597, 3383.985
620.8418, 3390.889
621.3239, 3396.315
621.8060, 3396.869
622.2881, 3396.698
622.7703, 3398.957
623.2524, 3402.705
623.7345, 3404.071
624.2166, 3400.448
624.6987, 3395.643
625.1808, 3390.114
625.6630, 3383.465
626.1451, 3381.550
626.6272, 3386.684
627.1093, 3392.673
627.5914, 3394.853
628.0735, 3392.863
628.5557, 3392.395
629.0378, 3394.020
629.5199, 3396.018
630.0020, 3396.817
630.4841, 3396.402
630.9662, 3394.431
631.4484, 3390.208
631.9305, 3385.889
632.4126, 3383.996
632.8947, 3383.601
633.3768, 3382.728
633.8589, 3377.272
634.3411, 3374.597
634.8232, 3380.025
635.3053, 3391.942
635.7874, 3400.389
636.2695, 3401.471
636.7516, 3401.994
637.2338, 3404.317
637.7159, 3408.544
638.1980, 3410.546
638.6801, 3408.775
639.1622, 3408.874
639.6443, 3418.648
640.1265, 3435.998
640.6086, 3441.712
641.0907, 3432.692
641.5728, 3421.434
642.0549, 3421.016
642.5370, 3427.779
643.0192, 3435.422
643.5013, 3443.640
643.9834, 3449.682
644.4655, 3450.719
644.9476, 3448.744
645.4297, 3447.149
645.9119, 3446.067
646.3940, 3446.470
646.8761, 3448.847
647.3582, 3453.001
647.8403, 3458.697
648.3224, 3468.282
648.8046, 3474.778
649.2867, 3474.328
649.7688, 3467.988
650.2509, 3466.311
650.7330, 3469.644
651.2151, 3473.702
651.6973, 3475.105
652.1794, 3474.880
652.6615, 3475.321
653.1436, 3476.601
653.6257, 3478.414
654.1078, 3480.070
654.5900, 3482.326
655.0721, 3486.379
655.5542, 3494.111
656.0363, 3500.215
656.5184, 3501.754
657.0005, 3501.202
657.4827, 3501.820
657.9648, 3504.656
658.4469, 3506.923
658.9290, 3507.464
659.4111, 3507.682
659.8932, 3511.750
660.3754, 3520.245
660.8575, 3527.389
661.3396, 3530.198
661.8217, 3530.707
662.3038, 3533.987
662.7859, 3539.729
663.2681, 3545.956
663.7502, 3554.239
664.2323, 3560.558
664.7144, 3558.654
665.1965, 3548.691
665.6786, 3542.373
666.1608, 3548.838
666.6429, 3557.517
667.1250, 3561.660
667.6071, 3558.599
668.0892, 3556.634
668.5714, 3556.317
669.0535, 3556.597
669.5356, 3556.361
670.0177, 3555.380
670.4998, 3556.008
670.9819, 3558.984
671.4641, 3562.332
671.9462, 3562.740
672.4283, 3560.928
672.9104, 3559.719
673.3925, 3559.947
673.8746, 3561.049
674.3568, 3562.859
674.8389, 3565.049
675.3210, 3566.941
675.8031, 3568.136
676.2852, 3569.003
676.7673, 3568.846
677.2495, 3568.136
677.7316, 3569.808
678.2137, 3575.834
678.6958, 3581.540
679.1779, 3585.250
679.6600, 3587.073
680.1422, 3588.537
680.6243, 3589.553
681.1064, 3590.905
681.5885, 3593.069
682.0706, 3596.060
682.5527, 3600.649
683.0349, 3607.044
683.5170, 3611.750
683.9991, 3609.228
684.4812, 3605.035
684.9633, 3606.171
685.4454, 3616.260
685.9276, 3624.424
686.4097, 3623.811
686.8918, 3620.985
687.3739, 3623.279
687.8560, 3634.459
688.3381, 3644.478
688.8203, 3653.058
689.3024, 3660.055
689.7845, 3664.218
690.2666, 3665.120
690.7487, 3668.999
691.2308, 3678.150
691.7130, 3689.917
692.1951, 3701.865
692.6772, 3713.009
693.1593, 3720.170
693.6414, 3715.430
694.1235, 3711.329
694.6057, 3720.048
695.0878, 3738.521
695.5699, 3753.787
696.0520, 3760.801
696.5341, 3764.803
697.0162, 3766.159
697.4984, 3765.045
697.9805, 3769.355
698.4626, 3780.923
698.9447, 3794.400
699.4268, 3807.634
699.9089, 3820.581
700.3911, 3829.739
700.8732, 3834.848
701.3553, 3839.595
701.8374, 3846.150
702.3195, 3854.863
702.8016, 3867.072
703.2838, 3883.556
703.7659, 3899.235
704.2480, 3911.704
704.7301, 3921.452
705.2122, 3928.778
705.6943, 3931.618
706.1765, 3935.408
706.6586, 3938.721
707.1407, 3944.394
707.6228, 3957.272
708.1049, 3980.295
708.5870, 3998.105
709.0692, 4007.308
709.5513, 4012.122
710.0334, 4019.490
710.5155, 4028.986
710.9976, 4038.184
711.4797, 4046.040
711.9618, 4053.448
712.4439, 4061.625
712.9260, 4070.021
713.4081, 4077.512
713.8903, 4082.321
714.3724, 4087.493
714.8545, 4093.891
715.3366, 4101.739
715.8187, 4111.726
716.3008, 4126.573
716.7830, 4139.010
717.2651, 4145.900
717.7472, 4148.122
718.2293, 4152.203
718.7114, 4158.183
719.1935, 4165.557
719.6757, 4175.447
720.1578, 4186.045
720.6399, 4193.805
721.1220, 4198.663
721.6041, 4203.044
722.0862, 4204.967
722.5684, 4209.292
723.0505, 4222.034
723.5326, 4247.017
724.0147, 4263.467
724.4968, 4258.855
724.9789, 4252.822
725.4611, 4258.503
725.9432, 4280.323
726.4253, 4296.738
726.9074, 4307.356
727.3895, 4314.131
727.8716, 4316.503
728.3538, 4316.496
728.8359, 4322.684
729.3180, 4337.407
729.8001, 4354.536
730.2822, 4370.343
730.7643, 4384.679
731.2465, 4396.695
731.7286, 4401.666
732.2107, 4411.311
732.6928, 4431.835
733.1749, 4457.927
733.6570, 4481.149
734.1392, 4499.765
734.6213, 4518.519
735.1034, 4537.962
735.5855, 4557.736
736.0676, 4576.575
736.5497, 4594.628
737.0319, 4614.928
737.5140, 4639.177
737.9961, 4664.856
738.4782, 4689.060
738.9603, 4712.006
739.4424, 4734.185
739.9246, 4756.730
740.4067, 4777.792
740.8888, 4794.325
741.3709, 4808.013
741.8530, 4827.663
742.3351, 4859.382
742.8173, 4888.074
743.2994, 4908.318
743.7815, 4922.197
744.2636, 4942.065
744.7457, 4968.445
745.2278, 4993.453
745.7100, 5009.338
746.1921, 5021.583
746.6742, 5041.159
747.1563, 5067.269
747.6384, 5093.626
748.1205, 5118.567
748.6027, 5141.216
749.0848, 5159.640
749.5669, 5173.509
750.0490, 5189.409
750.5311, 5209.977
751.0132, 5230.673
751.4954, 5249.454
751.9775, 5266.200
752.4596, 5283.380
752.9417, 5301.021
753.4238, 5319.965
753.9059, 5344.414
754.3881, 5370.562
754.8702, 5387.608
755.3523, 5394.503
755.8344, 5401.265
756.3165, 5416.729
756.7986, 5434.418
757.2808, 5448.008
757.7629, 5455.076
758.2450, 5464.354
758.7271, 5480.413
759.2092, 5496.697
759.6913, 5509.366
760.1735, 5518.593
760.6556, 5522.096
761.1377, 5518.525
761.6198, 5513.104
762.1019, 5512.481
762.5840, 5514.743
763.0662, 5513.406
763.5483, 5506.826
764.0304, 5499.503
764.5125, 5496.442
764.9946, 5494.293
765.4767, 5489.337
765.9589, 5480.842
766.4410, 5469.146
766.9231, 5452.393
767.4052, 5433.758
767.8873, 5415.750
768.3694, 5398.114
768.8516, 5383.688
769.3337, 5373.529
769.8158, 5365.036
770.2979, 5354.558
770.7800, 5342.495
771.2621, 5330.389
771.7443, 5318.965
772.2264, 5306.817
772.7085, 5288.225
773.1906, 5269.436
773.6727, 5259.772
774.1548, 5271.348
774.6370, 5280.622
775.1191, 5280.044
775.6012, 5276.719
776.0833, 5281.892
776.5654, 5297.011
777.0475, 5314.860
777.5297, 5333.937
778.0118, 5355.642
778.4939, 5381.964
778.9760, 5412.956
779.4581, 5448.772
779.9402, 5487.506
780.4224, 5533.333
780.9045, 5589.224
781.3866, 5654.034
781.8687, 5725.360
782.3508, 5804.842
782.8329, 5888.150
783.3151, 5971.892
783.7972, 6058.606
784.2793, 6156.220
784.7614, 6264.821
785.2435, 6378.823
785.7256, 6496.384
786.2078, 6619.286
786.6899, 6748.443
787.1720, 6885.730
787.6541, 7029.820
788.1362, 7186.298
788.6183, 7347.699
789.1005, 7502.346
789.5826, 7657.913
790.0647, 7829.083
790.5468, 8022.179
791.0289, 8232.163
791.5110, 8456.061
791.9932, 8694.413
792.4753, 8938.738
792.9574, 9190.811
793.4395, 9451.186
793.9216, 9726.334
794.4037, 10008.55
794.8859, 10283.63
795.3680, 10553.69
795.8501, 10812.85
796.3322, 11072.48
796.8143, 11310.62
797.2964, 11520.35
797.7786, 11700.73
798.2607, 11840.57
798.7428, 11936.24
799.2249, 11998.87
799.7070, 12032.05
800.1891, 12024.89
800.6713, 11994.18
801.1534, 11913.28
801.6355, 11803.97
802.1176, 11665.47
802.5997, 11507.94
803.0818, 11346.00
803.5640, 11177.64
804.0461, 10996.65
804.5282, 10783.71
805.0103, 10575.10
805.4924, 10382.18
805.9745, 10205.77
806.4567, 10038.25
806.9388, 9875.199
807.4209, 9733.928
807.9030, 9620.394
808.3851, 9531.308
808.8672, 9455.303
809.3494, 9393.356
809.8315, 9354.875
810.3136, 9350.236
810.7957, 9366.154
811.2778, 9392.866
811.7599, 9429.373
812.2421, 9472.916
812.7242, 9514.803
813.2063, 9572.610
813.6884, 9660.925
814.1705, 9769.000
814.6526, 9861.136
815.1348, 9934.471
815.6169, 10007.82
816.0990, 10091.18
816.5811, 10174.73
817.0632, 10237.84
817.5453, 10282.19
818.0275, 10313.53
818.5096, 10341.73
818.9917, 10351.42
819.4738, 10327.62
819.9559, 10277.13
820.4380, 10218.68
820.9202, 10151.42
821.4023, 10080.10
821.8844, 10003.45
822.3665, 9925.475
822.8486, 9854.712
823.3307, 9791.335
823.8129, 9747.420
824.2950, 9727.299
824.7771, 9728.463
825.2592, 9745.490
825.7413, 9780.494
826.2234, 9839.123
826.7056, 9921.458
827.1877, 10030.36
827.6698, 10177.25
828.1519, 10350.89
828.6340, 10528.93
829.1161, 10715.17
829.5983, 10893.83
830.0804, 11062.41
830.5625, 11220.90
831.0446, 11371.11
831.5267, 11512.23
832.0089, 11646.06
832.4910, 11767.76
832.9731, 11890.40
833.4552, 12023.33
833.9373, 12165.84
834.4194, 12316.11
834.9016, 12463.21
835.3837, 12634.30
835.8658, 12821.78
836.3479, 13040.42
836.8300, 13310.60
837.3121, 13631.08
837.7943, 13990.73
838.2764, 14391.01
838.7585, 14830.07
839.2406, 15315.59
839.7227, 15837.98
840.2048, 16381.44
840.6870, 16969.71
841.1691, 17530.70
841.6512, 18092.79
842.1333, 18585.12
842.6154, 18927.00
843.0975, 19152.96
843.5797, 19161.49
844.0618, 18938.27
844.5439, 18514.32
845.0260, 17884.45
845.5081, 17078.38
845.9902, 16230.69
846.4724, 15347.96
846.9545, 14514.72
847.4366, 13781.99
847.9187, 13147.61
848.4008, 12617.52
848.8829, 12190.26
849.3651, 11865.62
849.8472, 11647.13
850.3293, 11520.41
850.8114, 11481.35
851.2935, 11533.03
851.7756, 11645.50
852.2578, 11819.08
852.7399, 12043.91
853.2220, 12327.18
853.7041, 12651.24
854.1862, 13006.20
854.6683, 13390.34
855.1505, 13734.69
855.6326, 14068.63
856.1147, 14300.38
856.5968, 14380.41
857.0789, 14317.68
857.5610, 14063.63
858.0432, 13597.25
858.5253, 13010.61
859.0074, 12313.04
859.4895, 11544.36
859.9716, 10822.60
860.4537, 10145.96
860.9359, 9545.755
861.4180, 9038.861
861.9001, 8609.919
862.3822, 8254.857
862.8643, 7973.430
863.3464, 7716.355
863.8286, 7482.489
864.3107, 7271.206
864.7928, 7086.529
865.2749, 6924.995
865.7570, 6779.732
866.2391, 6649.494
866.7213, 6533.192
867.2034, 6426.044
867.6855, 6334.140
868.1676, 6265.000
868.6497, 6214.617
869.1318, 6173.741
869.6140, 6135.695
870.0961, 6110.989
870.5782, 6104.006
871.0603, 6110.157
871.5424, 6120.103
872.0245, 6134.489
872.5067, 6146.899
872.9888, 6158.031
873.4709, 6161.881
873.9530, 6152.734
874.4351, 6128.968
874.9172, 6087.565
875.3994, 6025.491
875.8815, 5947.854
876.3636, 5850.029
876.8457, 5740.114
877.3278, 5628.286
877.8099, 5509.476
878.2921, 5406.048
878.7742, 5322.080
879.2563, 5249.827
879.7384, 5177.204
880.2205, 5107.295
880.7026, 5050.415
881.1848, 5010.021
881.6669, 4973.032
882.1490, 4927.421
882.6311, 4883.304
883.1132, 4850.306
883.5953, 4834.102
884.0775, 4814.581
884.5596, 4790.759
885.0417, 4765.166
885.5238, 4738.524
886.0059, 4711.474
886.4880, 4690.570
886.9702, 4675.952
887.4523, 4659.398
887.9344, 4631.218
888.4165, 4601.188
888.8986, 4578.341
889.3807, 4563.124
889.8629, 4548.192
890.3450, 4532.787
890.8271, 4517.582
891.3092, 4503.766
891.7913, 4490.511
892.2734, 4472.063
892.7556, 4448.900
893.2377, 4427.626
893.7198, 4413.225
894.2019, 4401.252
894.6840, 4387.128
895.1661, 4371.186
895.6483, 4354.691
896.1304, 4334.690
896.6125, 4318.305
897.0946, 4308.952
897.5767, 4302.492
898.0588, 4289.630
898.5410, 4269.872
899.0231, 4252.733
899.5052, 4240.931
899.9873, 4230.790
900.4694, 4219.809
900.9515, 4206.509
901.4337, 4187.435
901.9158, 4155.681
902.3979, 4130.134
902.8800, 4121.468
903.3621, 4117.727
903.8442, 4108.860
904.3264, 4094.022
904.8085, 4079.046
905.2906, 4063.848
905.7727, 4049.266
906.2548, 4036.038
906.7369, 4023.682
907.2191, 4010.865
907.7012, 3997.413
908.1833, 3987.281
908.6654, 3985.825
909.1475, 3985.132
909.6296, 3980.792
910.1118, 3972.887
910.5939, 3964.736
911.0760, 3956.404
911.5581, 3947.731
912.0402, 3938.020
912.5223, 3928.222
913.0045, 3920.779
913.4866, 3915.098
913.9687, 3909.342
914.4508, 3901.224
914.9329, 3894.338
915.4150, 3892.050
915.8972, 3891.862
916.3793, 3887.184
916.8614, 3876.809
917.3435, 3866.667
917.8256, 3857.579
918.3077, 3850.149
918.7899, 3846.896
919.2720, 3845.919
919.7541, 3842.506
920.2362, 3834.109
920.7183, 3825.893
921.2004, 3817.832
921.6826, 3812.684
922.1647, 3814.095
922.6468, 3827.528
923.1289, 3829.775
923.6110, 3818.366
924.0931, 3803.654
924.5753, 3794.444
925.0574, 3789.735
925.5395, 3788.625
926.0216, 3790.937
926.5037, 3792.740
926.9858, 3793.094
927.4680, 3791.233
927.9501, 3785.198
928.4322, 3775.559
928.9143, 3769.564
929.3964, 3767.969
929.8785, 3767.128
930.3607, 3765.561
930.8428, 3763.536
931.3249, 3761.329
931.8070, 3759.152
932.2891, 3757.758
932.7712, 3759.667
933.2534, 3759.937
933.7355, 3754.285
934.2176, 3746.214
934.6997, 3742.884
935.1818, 3746.122
935.6639, 3748.029
936.1461, 3747.821
936.6282, 3745.530
937.1103, 3738.588
937.5924, 3730.137
938.0745, 3728.195
938.5566, 3735.798
939.0388, 3741.840
939.5209, 3738.965
940.0030, 3733.760
940.4851, 3731.060
940.9672, 3731.236
941.4493, 3730.505
941.9315, 3728.227
942.4136, 3727.755
942.8957, 3734.209
943.3778, 3742.843
943.8599, 3744.308
944.3420, 3739.288
944.8242, 3732.033
945.3063, 3718.962
945.7884, 3710.136
946.2705, 3712.983
946.7526, 3722.808
947.2347, 3726.796
947.7169, 3723.919
948.1990, 3722.878
948.6811, 3726.831
949.1632, 3731.608
949.6453, 3730.721
950.1274, 3726.343
950.6096, 3722.292
951.0917, 3718.837
951.5738, 3717.334
952.0559, 3720.845
952.5380, 3724.335
953.0201, 3722.716
953.5023, 3714.458
953.9844, 3713.607
954.4665, 3721.001
954.9486, 3729.270
955.4307, 3733.172
955.9128, 3733.922
956.3950, 3732.063
956.8771, 3728.018
957.3591, 3725.116
957.8412, 3726.273
958.3234, 3726.730
958.8055, 3724.247
959.2876, 3720.208
959.7697, 3720.177
960.2518, 3724.091
960.7339, 3728.007
961.2161, 3730.487
961.6982, 3732.439
962.1803, 3734.196
962.6624, 3736.266
963.1445, 3739.518
963.6266, 3746.600
964.1088, 3750.945
964.5909, 3751.205
965.0730, 3749.998
965.5551, 3750.047
966.0372, 3751.134
966.5193, 3750.851
967.0015, 3748.993
967.4836, 3748.479
967.9657, 3754.663
968.4478, 3760.848
968.9299, 3760.093
969.4120, 3752.085
969.8942, 3748.008
970.3763, 3749.631
970.8584, 3752.546
971.3405, 3755.617
971.8226, 3758.598
972.3047, 3761.382
972.7869, 3763.648
973.2690, 3763.986
973.7511, 3760.167
974.2332, 3756.733
974.7153, 3755.647
975.1974, 3756.747
975.6796, 3760.181
976.1617, 3768.107
976.6438, 3771.317
977.1259, 3768.179
977.6080, 3764.395
978.0901, 3766.625
978.5723, 3772.265
979.0544, 3775.926
979.5365, 3777.109
980.0186, 3778.530
980.5007, 3781.779
980.9828, 3785.288
981.4650, 3788.684
981.9471, 3791.743
982.4292, 3792.504
982.9113, 3790.612
983.3934, 3790.717
983.8755, 3796.450
984.3577, 3802.437
984.8398, 3800.602
985.3219, 3793.991
985.8040, 3788.299
986.2861, 3787.795
986.7682, 3784.495
987.2504, 3775.036
987.7325, 3765.181
988.2146, 3760.828
988.6967, 3761.785
989.1788, 3766.072
989.6609, 3773.773
990.1431, 3779.457
990.6252, 3776.634
991.1073, 3771.659
991.5894, 3770.402
992.0715, 3773.084
992.5536, 3773.814
993.0358, 3770.987
993.5179, 3769.051
994.0000, 3770.099
994.4821, 3772.259
994.9642, 3770.448
995.4464, 3765.736
995.9285, 3761.682
996.4106, 3759.124
996.8927, 3758.251
997.3748, 3759.772
997.8569, 3762.677
998.3391, 3766.088
998.8212, 3770.869
999.3033, 3772.929
999.7854, 3772.116
1000.268, 3769.081
1000.750, 3761.682
1001.232, 3753.827
1001.714, 3753.256
1002.196, 3759.308
1002.678, 3763.618
1003.160, 3760.491
1003.642, 3758.083
1004.124, 3759.172
1004.607, 3762.550
1005.089, 3765.545
1005.571, 3768.060
1006.053, 3767.083
1006.535, 3760.114
1007.017, 3754.193
1007.499, 3757.451
1007.981, 3764.626
1008.464, 3769.797
1008.946, 3771.725
1009.428, 3771.260
1009.910, 3767.740
1010.392, 3763.132
1010.874, 3757.993
1011.356, 3752.956
1011.838, 3750.229
1012.320, 3749.902
1012.803, 3752.221
1013.285, 3761.127
1013.767, 3768.860
1014.249, 3772.094
1014.731, 3771.349
1015.213, 3766.533
1015.695, 3756.469
1016.177, 3749.885
1016.659, 3748.518
1017.142, 3749.874
1017.624, 3751.211
1018.106, 3753.253
1018.588, 3757.942
1019.070, 3766.466
1019.552, 3771.348
1020.034, 3769.448
1020.516, 3765.497
1020.999, 3760.431
1021.481, 3755.070
1021.963, 3754.475
1022.445, 3758.167
1022.927, 3763.089
1023.409, 3769.656
1023.891, 3774.684
1024.373, 3774.834
1024.855, 3772.380
1025.338, 3771.538
1025.820, 3773.920
1026.302, 3773.849
1026.784, 3770.664
1027.266, 3766.126
1027.748, 3760.146
1028.230, 3754.867
1028.712, 3755.234
1029.195, 3761.322
1029.677, 3766.939
1030.159, 3769.656
1030.641, 3771.306
1031.123, 3772.500
1031.605, 3773.258
1032.087, 3773.520
1032.569, 3773.311
1033.052, 3773.162
1033.534, 3773.158
1034.016, 3773.458
1034.498, 3776.648
1034.980, 3778.995
1035.462, 3774.835
1035.944, 3757.551
1036.426, 3751.940
1036.908, 3761.690
1037.391, 3772.940
1037.873, 3775.583
1038.355, 3772.429
1038.837, 3769.910
1039.319, 3767.941
1039.801, 3765.939
1040.283, 3763.384
1040.765, 3761.068
1041.247, 3759.694
1041.730, 3758.376
1042.212, 3754.543
1042.694, 3748.086
1043.176, 3747.560
1043.658, 3755.049
1044.140, 3761.487
1044.622, 3755.191
1045.104, 3746.198
1045.587, 3745.925
1046.069, 3756.290
1046.551, 3759.193
1047.033, 3750.894
1047.515, 3743.073
1047.997, 3740.475
1048.479, 3740.854
1048.961, 3740.062
1049.443, 3738.214
1049.926, 3735.235
1050.408, 3728.412
1050.890, 3725.345
1051.372, 3735.120
1051.854, 3744.639
1052.336, 3741.872
1052.818, 3725.861
1053.300, 3716.639
1053.782, 3714.428
1054.265, 3714.713
1054.747, 3715.314
1055.229, 3716.122
1055.711, 3717.495
1056.193, 3719.029
1056.675, 3719.066
1057.157, 3716.160
1057.639, 3715.361
1058.122, 3717.820
1058.604, 3721.619
1059.086, 3725.855
1059.568, 3728.946
1060.050, 3726.581
1060.532, 3717.458
1061.014, 3710.553
1061.496, 3711.093
1061.979, 3713.023
1062.461, 3714.218
1062.943, 3714.679
1063.425, 3713.882
1063.907, 3712.053
1064.389, 3711.183
1064.871, 3712.847
1065.353, 3714.355
1065.835, 3712.686
1066.318, 3710.189
1066.800, 3710.152
1067.282, 3714.094
1067.764, 3715.448
1068.246, 3713.615
1068.728, 3711.844
1069.210, 3712.616
1069.692, 3714.961
1070.174, 3718.063
1070.657, 3721.425
1071.139, 3723.502
1071.621, 3721.104
1072.103, 3721.290
1072.585, 3727.214
1073.067, 3733.540
1073.549, 3730.543
1074.031, 3720.651
1074.514, 3713.902
1074.996, 3711.740
1075.478, 3712.716
1075.960, 3719.637
1076.442, 3726.075
1076.924, 3726.534
1077.406, 3722.555
1077.888, 3724.923
1078.370, 3734.284
1078.853, 3737.361
1079.335, 3726.854
1079.817, 3714.679
1080.299, 3714.648
1080.781, 3720.803
1081.263, 3725.118
1081.745, 3725.108
1082.227, 3726.500
1082.709, 3730.561
1083.192, 3732.810
1083.674, 3728.585
1084.156, 3721.097
1084.638, 3718.965
1085.120, 3720.844
1085.602, 3722.018
1086.084, 3717.180
1086.566, 3716.046
1087.048, 3723.262
1087.531, 3732.645
1088.013, 3736.098
1088.495, 3734.335
1088.977, 3736.061
1089.459, 3741.887
1089.941, 3747.340
1090.423, 3748.428
1090.905, 3748.809
1091.388, 3751.435
1091.870, 3755.488
1092.352, 3757.096
1092.834, 3755.901
1093.316, 3754.813
1093.798, 3754.464
1094.280, 3754.521
1094.762, 3754.522
1095.245, 3754.724
1095.727, 3755.717
1096.209, 3757.863
1096.691, 3758.558
1097.173, 3756.962
1097.655, 3755.626
1098.137, 3756.027
1098.619, 3757.139
1099.101, 3755.823
1099.583, 3753.290
1100.066, 3752.684
1100.548, 3756.706
1101.030, 3759.903
1101.512, 3759.288
1101.994, 3759.021
1102.476, 3763.441
1102.958, 3771.953
1103.440, 3775.032
1103.923, 3773.080
1104.405, 3771.018
1104.887, 3771.866
1105.369, 3773.323
1105.851, 3774.587
1106.333, 3775.348
1106.815, 3774.192
1107.297, 3770.047
1107.780, 3772.878
1108.262, 3784.454
1108.744, 3796.099
1109.226, 3799.779
1109.708, 3799.677
1110.190, 3799.063
1110.672, 3798.400
1111.154, 3799.421
1111.636, 3803.193
1112.119, 3805.443
1112.601, 3804.492
1113.083, 3803.244
1113.565, 3808.938
1114.047, 3816.491
1114.529, 3815.528
1115.011, 3802.599
1115.493, 3792.654
1115.975, 3789.914
1116.458, 3789.276
1116.940, 3788.831
1117.422, 3788.883
1117.904, 3792.239
1118.386, 3797.094
1118.868, 3796.920
1119.350, 3786.469
1119.832, 3776.365
1120.315, 3770.142
1120.797, 3766.951
1121.279, 3767.398
1121.761, 3771.372
1122.243, 3768.740
1122.725, 3760.041
1123.207, 3753.872
1123.689, 3757.679
1124.172, 3763.299
1124.654, 3766.823
1125.136, 3767.969
1125.618, 3766.257
1126.100, 3760.762
1126.582, 3758.172
1127.064, 3759.443
1127.546, 3758.472
1128.028, 3744.571
1128.510, 3729.891
1128.993, 3729.052
1129.475, 3739.775
1129.957, 3746.888
1130.439, 3749.622
1130.921, 3747.171
1131.403, 3737.654
1131.885, 3728.269
1132.367, 3730.377
1132.850, 3737.871
1133.332, 3741.312
1133.814, 3739.508
1134.296, 3736.976
1134.778, 3734.319
1135.260, 3731.440
1135.742, 3727.314
1136.224, 3724.206
1136.707, 3729.507
1137.189, 3739.451
1137.671, 3743.491
1138.153, 3737.582
1138.635, 3732.500
1139.117, 3733.000
1139.599, 3734.711
1140.081, 3735.512
1140.563, 3735.844
1141.046, 3738.729
1141.528, 3743.422
1142.010, 3746.144
1142.492, 3744.474
1142.974, 3742.047
1143.456, 3739.050
1143.938, 3737.505
1144.420, 3739.925
1144.902, 3746.594
1145.385, 3749.243
1145.867, 3747.968
1146.349, 3745.213
1146.831, 3738.723
1147.313, 3735.113
1147.795, 3742.806
1148.277, 3754.907
1148.759, 3759.855
1149.242, 3756.261
1149.724, 3751.010
1150.206, 3744.072
1150.688, 3740.053
1151.170, 3746.962
1151.652, 3755.203
1152.134, 3753.887
1152.616, 3746.044
1153.099, 3744.624
1153.581, 3753.134
1154.063, 3758.161
1154.545, 3757.709
1155.027, 3754.586
1155.509, 3749.805
1155.991, 3745.529
1156.473, 3744.943
1156.955, 3748.075
1157.438, 3751.658
1157.920, 3757.312
1158.402, 3757.939
1158.884, 3750.036
1159.366, 3740.868
1159.848, 3742.964
1160.330, 3750.750
1160.812, 3755.041
1161.294, 3754.236
1161.777, 3751.259
1162.259, 3744.482
1162.741, 3739.378
1163.223, 3737.170
1163.705, 3738.527
1164.187, 3749.418
1164.669, 3764.308
1165.151, 3768.672
1165.634, 3754.024
1166.116, 3746.134
1166.598, 3759.580
1167.080, 3770.495
1167.562, 3765.161
1168.044, 3749.182
1168.526, 3742.300
1169.008, 3742.550
1169.490, 3742.779
1169.973, 3740.187
1170.455, 3737.797
1170.937, 3737.008
1171.419, 3736.614
1171.901, 3736.167
1172.383, 3735.548
1172.865, 3731.859
1173.347, 3726.216
1173.829, 3724.535
1174.312, 3735.375
1174.794, 3744.063
1175.276, 3742.940
1175.758, 3738.033
1176.240, 3734.777
1176.722, 3733.081
1177.204, 3729.069
1177.686, 3723.118
1178.169, 3720.826
1178.651, 3732.053
1179.133, 3740.882
1179.615, 3734.982
1180.097, 3723.735
1180.579, 3721.502
1181.061, 3728.464
1181.543, 3731.410
1182.026, 3729.417
1182.508, 3726.665
1182.990, 3726.048
1183.472, 3725.813
1183.954, 3724.045
1184.436, 3722.087
1184.918, 3724.059
1185.400, 3730.407
1185.882, 3731.582
1186.365, 3726.175
1186.847, 3718.051
1187.329, 3705.119
1187.811, 3695.301
1188.293, 3697.929
1188.775, 3709.257
1189.257, 3714.634
1189.739, 3713.598
1190.221, 3713.658
1190.704, 3716.737
1191.186, 3718.490
1191.668, 3711.012
1192.150, 3703.295
1192.632, 3704.837
1193.114, 3714.600
1193.596, 3720.780
1194.078, 3723.229
1194.561, 3722.183
1195.043, 3716.289
1195.525, 3711.951
1196.007, 3719.796
1196.489, 3729.646
1196.971, 3729.819
1197.453, 3719.711
1197.935, 3714.555
1198.417, 3714.861
1198.900, 3716.086
1199.382, 3716.844
1199.864, 3717.492
1200.346, 3718.841
1200.828, 3720.105
1201.310, 3720.105
1201.792, 3720.551
1202.274, 3720.791
1202.756, 3719.589
1203.239, 3720.061
1203.721, 3718.227
1204.203, 3716.082
1204.685, 3715.434
1205.167, 3715.946
1205.649, 3717.475
1206.131, 3720.353
1206.613, 3721.311
1207.096, 3719.961
1207.578, 3719.917
1208.060, 3725.473
1208.542, 3730.247
1209.024, 3725.053
1209.506, 3715.253
1209.988, 3709.431
1210.470, 3708.678
1210.953, 3710.052
1211.435, 3713.947
1211.917, 3717.309
1212.399, 3717.582
1212.881, 3717.085
1213.363, 3717.202
1213.845, 3718.636
1214.327, 3723.242
1214.809, 3733.391
1215.292, 3738.024
1215.774, 3736.544
1216.256, 3733.304
1216.738, 3728.890
1217.220, 3726.422
1217.702, 3730.892
1218.184, 3738.947
1218.666, 3743.458
1219.148, 3743.382
1219.631, 3742.522
1220.113, 3740.976
1220.595, 3739.232
1221.077, 3737.836
1221.559, 3736.400
1222.041, 3733.659
1222.523, 3730.934
1223.005, 3731.488
1223.488, 3736.431
1223.970, 3739.893
1224.452, 3741.502
1224.934, 3741.786
1225.416, 3740.077
1225.898, 3738.232
1226.380, 3738.422
1226.862, 3739.596
1227.344, 3738.378
1227.827, 3733.945
1228.309, 3732.688
1228.791, 3735.341
1229.273, 3738.287
1229.755, 3736.997
1230.237, 3736.189
1230.719, 3741.430
1231.201, 3749.852
1231.683, 3752.695
1232.166, 3749.322
1232.648, 3748.175
1233.130, 3750.390
1233.612, 3751.271
1234.094, 3743.549
1234.576, 3736.311
1235.058, 3738.590
1235.540, 3745.948
1236.023, 3747.276
1236.505, 3742.477
1236.987, 3736.674
1237.469, 3730.366
1237.951, 3726.767
1238.433, 3731.196
1238.915, 3736.491
1239.397, 3736.819
1239.880, 3735.060
1240.362, 3739.258
1240.844, 3748.721
1241.326, 3751.862
1241.808, 3746.493
1242.290, 3741.434
1242.772, 3742.655
1243.254, 3745.987
1243.736, 3749.404
1244.219, 3752.954
1244.701, 3757.945
1245.183, 3763.648
1245.665, 3765.007
1246.147, 3760.781
1246.629, 3757.628
1247.111, 3762.215
1247.593, 3765.059
1248.075, 3760.816
1248.558, 3753.428
1249.040, 3752.243
1249.522, 3755.980
1250.004, 3760.270
1250.486, 3764.611
1250.968, 3765.968
1251.450, 3760.287
1251.932, 3754.447
1252.415, 3750.135
1252.897, 3748.023
1253.379, 3751.574
1253.861, 3758.201
1254.343, 3760.477
1254.825, 3756.837
1255.307, 3754.314
1255.789, 3756.267
1256.271, 3757.807
1256.754, 3757.141
1257.236, 3755.837
1257.718, 3755.921
1258.200, 3757.816
1258.682, 3764.104
1259.164, 3775.876
1259.646, 3780.232
1260.128, 3771.704
1260.610, 3764.784
1261.093, 3764.090
1261.575, 3766.463
1262.057, 3768.219
1262.539, 3769.409
1263.021, 3770.010
1263.503, 3770.007
1263.985, 3769.917
1264.467, 3769.591
1264.950, 3770.187
1265.432, 3772.560
1265.914, 3774.572
1266.396, 3772.359
1266.878, 3768.980
1267.360, 3768.101
1267.842, 3770.151
1268.324, 3772.122
1268.807, 3774.175
1269.289, 3773.890
1269.771, 3769.442
1270.253, 3766.477
1270.735, 3774.282
1271.217, 3783.314
1271.699, 3782.205
1272.181, 3773.183
1272.663, 3771.729
1273.146, 3777.716
1273.628, 3783.057
1274.110, 3786.050
1274.592, 3786.075
1275.074, 3779.215
1275.556, 3772.796
1276.038, 3772.855
1276.520, 3767.906
1277.002, 3765.263
1277.485, 3765.758
1277.967, 3761.823
1278.449, 3765.508
1278.931, 3768.414
1279.413, 3763.716
1279.895, 3759.948
1280.377, 3761.356
1280.859, 3765.822
1281.342, 3768.707
1281.824, 3770.037
1282.306, 3769.506
1282.788, 3766.643
1283.270, 3765.096
1283.752, 3766.953
1284.234, 3768.691
1284.716, 3769.400
1285.198, 3768.984
1285.681, 3768.058
1286.163, 3761.121
1286.645, 3763.410
1287.127, 3760.295
1287.609, 3756.012
1288.091, 3760.139
1288.573, 3749.845
1289.055, 3751.837
1289.537, 3757.360
1290.020, 3753.954
1290.502, 3755.666
1290.984, 3755.105
1291.466, 3751.823
1291.948, 3751.708
1292.430, 3745.460
1292.912, 3741.549
1293.394, 3742.383
1293.877, 3745.288
1294.359, 3749.399
1294.841, 3753.137
1295.323, 3755.484
1295.805, 3756.311
1296.287, 3753.490
1296.769, 3747.375
1297.251, 3744.448
1297.734, 3746.284
1298.216, 3749.134
1298.698, 3751.968
1299.180, 3753.421
1299.662, 3751.680
1300.144, 3749.266
1300.626, 3753.598
1301.108, 3762.427
1301.590, 3768.718
1302.073, 3771.368
1302.555, 3769.192
1303.037, 3752.951
1303.519, 3744.502
1304.001, 3751.769
1304.483, 3764.333
1304.965, 3769.207
##END=



