##NAMES=Vlasovite
##RRUFFID=R060913
##IDEAL CHEMISTRY=Na_2_Zr^4+^Si_4_O_11_
##LOCALITY=Kipawa complex, Quebec, Canada
##OWNER=RRUFF
##SOURCE=Royal Ontario Museum
##DESCRIPTION=Honey yellow single crystal fragment
##STATUS=The identification of this mineral has been made only by X-ray diffraction.
##URL=rruff.info/R060913
182.2741, 31941.35
182.7562, 31971.94
183.2384, 31992.35
183.7205, 31980.28
184.2026, 31960.00
184.6847, 31969.65
185.1668, 32015.26
185.6489, 32083.97
186.1311, 32194.10
186.6132, 32329.96
187.0953, 32412.25
187.5774, 32366.08
188.0595, 32264.49
188.5416, 32235.50
189.0238, 32305.62
189.5059, 32401.64
189.9880, 32466.54
190.4701, 32506.62
190.9522, 32533.53
191.4343, 32539.01
191.9165, 32537.32
192.3986, 32557.61
192.8807, 32610.30
193.3628, 32659.64
193.8449, 32664.49
194.3270, 32639.31
194.8092, 32624.51
195.2913, 32635.30
195.7734, 32663.98
196.2555, 32698.77
196.7376, 32739.80
197.2197, 32784.93
197.7019, 32840.41
198.1840, 32900.66
198.6661, 32946.79
199.1482, 32961.20
199.6303, 32962.22
200.1124, 32981.87
200.5946, 33026.93
201.0767, 33069.57
201.5588, 33085.83
202.0409, 33083.06
202.5230, 33074.07
203.0051, 33057.45
203.4873, 33038.25
203.9694, 33028.47
204.4515, 33032.72
204.9336, 33025.47
205.4157, 32971.83
205.8978, 32892.00
206.3800, 32830.38
206.8621, 32810.26
207.3442, 32808.11
207.8263, 32794.95
208.3084, 32769.93
208.7905, 32736.71
209.2727, 32683.17
209.7548, 32624.03
210.2369, 32591.76
210.7190, 32610.05
211.2011, 32647.97
211.6832, 32666.82
212.1654, 32663.72
212.6475, 32670.85
213.1296, 32717.66
213.6117, 32786.95
214.0938, 32843.20
214.5760, 32874.18
215.0581, 32896.47
215.5402, 32922.26
216.0223, 32951.52
216.5044, 32994.43
216.9865, 33071.04
217.4687, 33161.34
217.9508, 33223.79
218.4329, 33234.22
218.9150, 33239.62
219.3971, 33284.77
219.8792, 33367.86
220.3614, 33446.86
220.8435, 33500.07
221.3256, 33536.82
221.8077, 33580.95
222.2898, 33645.78
222.7719, 33699.03
223.2541, 33709.98
223.7362, 33684.22
224.2183, 33658.83
224.7004, 33646.99
225.1825, 33646.41
225.6646, 33649.18
226.1468, 33651.29
226.6289, 33663.68
227.1110, 33706.43
227.5931, 33768.13
228.0752, 33800.67
228.5573, 33771.68
229.0395, 33721.98
229.5216, 33727.53
230.0037, 33801.63
230.4858, 33880.08
230.9679, 33938.48
231.4500, 33980.04
231.9322, 34005.66
232.4143, 34005.59
232.8964, 34009.85
233.3785, 34079.83
233.8606, 34229.06
234.3427, 34357.32
234.8249, 34419.65
235.3070, 34443.59
235.7891, 34473.85
236.2712, 34521.23
236.7533, 34578.78
237.2354, 34635.50
237.7176, 34689.17
238.1997, 34756.91
238.6818, 34861.75
239.1639, 34975.02
239.6460, 35057.28
240.1281, 35100.47
240.6103, 35132.34
241.0924, 35185.44
241.5745, 35264.38
242.0566, 35330.91
242.5387, 35379.19
243.0208, 35416.31
243.5030, 35442.38
243.9851, 35459.15
244.4672, 35484.55
244.9493, 35542.50
245.4314, 35638.46
245.9135, 35687.98
246.3957, 35647.82
246.8778, 35597.79
247.3599, 35583.48
247.8420, 35607.28
248.3241, 35656.90
248.8062, 35723.59
249.2884, 35808.21
249.7705, 35917.75
250.2526, 36074.55
250.7347, 36229.65
251.2168, 36360.04
251.6989, 36470.38
252.1811, 36572.57
252.6632, 36670.25
253.1453, 36766.84
253.6274, 36892.50
254.1095, 37082.03
254.5916, 37255.86
255.0738, 37381.10
255.5559, 37479.27
256.0380, 37585.04
256.5201, 37715.05
257.0022, 37864.02
257.4843, 38017.33
257.9665, 38209.07
258.4486, 38361.88
258.9307, 38423.92
259.4128, 38464.57
259.8949, 38576.27
260.3770, 38790.01
260.8592, 39037.28
261.3413, 39186.80
261.8234, 39153.09
262.3055, 39152.20
262.7876, 39207.66
263.2697, 39277.92
263.7519, 39335.25
264.2340, 39372.32
264.7161, 39394.09
265.1982, 39407.90
265.6803, 39419.43
266.1624, 39404.72
266.6446, 39356.84
267.1267, 39292.76
267.6088, 39219.60
268.0909, 39138.19
268.5730, 39045.39
269.0551, 38929.31
269.5373, 38783.74
270.0194, 38689.36
270.5015, 38705.00
270.9836, 38720.98
271.4657, 38706.46
271.9478, 38665.73
272.4300, 38613.71
272.9121, 38555.32
273.3942, 38494.74
273.8763, 38456.49
274.3584, 38445.82
274.8405, 38452.90
275.3227, 38476.34
275.8048, 38512.23
276.2869, 38555.20
276.7690, 38601.23
277.2511, 38654.64
277.7332, 38727.07
278.2154, 38823.93
278.6975, 38924.19
279.1796, 39038.74
279.6617, 39144.88
280.1438, 39211.75
280.6259, 39224.51
281.1081, 39232.25
281.5902, 39295.13
282.0723, 39416.83
282.5544, 39550.55
283.0365, 39687.56
283.5186, 39830.86
284.0008, 39988.00
284.4829, 40160.23
284.9650, 40326.68
285.4471, 40456.41
285.9292, 40561.86
286.4113, 40708.73
286.8935, 40918.85
287.3756, 41158.66
287.8577, 41398.41
288.3398, 41638.42
288.8219, 41886.82
289.3040, 42143.69
289.7862, 42411.46
290.2683, 42693.41
290.7504, 42986.17
291.2325, 43308.91
291.7146, 43685.89
292.1967, 44109.98
292.6789, 44549.48
293.1610, 45017.20
293.6431, 45483.55
294.1252, 45923.41
294.6073, 46337.25
295.0894, 46740.88
295.5716, 47156.13
296.0537, 47563.68
296.5358, 47883.71
297.0179, 48110.04
297.5000, 48266.57
297.9821, 48393.04
298.4643, 48453.28
298.9464, 48360.36
299.4285, 48068.43
299.9106, 47629.88
300.3927, 47155.38
300.8748, 46637.37
301.3570, 46099.23
301.8391, 45513.68
302.3212, 44924.03
302.8033, 44363.54
303.2854, 43841.63
303.7675, 43370.64
304.2497, 42964.02
304.7318, 42637.29
305.2139, 42341.63
305.6960, 42093.43
306.1781, 41857.54
306.6602, 41607.47
307.1424, 41348.25
307.6245, 41105.32
308.1066, 40905.32
308.5887, 40749.82
309.0708, 40570.93
309.5529, 40309.05
310.0351, 40085.89
310.5172, 39953.93
310.9993, 39878.59
311.4814, 39801.57
311.9635, 39689.48
312.4456, 39557.68
312.9278, 39452.05
313.4099, 39380.00
313.8920, 39323.70
314.3741, 39288.98
314.8562, 39261.46
315.3383, 39220.91
315.8205, 39160.97
316.3026, 39112.90
316.7847, 39130.20
317.2668, 39224.73
317.7489, 39286.68
318.2310, 39252.08
318.7132, 39219.08
319.1953, 39262.77
319.6774, 39380.89
320.1595, 39505.06
320.6416, 39583.95
321.1237, 39630.48
321.6059, 39692.68
322.0880, 39781.64
322.5701, 39870.05
323.0522, 39928.27
323.5343, 39967.79
324.0164, 40021.81
324.4986, 40124.07
324.9807, 40230.53
325.4628, 40280.44
325.9449, 40274.24
326.4270, 40277.16
326.9091, 40336.43
327.3913, 40426.98
327.8734, 40470.39
328.3555, 40454.82
328.8376, 40411.07
329.3197, 40348.26
329.8018, 40268.15
330.2840, 40171.56
330.7661, 40058.17
331.2482, 39933.04
331.7303, 39803.02
332.2124, 39665.79
332.6945, 39530.06
333.1767, 39389.93
333.6588, 39256.30
334.1409, 39142.67
334.6230, 39048.86
335.1051, 38958.08
335.5872, 38851.71
336.0694, 38727.41
336.5515, 38611.82
337.0336, 38501.90
337.5157, 38403.29
337.9979, 38318.65
338.4800, 38246.57
338.9621, 38181.31
339.4442, 38118.08
339.9263, 38062.16
340.4084, 38035.93
340.8906, 38054.61
341.3727, 38079.77
341.8548, 38096.74
342.3369, 38120.02
342.8190, 38169.47
343.3011, 38250.06
343.7833, 38334.63
344.2654, 38385.32
344.7475, 38396.95
345.2296, 38412.55
345.7117, 38414.85
346.1938, 38445.25
346.6760, 38542.34
347.1581, 38696.17
347.6402, 38848.41
348.1223, 38958.36
348.6044, 39040.98
349.0865, 39139.06
349.5687, 39258.98
350.0508, 39379.05
350.5329, 39477.49
351.0150, 39567.10
351.4971, 39675.66
351.9792, 39836.33
352.4614, 39986.96
352.9435, 40072.30
353.4256, 40101.84
353.9077, 40124.45
354.3898, 40166.80
354.8719, 40204.44
355.3541, 40175.95
355.8362, 40066.38
356.3183, 39950.74
356.8004, 39852.33
357.2825, 39754.09
357.7646, 39631.88
358.2468, 39482.04
358.7289, 39329.93
359.2110, 39204.81
359.6931, 39116.84
360.1752, 38997.96
360.6573, 38824.69
361.1395, 38650.00
361.6216, 38485.75
362.1037, 38338.72
362.5858, 38221.02
363.0679, 38143.04
363.5500, 38091.76
364.0322, 38012.38
364.5143, 37857.11
364.9964, 37750.05
365.4785, 37731.45
365.9606, 37748.55
366.4427, 37757.95
366.9249, 37747.83
367.4070, 37728.68
367.8891, 37708.84
368.3712, 37687.11
368.8533, 37678.45
369.3354, 37686.07
369.8176, 37705.61
370.2997, 37744.20
370.7818, 37793.63
371.2639, 37826.45
371.7460, 37812.20
372.2281, 37778.34
372.7103, 37780.00
373.1924, 37822.75
373.6745, 37858.30
374.1566, 37852.76
374.6387, 37825.19
375.1208, 37820.38
375.6030, 37855.81
376.0851, 37886.80
376.5672, 37884.92
377.0493, 37861.90
377.5314, 37846.61
378.0135, 37849.46
378.4957, 37850.04
378.9778, 37817.26
379.4599, 37735.33
379.9420, 37669.11
380.4241, 37634.32
380.9063, 37603.52
381.3884, 37547.63
381.8705, 37475.43
382.3526, 37425.80
382.8347, 37431.52
383.3168, 37483.89
383.7990, 37506.50
384.2811, 37459.38
384.7632, 37430.33
385.2453, 37454.80
385.7274, 37492.87
386.2095, 37496.45
386.6917, 37450.86
387.1738, 37388.82
387.6559, 37355.31
388.1380, 37353.08
388.6201, 37360.04
389.1022, 37352.14
389.5844, 37377.00
390.0665, 37477.59
390.5486, 37637.50
391.0307, 37791.94
391.5128, 37908.32
391.9949, 37994.33
392.4771, 38067.46
392.9592, 38128.31
393.4413, 38166.66
393.9234, 38152.42
394.4055, 38121.19
394.8876, 38150.36
395.3698, 38279.79
395.8519, 38397.75
396.3340, 38422.52
396.8161, 38398.05
397.2982, 38417.73
397.7803, 38508.89
398.2625, 38623.04
398.7446, 38698.11
399.2267, 38716.61
399.7088, 38765.77
400.1909, 38858.31
400.6730, 38968.11
401.1552, 39089.68
401.6373, 39216.35
402.1194, 39337.10
402.6015, 39443.47
403.0836, 39540.89
403.5657, 39649.36
404.0479, 39782.14
404.5300, 39907.63
405.0121, 40015.25
405.4942, 40120.52
405.9763, 40241.95
406.4584, 40382.09
406.9406, 40517.56
407.4227, 40623.64
407.9048, 40701.53
408.3869, 40771.04
408.8690, 40820.60
409.3511, 40882.79
409.8333, 40962.96
410.3154, 41068.68
410.7975, 41220.97
411.2796, 41443.48
411.7617, 41697.20
412.2438, 41946.40
412.7260, 42191.18
413.2081, 42437.42
413.6902, 42690.56
414.1723, 42938.52
414.6544, 43152.55
415.1365, 43324.76
415.6187, 43500.80
416.1008, 43732.73
416.5829, 43944.91
417.0650, 44069.66
417.5471, 44100.30
418.0292, 44064.38
418.5114, 43986.77
418.9935, 43865.40
419.4756, 43656.94
419.9577, 43315.60
420.4398, 42935.03
420.9219, 42518.11
421.4041, 42075.72
421.8862, 41604.46
422.3683, 41104.02
422.8504, 40618.96
423.3325, 40218.53
423.8146, 39915.84
424.2968, 39607.71
424.7789, 39267.32
425.2610, 38942.77
425.7431, 38657.75
426.2252, 38408.69
426.7073, 38185.55
427.1895, 37992.84
427.6716, 37816.66
428.1537, 37636.04
428.6358, 37450.63
429.1179, 37289.54
429.6000, 37173.88
430.0822, 37082.10
430.5643, 36965.31
431.0464, 36806.28
431.5285, 36676.67
432.0106, 36615.16
432.4927, 36582.02
432.9749, 36535.68
433.4570, 36470.68
433.9391, 36400.66
434.4212, 36336.45
434.9033, 36278.21
435.3854, 36227.40
435.8676, 36187.91
436.3497, 36152.10
436.8318, 36109.44
437.3139, 36073.80
437.7960, 36068.60
438.2781, 36100.63
438.7603, 36138.94
439.2424, 36130.43
439.7245, 36066.21
440.2066, 36042.32
440.6887, 36095.40
441.1708, 36156.59
441.6530, 36180.69
442.1351, 36179.79
442.6172, 36187.76
443.0993, 36209.37
443.5814, 36253.43
444.0635, 36343.86
444.5457, 36475.53
445.0278, 36593.64
445.5099, 36672.76
445.9920, 36730.55
446.4741, 36796.11
446.9562, 36866.43
447.4384, 36951.23
447.9205, 37063.61
448.4026, 37183.81
448.8847, 37296.93
449.3668, 37401.02
449.8489, 37497.37
450.3311, 37589.18
450.8132, 37673.89
451.2953, 37733.75
451.7774, 37762.80
452.2595, 37774.07
452.7416, 37779.16
453.2238, 37763.68
453.7059, 37715.31
454.1880, 37631.27
454.6701, 37515.42
455.1522, 37355.59
455.6343, 37158.29
456.1165, 36994.57
456.5986, 36884.67
457.0807, 36770.64
457.5628, 36612.30
458.0449, 36423.74
458.5270, 36225.48
459.0092, 36007.50
459.4913, 35799.80
459.9734, 35614.95
460.4555, 35456.45
460.9376, 35341.20
461.4197, 35278.65
461.9019, 35226.11
462.3840, 35125.46
462.8661, 34957.78
463.3482, 34832.96
463.8303, 34790.59
464.3124, 34749.42
464.7946, 34652.44
465.2767, 34531.21
465.7588, 34459.15
466.2409, 34475.40
466.7230, 34529.38
467.2051, 34509.41
467.6873, 34391.16
468.1694, 34282.64
468.6515, 34188.87
469.1336, 34117.01
469.6157, 34079.04
470.0978, 34069.30
470.5800, 34062.43
471.0621, 34057.19
471.5442, 34040.68
472.0263, 33985.46
472.5084, 33892.13
472.9905, 33798.16
473.4727, 33717.36
473.9548, 33648.42
474.4369, 33590.22
474.9190, 33540.46
475.4011, 33503.23
475.8832, 33499.95
476.3654, 33495.12
476.8475, 33438.46
477.3296, 33341.78
477.8117, 33276.20
478.2938, 33300.50
478.7759, 33393.94
479.2581, 33437.05
479.7402, 33404.80
480.2223, 33360.58
480.7044, 33301.04
481.1865, 33244.40
481.6686, 33206.27
482.1508, 33188.65
482.6329, 33182.04
483.1150, 33183.40
483.5971, 33189.93
484.0792, 33185.25
484.5613, 33161.71
485.0435, 33161.45
485.5256, 33222.62
486.0077, 33321.00
486.4898, 33391.84
486.9719, 33426.72
487.4540, 33448.55
487.9362, 33453.79
488.4183, 33455.72
488.9004, 33475.66
489.3825, 33515.42
489.8646, 33555.91
490.3467, 33579.50
490.8289, 33586.09
491.3110, 33590.20
491.7931, 33604.99
492.2752, 33600.14
492.7573, 33555.10
493.2394, 33495.63
493.7216, 33453.06
494.2037, 33434.62
494.6858, 33416.05
495.1679, 33366.99
495.6500, 33293.04
496.1321, 33239.54
496.6143, 33224.20
497.0964, 33190.14
497.5785, 33074.32
498.0606, 32915.20
498.5427, 32809.33
499.0248, 32795.71
499.5070, 32791.02
499.9891, 32759.05
500.4712, 32708.66
500.9533, 32654.60
501.4355, 32600.08
501.9176, 32536.07
502.3997, 32446.91
502.8818, 32328.32
503.3639, 32265.29
503.8460, 32324.06
504.3282, 32364.86
504.8103, 32352.90
505.2924, 32309.22
505.7745, 32253.36
506.2566, 32191.77
506.7387, 32138.98
507.2209, 32107.42
507.7030, 32097.48
508.1851, 32120.37
508.6672, 32197.15
509.1493, 32254.54
509.6314, 32219.30
510.1136, 32128.06
510.5957, 32081.57
511.0778, 32114.38
511.5599, 32156.18
512.0420, 32181.76
512.5241, 32192.63
513.0062, 32186.90
513.4883, 32165.44
513.9705, 32139.42
514.4526, 32118.39
514.9347, 32101.64
515.4168, 32107.54
515.8989, 32166.17
516.3810, 32211.50
516.8632, 32218.33
517.3453, 32210.50
517.8274, 32216.70
518.3095, 32243.89
518.7916, 32272.59
519.2737, 32281.25
519.7559, 32274.70
520.2380, 32271.19
520.7201, 32268.92
521.2022, 32283.13
521.6843, 32331.47
522.1664, 32403.55
522.6486, 32459.69
523.1307, 32476.12
523.6128, 32513.32
524.0949, 32599.79
524.5770, 32712.75
525.0591, 32826.69
525.5413, 32937.49
526.0234, 33053.94
526.5055, 33185.21
526.9876, 33329.80
527.4697, 33477.07
527.9518, 33620.05
528.4340, 33777.29
528.9161, 33964.54
529.3982, 34160.26
529.8803, 34337.28
530.3624, 34494.74
530.8445, 34672.82
531.3267, 34908.37
531.8088, 35183.05
532.2909, 35467.14
532.7730, 35759.41
533.2551, 36046.80
533.7372, 36329.02
534.2194, 36595.96
534.7015, 36814.60
535.1836, 36983.03
535.6657, 37111.49
536.1478, 37223.45
536.6299, 37277.53
537.1121, 37230.42
537.5942, 37091.63
538.0763, 36905.52
538.5584, 36700.41
539.0405, 36468.63
539.5226, 36179.70
540.0048, 35814.45
540.4869, 35462.36
540.9690, 35151.68
541.4511, 34850.87
541.9332, 34524.71
542.4153, 34178.15
542.8975, 33858.22
543.3796, 33575.07
543.8617, 33332.64
544.3438, 33141.02
544.8259, 32993.48
545.3080, 32874.02
545.7902, 32780.76
546.2723, 32679.23
546.7544, 32506.57
547.2365, 32219.11
547.7186, 32005.24
548.2007, 31917.96
548.6829, 31839.83
549.1650, 31711.19
549.6471, 31564.93
550.1292, 31463.77
550.6113, 31435.16
551.0934, 31429.32
551.5756, 31382.77
552.0577, 31302.50
552.5398, 31239.13
553.0219, 31203.57
553.5040, 31173.26
553.9861, 31131.98
554.4683, 31081.19
554.9504, 31031.17
555.4325, 30969.23
555.9146, 30923.86
556.3967, 30923.40
556.8788, 30934.33
557.3610, 30912.09
557.8431, 30853.12
558.3252, 30791.75
558.8073, 30759.54
559.2894, 30752.91
559.7715, 30745.07
560.2537, 30736.93
560.7358, 30725.20
561.2179, 30704.26
561.7000, 30681.87
562.1821, 30660.89
562.6642, 30641.74
563.1464, 30635.79
563.6285, 30677.84
564.1106, 30717.29
564.5927, 30679.11
565.0748, 30574.76
565.5569, 30474.99
566.0391, 30410.57
566.5212, 30378.21
567.0033, 30374.85
567.4854, 30426.23
567.9675, 30444.25
568.4496, 30404.73
568.9318, 30360.84
569.4139, 30339.95
569.8960, 30332.22
570.3781, 30314.53
570.8602, 30275.40
571.3423, 30232.87
571.8245, 30216.05
572.3066, 30218.45
572.7887, 30195.19
573.2708, 30132.45
573.7529, 30070.60
574.2350, 30039.72
574.7172, 30038.63
575.1993, 30048.92
575.6814, 30087.35
576.1635, 30115.45
576.6456, 30120.98
577.1277, 30113.28
577.6099, 30093.50
578.0920, 30067.38
578.5741, 30055.17
579.0562, 30078.41
579.5383, 30126.17
580.0204, 30150.60
580.5026, 30143.20
580.9847, 30144.43
581.4668, 30167.13
581.9489, 30203.02
582.4310, 30254.60
582.9132, 30321.73
583.3953, 30349.13
583.8774, 30275.01
584.3596, 30196.10
584.8417, 30196.54
585.3238, 30251.55
585.8059, 30293.13
586.2880, 30294.95
586.7701, 30285.28
587.2523, 30306.75
587.7344, 30364.31
588.2165, 30422.12
588.6986, 30500.27
589.1807, 30551.21
589.6628, 30532.58
590.1450, 30489.75
590.6271, 30487.31
591.1092, 30544.75
591.5913, 30606.79
592.0734, 30623.09
592.5555, 30625.79
593.0377, 30672.38
593.5198, 30765.34
594.0019, 30870.89
594.4840, 30971.51
594.9661, 31063.39
595.4482, 31132.44
595.9304, 31157.37
596.4125, 31196.74
596.8946, 31244.82
597.3767, 31311.69
597.8588, 31412.21
598.3409, 31535.87
598.8231, 31658.93
599.3052, 31775.81
599.7873, 31875.33
600.2694, 31950.84
600.7515, 31999.23
601.2336, 31999.69
601.7158, 31943.05
602.1979, 31872.01
602.6800, 31823.86
603.1621, 31796.13
603.6442, 31751.50
604.1263, 31678.46
604.6085, 31605.71
605.0906, 31545.16
605.5727, 31482.12
606.0548, 31398.75
606.5369, 31297.63
607.0190, 31197.62
607.5012, 31112.04
607.9833, 31036.96
608.4654, 30965.29
608.9475, 30897.11
609.4296, 30824.52
609.9117, 30732.71
610.3939, 30660.63
610.8760, 30671.40
611.3581, 30773.21
611.8402, 30804.85
612.3223, 30710.27
612.8044, 30604.33
613.2866, 30527.55
613.7687, 30467.44
614.2508, 30400.91
614.7329, 30324.99
615.2150, 30261.22
615.6971, 30230.78
616.1793, 30230.89
616.6614, 30252.88
617.1435, 30303.77
617.6256, 30342.99
618.1077, 30354.21
618.5898, 30347.25
619.0720, 30336.55
619.5541, 30323.33
620.0362, 30297.78
620.5183, 30230.38
621.0004, 30177.00
621.4825, 30185.43
621.9647, 30229.77
622.4468, 30259.84
622.9289, 30258.25
623.4110, 30246.58
623.8931, 30256.06
624.3752, 30285.62
624.8574, 30291.41
625.3395, 30265.06
625.8216, 30236.66
626.3037, 30208.10
626.7858, 30192.83
627.2679, 30223.74
627.7501, 30322.75
628.2322, 30366.95
628.7143, 30252.35
629.1964, 30132.54
629.6785, 30151.99
630.1606, 30266.04
630.6428, 30350.32
631.1249, 30350.98
631.6070, 30301.62
632.0891, 30237.84
632.5712, 30155.62
633.0533, 30134.28
633.5355, 30200.79
634.0176, 30277.05
634.4997, 30330.27
634.9818, 30364.19
635.4639, 30383.33
635.9460, 30384.54
636.4282, 30381.42
636.9103, 30367.60
637.3924, 30359.17
637.8745, 30376.27
638.3566, 30411.73
638.8387, 30445.37
639.3209, 30467.56
639.8030, 30475.57
640.2851, 30463.15
640.7672, 30428.88
641.2493, 30381.64
641.7314, 30297.47
642.2136, 30244.38
642.6957, 30281.63
643.1778, 30369.89
643.6599, 30444.88
644.1420, 30510.67
644.6241, 30541.02
645.1063, 30504.47
645.5884, 30446.29
646.0705, 30398.33
646.5526, 30366.98
647.0347, 30358.88
647.5168, 30378.38
647.9990, 30412.93
648.4811, 30444.55
648.9632, 30474.82
649.4453, 30483.79
649.9274, 30457.99
650.4095, 30435.09
650.8917, 30428.70
651.3738, 30443.11
651.8559, 30493.60
652.3380, 30607.69
652.8201, 30688.33
653.3022, 30674.71
653.7844, 30640.04
654.2665, 30649.92
654.7486, 30695.70
655.2307, 30736.73
655.7128, 30752.52
656.1949, 30751.92
656.6771, 30746.62
657.1592, 30736.32
657.6413, 30727.90
658.1234, 30717.72
658.6055, 30720.13
659.0876, 30749.94
659.5698, 30796.74
660.0519, 30837.15
660.5340, 30883.87
661.0161, 30893.79
661.4982, 30814.79
661.9803, 30733.49
662.4625, 30727.25
662.9446, 30771.85
663.4267, 30798.74
663.9088, 30776.87
664.3909, 30735.47
664.8730, 30709.44
665.3552, 30699.20
665.8373, 30714.21
666.3194, 30762.89
666.8015, 30799.46
667.2836, 30787.58
667.7657, 30753.67
668.2479, 30765.88
668.7300, 30850.16
669.2121, 30908.56
669.6942, 30917.90
670.1763, 30914.15
670.6584, 30906.65
671.1406, 30904.17
671.6227, 30919.03
672.1048, 30955.71
672.5869, 31005.03
673.0690, 31073.89
673.5511, 31147.11
674.0333, 31157.96
674.5154, 31100.19
674.9975, 31059.99
675.4796, 31083.76
675.9617, 31141.55
676.4438, 31177.99
676.9260, 31186.35
677.4081, 31193.15
677.8902, 31192.56
678.3723, 31197.10
678.8544, 31217.62
679.3365, 31243.45
679.8187, 31262.18
680.3008, 31270.54
680.7829, 31267.27
681.2650, 31239.11
681.7471, 31204.51
682.2292, 31199.96
682.7114, 31221.55
683.1935, 31236.15
683.6756, 31229.61
684.1577, 31218.13
684.6398, 31224.97
685.1219, 31252.26
685.6041, 31280.90
686.0862, 31319.05
686.5683, 31346.87
687.0504, 31356.10
687.5325, 31355.67
688.0146, 31347.07
688.4968, 31332.75
688.9789, 31338.05
689.4610, 31397.65
689.9431, 31461.84
690.4252, 31479.03
690.9073, 31466.57
691.3895, 31467.45
691.8716, 31492.51
692.3537, 31517.69
692.8358, 31513.63
693.3179, 31487.87
693.8000, 31502.95
694.2822, 31573.40
694.7643, 31638.65
695.2464, 31672.67
695.7285, 31707.07
696.2106, 31787.10
696.6927, 31900.91
697.1749, 31967.84
697.6570, 31945.45
698.1391, 31909.40
698.6212, 31886.61
699.1033, 31869.63
699.5854, 31840.92
700.0676, 31806.03
700.5497, 31798.83
701.0318, 31849.46
701.5139, 31925.10
701.9960, 31955.15
702.4781, 31941.60
702.9603, 31942.73
703.4424, 31972.55
703.9245, 32003.58
704.4066, 32018.70
704.8887, 32018.05
705.3708, 32001.65
705.8530, 31939.77
706.3351, 31906.51
706.8172, 31927.57
707.2993, 31956.75
707.7814, 31965.57
708.2635, 31959.82
708.7457, 31956.65
709.2278, 31962.32
709.7099, 31972.12
710.1920, 31984.47
710.6741, 31996.90
711.1563, 31998.44
711.6384, 31991.30
712.1205, 32003.19
712.6026, 32051.01
713.0847, 32111.16
713.5668, 32134.58
714.0490, 32104.70
714.5311, 32116.56
715.0132, 32200.34
715.4953, 32282.00
715.9774, 32343.68
716.4595, 32383.35
716.9417, 32393.66
717.4238, 32372.57
717.9059, 32349.22
718.3880, 32308.06
718.8701, 32292.81
719.3522, 32366.44
719.8344, 32480.32
720.3165, 32540.53
720.7986, 32525.93
721.2807, 32494.18
721.7628, 32501.61
722.2449, 32536.15
722.7271, 32551.38
723.2092, 32545.66
723.6913, 32541.69
724.1734, 32548.49
724.6555, 32551.24
725.1376, 32529.96
725.6198, 32486.79
726.1019, 32468.22
726.5840, 32491.48
727.0661, 32513.89
727.5482, 32513.58
728.0303, 32523.71
728.5125, 32594.27
728.9946, 32698.37
729.4767, 32750.65
729.9588, 32695.89
730.4409, 32623.77
730.9230, 32628.25
731.4052, 32675.69
731.8873, 32690.54
732.3694, 32669.49
732.8515, 32664.06
733.3336, 32705.28
733.8157, 32774.09
734.2979, 32833.24
734.7800, 32882.62
735.2621, 32917.09
735.7442, 32924.07
736.2263, 32936.41
736.7084, 32982.73
737.1906, 33036.23
737.6727, 33056.45
738.1548, 33036.31
738.6369, 33022.23
739.1190, 33015.55
739.6011, 33028.01
740.0833, 33091.42
740.5654, 33168.55
741.0475, 33194.87
741.5296, 33162.23
742.0117, 33131.66
742.4938, 33161.72
742.9760, 33224.16
743.4581, 33262.43
743.9402, 33277.01
744.4223, 33263.80
744.9044, 33216.18
745.3865, 33180.62
745.8687, 33203.66
746.3508, 33275.97
746.8329, 33332.48
747.3150, 33376.14
747.7971, 33396.97
748.2792, 33362.68
748.7614, 33335.39
749.2435, 33366.46
749.7256, 33428.16
750.2077, 33448.89
750.6898, 33391.35
751.1719, 33351.64
751.6541, 33402.23
752.1362, 33474.34
752.6183, 33492.21
753.1004, 33468.65
753.5825, 33456.13
754.0646, 33476.46
754.5468, 33506.69
755.0289, 33516.86
755.5110, 33510.51
755.9931, 33508.81
756.4752, 33512.86
756.9573, 33514.30
757.4395, 33513.43
757.9216, 33499.78
758.4037, 33450.23
758.8858, 33358.29
759.3679, 33328.83
759.8500, 33438.38
760.3322, 33512.26
760.8143, 33480.86
761.2964, 33439.66
761.7785, 33476.02
762.2606, 33575.34
762.7427, 33653.40
763.2249, 33673.72
763.7070, 33674.47
764.1891, 33668.20
764.6712, 33664.24
765.1533, 33681.25
765.6354, 33714.56
766.1176, 33735.02
766.5997, 33724.70
767.0818, 33714.02
767.5639, 33768.89
768.0460, 33880.97
768.5281, 33928.65
769.0103, 33891.88
769.4924, 33886.48
769.9745, 33984.13
770.4566, 34110.46
770.9387, 34139.48
771.4208, 34045.75
771.9030, 33997.79
772.3851, 34033.44
772.8672, 34066.59
773.3493, 34081.69
773.8314, 34083.59
774.3135, 34067.71
774.7957, 34040.20
775.2778, 34032.47
775.7599, 34078.01
776.2420, 34120.48
776.7241, 34116.32
777.2062, 34087.16
777.6884, 34057.86
778.1705, 34034.55
778.6526, 34017.80
779.1347, 34006.82
779.6168, 34010.60
780.0989, 34064.36
780.5811, 34157.58
781.0632, 34167.81
781.5453, 34072.82
782.0274, 34013.53
782.5095, 34067.17
782.9916, 34176.71
783.4738, 34247.43
783.9559, 34270.74
784.4380, 34299.35
784.9201, 34348.52
785.4022, 34381.89
785.8843, 34361.05
786.3665, 34342.28
786.8486, 34383.14
787.3307, 34479.35
787.8128, 34575.57
788.2949, 34670.06
788.7770, 34740.56
789.2592, 34766.93
789.7413, 34767.08
790.2234, 34751.38
790.7055, 34729.48
791.1876, 34725.40
791.6697, 34755.50
792.1519, 34786.90
792.6340, 34759.13
793.1161, 34694.39
793.5982, 34683.89
794.0803, 34732.59
794.5624, 34780.84
795.0446, 34803.91
795.5267, 34804.67
796.0088, 34780.68
796.4909, 34727.37
796.9730, 34722.83
797.4551, 34809.09
797.9373, 34859.41
798.4194, 34805.52
798.9015, 34734.38
799.3836, 34718.78
799.8657, 34753.46
800.3478, 34807.18
800.8300, 34907.43
801.3121, 34983.30
801.7942, 34996.06
802.2763, 34992.40
802.7584, 35011.36
803.2405, 35045.93
803.7227, 35069.27
804.2048, 35069.81
804.6869, 35069.16
805.1690, 35089.97
805.6511, 35120.02
806.1332, 35132.11
806.6154, 35133.97
807.0975, 35167.47
807.5796, 35245.58
808.0617, 35317.98
808.5438, 35323.14
809.0259, 35276.98
809.5081, 35266.61
809.9902, 35294.54
810.4723, 35342.42
810.9544, 35414.33
811.4365, 35486.05
811.9186, 35540.59
812.4008, 35578.01
812.8829, 35598.59
813.3650, 35578.49
813.8471, 35581.59
814.3292, 35629.19
814.8113, 35675.84
815.2935, 35705.32
815.7756, 35719.36
816.2577, 35715.41
816.7398, 35692.00
817.2219, 35684.07
817.7040, 35688.73
818.1862, 35731.62
818.6683, 35887.89
819.1504, 36067.27
819.6325, 36118.10
820.1146, 36037.12
820.5967, 35950.37
821.0789, 35941.58
821.5610, 35974.86
822.0431, 35995.42
822.5252, 36012.31
823.0073, 36060.21
823.4894, 36141.71
823.9716, 36231.95
824.4537, 36320.43
824.9358, 36393.82
825.4179, 36426.74
825.9000, 36416.45
826.3821, 36399.20
826.8643, 36371.93
827.3464, 36346.59
827.8285, 36331.00
828.3106, 36313.28
828.7927, 36276.85
829.2748, 36222.74
829.7570, 36182.56
830.2391, 36165.49
830.7212, 36148.64
831.2033, 36119.13
831.6854, 36098.78
832.1675, 36108.16
832.6497, 36136.25
833.1318, 36157.13
833.6139, 36161.62
834.0960, 36173.96
834.5781, 36224.38
835.0602, 36271.30
835.5424, 36272.98
836.0245, 36245.76
836.5066, 36216.88
836.9887, 36196.10
837.4708, 36191.23
837.9529, 36213.82
838.4351, 36249.08
838.9172, 36279.87
839.3993, 36301.74
839.8814, 36286.75
840.3635, 36234.14
840.8456, 36194.17
841.3278, 36198.16
841.8099, 36235.71
842.2920, 36293.03
842.7741, 36373.72
843.2562, 36431.98
843.7383, 36466.22
844.2205, 36477.56
844.7026, 36448.34
845.1847, 36423.37
845.6668, 36467.37
846.1489, 36580.91
846.6310, 36644.63
847.1132, 36610.64
847.5953, 36592.78
848.0774, 36606.38
848.5595, 36633.29
849.0416, 36678.02
849.5237, 36723.77
850.0059, 36726.27
850.4880, 36656.30
850.9701, 36626.14
851.4522, 36722.39
851.9343, 36825.02
852.4164, 36841.57
852.8986, 36813.93
853.3807, 36813.88
853.8628, 36851.76
854.3449, 36879.42
854.8270, 36849.35
855.3091, 36817.29
855.7913, 36871.39
856.2734, 36964.55
856.7555, 36987.62
857.2376, 36941.78
857.7197, 36912.88
858.2018, 36947.11
858.6840, 37013.63
859.1661, 37077.45
859.6482, 37134.12
860.1303, 37149.59
860.6124, 37122.16
861.0945, 37090.30
861.5767, 37061.86
862.0588, 37056.31
862.5409, 37099.96
863.0230, 37181.88
863.5051, 37230.37
863.9872, 37235.09
864.4694, 37236.65
864.9515, 37234.84
865.4336, 37237.72
865.9157, 37250.07
866.3978, 37270.28
866.8799, 37299.36
867.3621, 37345.97
867.8442, 37365.38
868.3263, 37322.98
868.8084, 37294.91
869.2905, 37314.64
869.7726, 37351.41
870.2548, 37373.58
870.7369, 37384.46
871.2190, 37412.05
871.7011, 37484.06
872.1832, 37535.89
872.6653, 37513.29
873.1475, 37477.41
873.6296, 37483.27
874.1117, 37519.54
874.5938, 37551.45
875.0759, 37569.54
875.5580, 37600.04
876.0402, 37677.46
876.5223, 37767.35
877.0044, 37828.26
877.4865, 37866.16
877.9686, 37891.43
878.4507, 37908.39
878.9329, 37925.95
879.4150, 37949.02
879.8971, 37979.45
880.3792, 38028.38
880.8613, 38089.14
881.3434, 38118.19
881.8256, 38114.86
882.3077, 38126.05
882.7898, 38171.28
883.2719, 38222.52
883.7540, 38250.13
884.2361, 38256.05
884.7183, 38246.06
885.2004, 38211.67
885.6825, 38207.68
886.1646, 38258.06
886.6467, 38297.93
887.1288, 38273.32
887.6110, 38225.54
888.0931, 38246.18
888.5752, 38355.45
889.0573, 38449.48
889.5394, 38521.77
890.0215, 38587.15
890.5037, 38660.50
890.9858, 38718.69
891.4679, 38724.38
891.9500, 38693.90
892.4321, 38704.89
892.9142, 38818.91
893.3964, 38881.43
893.8785, 38791.67
894.3606, 38712.66
894.8427, 38777.00
895.3248, 38900.44
895.8069, 38940.93
896.2891, 38878.16
896.7712, 38831.76
897.2533, 38884.50
897.7354, 38942.14
898.2175, 38929.38
898.6996, 38895.32
899.1818, 38898.82
899.6639, 38937.80
900.1460, 38979.53
900.6281, 39009.54
901.1102, 39045.37
901.5923, 39118.41
902.0745, 39197.29
902.5566, 39220.93
903.0387, 39212.96
903.5208, 39250.71
904.0029, 39344.48
904.4850, 39422.39
904.9672, 39425.12
905.4493, 39395.88
905.9314, 39414.04
906.4135, 39469.49
906.8956, 39518.24
907.3777, 39557.35
907.8599, 39609.79
908.3420, 39687.19
908.8241, 39743.41
909.3062, 39705.91
909.7883, 39602.38
910.2704, 39619.30
910.7526, 39770.16
911.2347, 39866.15
911.7168, 39862.95
912.1990, 39863.18
912.6811, 39939.32
913.1632, 40047.75
913.6453, 40096.56
914.1274, 40075.91
914.6096, 40055.23
915.0917, 40022.07
915.5738, 40021.04
916.0559, 40081.81
916.5380, 40155.61
917.0201, 40198.61
917.5023, 40217.59
917.9844, 40246.26
918.4665, 40307.27
918.9486, 40338.61
919.4307, 40295.79
919.9128, 40276.45
920.3950, 40332.75
920.8771, 40420.92
921.3592, 40492.11
921.8413, 40544.58
922.3234, 40595.04
922.8055, 40641.67
923.2877, 40692.32
923.7698, 40755.68
924.2519, 40817.19
924.7340, 40865.66
925.2161, 40905.85
925.6982, 40939.20
926.1804, 40963.41
926.6625, 41024.92
927.1446, 41182.50
927.6267, 41333.68
928.1088, 41417.10
928.5909, 41468.13
929.0731, 41513.50
929.5552, 41565.50
930.0373, 41645.83
930.5194, 41768.26
931.0015, 41887.79
931.4836, 41945.32
931.9658, 42009.92
932.4479, 42185.57
932.9300, 42404.20
933.4121, 42529.52
933.8942, 42552.96
934.3763, 42588.98
934.8585, 42719.82
935.3406, 42853.54
935.8227, 42851.52
936.3048, 42805.73
936.7869, 42882.73
937.2690, 43058.90
937.7512, 43221.81
938.2333, 43337.20
938.7154, 43453.47
939.1975, 43616.65
939.6796, 43803.57
940.1617, 43957.27
940.6439, 44100.70
941.1260, 44319.82
941.6081, 44611.48
942.0902, 44876.54
942.5723, 45069.68
943.0544, 45266.88
943.5366, 45576.68
944.0187, 45966.17
944.5008, 46305.33
944.9829, 46602.71
945.4650, 46923.37
945.9471, 47278.80
946.4293, 47654.22
946.9114, 48040.46
947.3935, 48448.51
947.8756, 48903.77
948.3577, 49405.09
948.8398, 49883.47
949.3220, 50335.64
949.8041, 50813.59
950.2862, 51340.37
950.7683, 51831.44
951.2504, 52221.98
951.7325, 52520.91
952.2147, 52753.75
952.6968, 52918.73
953.1789, 53031.04
953.6610, 53102.76
954.1431, 53075.73
954.6252, 52934.23
955.1074, 52672.74
955.5895, 52267.80
956.0716, 51743.80
956.5537, 51234.03
957.0358, 50759.52
957.5179, 50204.81
958.0001, 49497.52
958.4822, 48865.46
958.9643, 48423.72
959.4464, 48084.65
959.9285, 47755.46
960.4106, 47434.89
960.8928, 47083.18
961.3749, 46642.01
961.8570, 46295.89
962.3391, 46108.85
962.8212, 45951.03
963.3033, 45774.64
963.7855, 45577.07
964.2676, 45333.63
964.7497, 45032.50
965.2318, 44832.42
965.7139, 44807.64
966.1960, 44770.64
966.6782, 44683.83
967.1603, 44593.83
967.6424, 44523.03
968.1245, 44468.79
968.6066, 44430.40
969.0887, 44413.97
969.5709, 44379.79
970.0530, 44289.76
970.5351, 44232.13
971.0172, 44256.58
971.4993, 44291.67
971.9814, 44270.59
972.4636, 44224.43
972.9457, 44239.00
973.4278, 44346.51
973.9099, 44411.31
974.3920, 44326.26
974.8741, 44309.29
975.3563, 44510.62
975.8384, 44743.96
976.3205, 44844.07
976.8026, 44837.62
977.2847, 44829.87
977.7668, 44815.44
978.2490, 44868.51
978.7311, 45066.21
979.2132, 45261.07
979.6953, 45379.76
980.1774, 45469.99
980.6595, 45569.31
981.1417, 45686.46
981.6238, 45836.92
982.1059, 46044.36
982.5880, 46232.30
983.0701, 46360.00
983.5522, 46485.14
984.0344, 46660.17
984.5165, 46837.37
984.9986, 46941.98
985.4807, 46988.75
985.9628, 47081.66
986.4449, 47307.88
986.9271, 47451.48
987.4092, 47384.24
987.8913, 47266.13
988.3734, 47195.93
988.8555, 47137.98
989.3376, 47034.10
989.8198, 46884.49
990.3019, 46737.75
990.7840, 46634.02
991.2661, 46489.08
991.7482, 46215.78
992.2303, 45943.11
992.7125, 45768.50
993.1946, 45650.91
993.6767, 45524.87
994.1588, 45383.54
994.6409, 45260.41
995.1230, 45159.11
995.6052, 45091.66
996.0873, 45111.57
996.5694, 45120.14
997.0515, 45003.85
997.5336, 44843.71
998.0157, 44779.39
998.4979, 44822.17
998.9800, 44852.30
999.4621, 44810.26
999.9442, 44763.11
1000.426, 44728.57
1000.908, 44714.25
1001.391, 44744.72
1001.873, 44790.65
1002.355, 44805.84
1002.837, 44784.01
1003.319, 44754.18
1003.801, 44731.56
1004.283, 44699.74
1004.765, 44635.34
1005.247, 44574.07
1005.730, 44547.48
1006.212, 44544.13
1006.694, 44540.86
1007.176, 44534.65
1007.658, 44540.15
1008.140, 44568.36
1008.622, 44603.51
1009.104, 44657.44
1009.587, 44697.42
1010.069, 44689.22
1010.551, 44651.42
1011.033, 44601.29
1011.515, 44548.49
1011.997, 44548.41
1012.479, 44679.26
1012.961, 44789.36
1013.443, 44776.20
1013.926, 44751.41
1014.408, 44826.47
1014.890, 44939.65
1015.372, 44971.16
1015.854, 44908.72
1016.336, 44867.04
1016.818, 44925.00
1017.300, 44959.17
1017.783, 44888.01
1018.265, 44808.63
1018.747, 44800.58
1019.229, 44829.38
1019.711, 44831.67
1020.193, 44801.37
1020.675, 44787.37
1021.157, 44801.56
1021.639, 44840.19
1022.122, 44939.39
1022.604, 45024.05
1023.086, 45028.67
1023.568, 44994.39
1024.050, 44982.52
1024.532, 44999.67
1025.014, 45018.69
1025.496, 45037.60
1025.979, 45050.39
1026.461, 45041.86
1026.943, 45041.29
1027.425, 45066.61
1027.907, 45109.93
1028.389, 45175.27
1028.871, 45255.59
1029.353, 45286.64
1029.835, 45183.95
1030.318, 45142.48
1030.800, 45263.54
1031.282, 45377.85
1031.764, 45387.84
1032.246, 45349.11
1032.728, 45317.12
1033.210, 45299.45
1033.692, 45326.29
1034.174, 45478.81
1034.657, 45548.73
1035.139, 45414.70
1035.621, 45316.17
1036.103, 45397.06
1036.585, 45534.39
1037.067, 45590.48
1037.549, 45575.13
1038.031, 45581.45
1038.514, 45642.09
1038.996, 45670.57
1039.478, 45617.68
1039.960, 45597.67
1040.442, 45679.38
1040.924, 45779.42
1041.406, 45814.38
1041.888, 45798.95
1042.370, 45802.38
1042.853, 45827.14
1043.335, 45864.53
1043.817, 45925.82
1044.299, 45979.08
1044.781, 46021.55
1045.263, 46042.63
1045.745, 46023.51
1046.227, 45980.70
1046.709, 45968.13
1047.192, 45994.84
1047.674, 46015.15
1048.156, 46021.77
1048.638, 46045.78
1049.120, 46101.26
1049.602, 46162.41
1050.084, 46209.15
1050.566, 46250.11
1051.049, 46310.16
1051.531, 46393.82
1052.013, 46435.05
1052.495, 46423.64
1052.977, 46421.62
1053.459, 46439.88
1053.941, 46477.80
1054.423, 46535.97
1054.906, 46610.55
1055.388, 46703.35
1055.870, 46808.95
1056.352, 46848.17
1056.834, 46817.91
1057.316, 46846.00
1057.798, 46956.93
1058.280, 47043.78
1058.762, 47046.65
1059.245, 47029.83
1059.727, 47087.54
1060.209, 47192.71
1060.691, 47233.57
1061.173, 47221.06
1061.655, 47227.53
1062.137, 47260.71
1062.619, 47301.32
1063.101, 47341.28
1063.584, 47361.88
1064.066, 47323.95
1064.548, 47287.32
1065.030, 47408.45
1065.512, 47624.93
1065.994, 47752.63
1066.476, 47797.12
1066.958, 47841.36
1067.441, 47915.38
1067.923, 48030.95
1068.405, 48214.96
1068.887, 48399.49
1069.369, 48470.52
1069.851, 48500.96
1070.333, 48601.18
1070.815, 48762.21
1071.297, 48968.96
1071.780, 49198.66
1072.262, 49368.02
1072.744, 49420.64
1073.226, 49451.63
1073.708, 49524.60
1074.190, 49627.42
1074.672, 49768.84
1075.154, 49919.96
1075.636, 50056.45
1076.119, 50164.11
1076.601, 50215.10
1077.083, 50191.71
1077.565, 50158.77
1078.047, 50152.76
1078.529, 50140.69
1079.011, 50104.89
1079.494, 50052.00
1079.976, 49988.54
1080.458, 49913.74
1080.940, 49816.88
1081.422, 49691.56
1081.904, 49598.41
1082.386, 49595.60
1082.868, 49566.35
1083.350, 49466.63
1083.833, 49344.55
1084.315, 49204.12
1084.797, 49075.39
1085.279, 49013.30
1085.761, 49022.06
1086.243, 48998.91
1086.725, 48903.11
1087.207, 48848.05
1087.689, 48854.12
1088.172, 48880.09
1088.654, 48930.17
1089.136, 48963.87
1089.618, 48924.66
1090.100, 48833.96
1090.582, 48805.04
1091.064, 48858.09
1091.546, 48882.42
1092.029, 48867.00
1092.511, 48855.04
1092.993, 48854.80
1093.475, 48879.96
1093.957, 48946.71
1094.439, 49031.11
1094.921, 49077.82
1095.403, 49089.74
1095.885, 49128.61
1096.368, 49191.45
1096.850, 49183.84
1097.332, 49091.13
1097.814, 49006.69
1098.296, 48980.84
1098.778, 48979.65
1099.260, 48962.88
1099.742, 48936.36
1100.224, 48895.77
1100.707, 48861.76
1101.189, 48917.64
1101.671, 49042.97
1102.153, 49134.47
1102.635, 49155.27
1103.117, 49113.88
1103.599, 48984.61
1104.081, 48865.61
1104.564, 48882.02
1105.046, 48959.93
1105.528, 49024.12
1106.010, 49067.28
1106.492, 49083.73
1106.974, 49078.64
1107.456, 49073.05
1107.938, 49068.54
1108.421, 49090.53
1108.903, 49190.66
1109.385, 49276.22
1109.867, 49275.38
1110.349, 49239.63
1110.831, 49203.97
1111.313, 49183.61
1111.795, 49211.44
1112.277, 49303.01
1112.760, 49365.04
1113.242, 49336.66
1113.724, 49343.30
1114.206, 49449.21
1114.688, 49555.39
1115.170, 49614.78
1115.652, 49639.22
1116.134, 49638.55
1116.616, 49615.32
1117.099, 49604.20
1117.581, 49610.79
1118.063, 49611.64
1118.545, 49595.80
1119.027, 49613.50
1119.509, 49694.96
1119.991, 49773.85
1120.473, 49790.47
1120.956, 49766.20
1121.438, 49746.71
1121.920, 49733.21
1122.402, 49764.04
1122.884, 49835.67
1123.366, 49883.68
1123.848, 49896.07
1124.330, 49902.78
1124.813, 49919.51
1125.295, 49945.57
1125.777, 49984.62
1126.259, 50027.88
1126.741, 50053.27
1127.223, 50072.02
1127.705, 50120.49
1128.187, 50184.11
1128.669, 50208.53
1129.151, 50182.05
1129.634, 50144.48
1130.116, 50115.60
1130.598, 50096.11
1131.080, 50086.35
1131.562, 50087.21
1132.044, 50107.67
1132.526, 50134.30
1133.008, 50150.19
1133.491, 50155.57
1133.973, 50155.78
1134.455, 50145.78
1134.937, 50160.89
1135.419, 50243.72
1135.901, 50305.78
1136.383, 50312.66
1136.865, 50297.14
1137.348, 50252.23
1137.830, 50214.96
1138.312, 50247.54
1138.794, 50347.62
1139.276, 50449.02
1139.758, 50575.27
1140.240, 50616.75
1140.722, 50534.59
1141.204, 50482.55
1141.687, 50521.51
1142.169, 50588.01
1142.651, 50630.68
1143.133, 50649.52
1143.615, 50624.83
1144.097, 50570.21
1144.579, 50626.88
1145.061, 50773.00
1145.543, 50830.46
1146.026, 50778.77
1146.508, 50722.66
1146.990, 50712.91
1147.472, 50730.56
1147.954, 50765.45
1148.436, 50805.45
1148.918, 50828.93
1149.400, 50850.04
1149.883, 50893.18
1150.365, 50950.64
1150.847, 51012.63
1151.329, 51070.09
1151.811, 51085.19
1152.293, 51012.78
1152.775, 50985.42
1153.257, 51122.50
1153.740, 51251.35
1154.222, 51266.43
1154.704, 51241.48
1155.186, 51235.79
1155.668, 51249.98
1156.150, 51279.93
1156.632, 51329.64
1157.114, 51352.98
1157.596, 51311.70
1158.078, 51327.48
1158.561, 51446.01
1159.043, 51539.61
1159.525, 51543.60
1160.007, 51527.91
1160.489, 51568.18
1160.971, 51640.54
1161.453, 51673.89
1161.935, 51669.38
1162.418, 51631.05
1162.900, 51566.96
1163.382, 51584.96
1163.864, 51696.30
1164.346, 51768.62
1164.828, 51733.15
1165.310, 51676.83
1165.792, 51689.57
1166.275, 51741.55
1166.757, 51812.44
1167.239, 51879.11
1167.721, 51894.66
1168.203, 51880.60
1168.685, 51879.16
1169.167, 51902.83
1169.649, 51965.88
1170.131, 52100.13
1170.614, 52193.80
1171.096, 52154.94
1171.578, 52122.81
1172.060, 52213.21
1172.542, 52293.96
1173.024, 52210.31
1173.506, 52048.14
1173.988, 52005.38
1174.470, 52088.48
1174.953, 52131.10
1175.435, 52115.17
1175.917, 52108.40
1176.399, 52106.41
1176.881, 52160.89
1177.363, 52308.64
1177.845, 52428.70
1178.327, 52408.58
1178.810, 52313.96
1179.292, 52291.90
1179.774, 52318.65
1180.256, 52256.81
1180.738, 52145.80
1181.220, 52170.14
1181.702, 52323.69
1182.184, 52451.07
1182.667, 52492.14
1183.149, 52486.26
1183.631, 52440.04
1184.113, 52401.52
1184.595, 52415.27
1185.077, 52453.30
1185.559, 52503.20
1186.041, 52551.02
1186.523, 52568.31
1187.005, 52568.23
1187.488, 52602.31
1187.970, 52681.30
1188.452, 52785.11
1188.934, 52968.78
1189.416, 53085.24
1189.898, 53094.91
1190.380, 53059.11
1190.862, 52984.21
1191.345, 52914.71
1191.827, 52902.50
1192.309, 52938.10
1192.791, 52996.63
1193.273, 53077.81
1193.755, 53084.79
1194.237, 53025.27
1194.719, 53056.35
1195.202, 53199.98
1195.684, 53321.89
1196.166, 53353.68
1196.648, 53354.81
1197.130, 53377.64
1197.612, 53412.03
1198.094, 53440.11
1198.576, 53475.70
1199.058, 53543.81
1199.541, 53628.95
1200.023, 53706.16
1200.505, 53769.84
1200.987, 53822.72
1201.469, 53872.95
1201.951, 53881.30
1202.433, 53796.96
1202.915, 53727.81
1203.397, 53721.94
1203.880, 53718.04
1204.362, 53674.25
1204.844, 53629.69
1205.326, 53639.93
1205.808, 53692.45
1206.290, 53716.40
1206.772, 53709.72
1207.254, 53730.14
1207.737, 53779.46
1208.219, 53826.87
1208.701, 53866.50
1209.183, 53922.58
1209.665, 54008.82
1210.147, 54076.38
1210.629, 54056.41
1211.111, 54012.09
1211.594, 54025.56
1212.076, 54068.70
1212.558, 54102.75
1213.040, 54137.59
1213.522, 54201.93
1214.004, 54291.31
1214.486, 54374.13
1214.968, 54447.14
1215.450, 54488.51
1215.932, 54424.70
1216.415, 54430.09
1216.897, 54636.85
1217.379, 54794.75
1217.861, 54745.32
1218.343, 54641.70
1218.825, 54669.91
1219.307, 54788.17
1219.789, 54829.86
1220.272, 54796.25
1220.754, 54834.14
1221.236, 54934.79
1221.718, 54931.46
1222.200, 54813.04
1222.682, 54768.99
1223.164, 54883.08
1223.646, 55024.20
1224.129, 55090.54
1224.611, 55109.23
1225.093, 55077.83
1225.575, 55042.98
1226.057, 55053.23
1226.539, 55092.08
1227.021, 55160.84
1227.503, 55230.59
1227.985, 55207.28
1228.468, 55051.68
1228.950, 54966.60
1229.432, 54992.39
1229.914, 55056.64
1230.396, 55185.43
1230.878, 55277.82
1231.360, 55287.29
1231.842, 55270.87
1232.324, 55275.83
1232.807, 55301.09
1233.289, 55352.80
1233.771, 55421.75
1234.253, 55460.33
1234.735, 55478.08
1235.217, 55507.49
1235.699, 55550.11
1236.181, 55598.33
1236.664, 55647.08
1237.146, 55680.39
1237.628, 55678.33
1238.110, 55691.91
1238.592, 55770.71
1239.074, 55849.99
1239.556, 55903.96
1240.038, 55929.70
1240.521, 55907.15
1241.003, 55864.67
1241.485, 55850.99
1241.967, 55865.06
1242.449, 55891.71
1242.931, 55931.38
1243.413, 55993.08
1243.895, 56083.86
1244.377, 56113.41
1244.859, 56060.44
1245.342, 56036.00
1245.824, 56101.65
1246.306, 56224.26
1246.788, 56403.03
##END=



