##NAMES=Volborthite
##RRUFFID=R120063
##IDEAL CHEMISTRY=Cu^2+^_3_V^5+^_2_O_7_(OH)_2_&#183;2H_2_O
##LOCALITY=Milpillas mine, Municipio de Santa Cruz, Sonora, Mexico
##OWNER=RRUFF
##SOURCE=Evan Jones
##DESCRIPTION=Parallel aggregate of dark green tabular crystals associated with malachite
##STATUS=The identification of this mineral has been confirmed only by single crystal X-ray diffraction.
##URL=rruff.info/R120063
9.112140e+001, 0.000000e+000
9.160352e+001, 1.171657e+002
9.208563e+001, 1.151895e+002
9.256775e+001, 1.148928e+002
9.304987e+001, 1.168270e+002
9.353198e+001, 1.198878e+002
9.401410e+001, 1.225424e+002
9.449622e+001, 1.244189e+002
9.497833e+001, 1.256025e+002
9.546045e+001, 1.263168e+002
9.594257e+001, 1.266054e+002
9.642468e+001, 1.259673e+002
9.690680e+001, 1.235119e+002
9.738892e+001, 1.213483e+002
9.787103e+001, 1.204388e+002
9.835315e+001, 1.204502e+002
9.883527e+001, 1.203541e+002
9.931738e+001, 1.193629e+002
9.979950e+001, 1.170646e+002
1.002816e+002, 1.154903e+002
1.007637e+002, 1.150976e+002
1.012458e+002, 1.150432e+002
1.017280e+002, 1.144771e+002
1.022101e+002, 1.131297e+002
1.026922e+002, 1.116115e+002
1.031743e+002, 1.109541e+002
1.036564e+002, 1.111027e+002
1.041385e+002, 1.114060e+002
1.046207e+002, 1.118490e+002
1.051028e+002, 1.123127e+002
1.055849e+002, 1.123715e+002
1.060670e+002, 1.117399e+002
1.065491e+002, 1.107018e+002
1.070313e+002, 1.095933e+002
1.075134e+002, 1.084089e+002
1.079955e+002, 1.072224e+002
1.084776e+002, 1.061205e+002
1.089597e+002, 1.051184e+002
1.094418e+002, 1.041109e+002
1.099240e+002, 1.029544e+002
1.104061e+002, 1.018334e+002
1.108882e+002, 1.009010e+002
1.113703e+002, 1.002161e+002
1.118524e+002, 9.973300e+001
1.123345e+002, 9.934549e+001
1.128167e+002, 9.919115e+001
1.132988e+002, 9.894927e+001
1.137809e+002, 9.854170e+001
1.142630e+002, 9.803132e+001
1.147451e+002, 9.746577e+001
1.152272e+002, 9.686435e+001
1.157094e+002, 9.623682e+001
1.161915e+002, 9.589576e+001
1.166736e+002, 9.612455e+001
1.171557e+002, 9.630869e+001
1.176378e+002, 9.619126e+001
1.181199e+002, 9.582500e+001
1.186021e+002, 9.544536e+001
1.190842e+002, 9.526128e+001
1.195663e+002, 9.528968e+001
1.200484e+002, 9.520567e+001
1.205305e+002, 9.488923e+001
1.210126e+002, 9.453261e+001
1.214948e+002, 9.438770e+001
1.219769e+002, 9.451907e+001
1.224590e+002, 9.455093e+001
1.229411e+002, 9.388807e+001
1.234232e+002, 9.273381e+001
1.239053e+002, 9.177242e+001
1.243875e+002, 9.144089e+001
1.248696e+002, 9.148999e+001
1.253517e+002, 9.120927e+001
1.258338e+002, 9.035666e+001
1.263159e+002, 8.936414e+001
1.267980e+002, 8.844910e+001
1.272802e+002, 8.763780e+001
1.277623e+002, 8.704834e+001
1.282444e+002, 8.684312e+001
1.287265e+002, 8.706296e+001
1.292086e+002, 8.724593e+001
1.296907e+002, 8.755891e+001
1.301729e+002, 8.767155e+001
1.306550e+002, 8.728760e+001
1.311371e+002, 8.643139e+001
1.316192e+002, 8.545982e+001
1.321013e+002, 8.487874e+001
1.325834e+002, 8.490345e+001
1.330656e+002, 8.491845e+001
1.335477e+002, 8.476920e+001
1.340298e+002, 8.468637e+001
1.345119e+002, 8.493129e+001
1.349940e+002, 8.557099e+001
1.354761e+002, 8.637389e+001
1.359583e+002, 8.680384e+001
1.364404e+002, 8.644034e+001
1.369225e+002, 8.620349e+001
1.374046e+002, 8.629496e+001
1.378867e+002, 8.651012e+001
1.383688e+002, 8.653889e+001
1.388510e+002, 8.621744e+001
1.393331e+002, 8.566190e+001
1.398152e+002, 8.526217e+001
1.402973e+002, 8.515635e+001
1.407794e+002, 8.497512e+001
1.412615e+002, 8.451566e+001
1.417437e+002, 8.382934e+001
1.422258e+002, 8.312876e+001
1.427079e+002, 8.248574e+001
1.431900e+002, 8.193199e+001
1.436721e+002, 8.149436e+001
1.441542e+002, 8.119359e+001
1.446364e+002, 8.098549e+001
1.451185e+002, 8.086943e+001
1.456006e+002, 8.087086e+001
1.460827e+002, 8.080894e+001
1.465648e+002, 8.046236e+001
1.470469e+002, 8.004063e+001
1.475291e+002, 7.978281e+001
1.480112e+002, 7.983611e+001
1.484933e+002, 8.003606e+001
1.489754e+002, 8.001093e+001
1.494575e+002, 7.968089e+001
1.499396e+002, 7.923528e+001
1.504218e+002, 7.847538e+001
1.509039e+002, 7.771107e+001
1.513860e+002, 7.742022e+001
1.518681e+002, 7.798128e+001
1.523502e+002, 7.924893e+001
1.528323e+002, 7.992519e+001
1.533145e+002, 7.946546e+001
1.537966e+002, 7.887380e+001
1.542787e+002, 7.815749e+001
1.547608e+002, 7.745406e+001
1.552429e+002, 7.694974e+001
1.557250e+002, 7.678703e+001
1.562072e+002, 7.697519e+001
1.566893e+002, 7.742281e+001
1.571714e+002, 7.854361e+001
1.576535e+002, 7.949768e+001
1.581356e+002, 7.988156e+001
1.586177e+002, 7.973516e+001
1.590999e+002, 7.936595e+001
1.595820e+002, 7.901638e+001
1.600641e+002, 7.867775e+001
1.605462e+002, 7.855391e+001
1.610283e+002, 7.875815e+001
1.615104e+002, 7.908668e+001
1.619926e+002, 7.945458e+001
1.624747e+002, 7.984471e+001
1.629568e+002, 8.012570e+001
1.634389e+002, 8.005406e+001
1.639210e+002, 7.965508e+001
1.644031e+002, 7.946962e+001
1.648853e+002, 7.974937e+001
1.653674e+002, 8.024973e+001
1.658495e+002, 8.062826e+001
1.663316e+002, 8.084212e+001
1.668137e+002, 8.091680e+001
1.672958e+002, 8.073116e+001
1.677780e+002, 8.037362e+001
1.682601e+002, 8.024218e+001
1.687422e+002, 8.080746e+001
1.692243e+002, 8.182710e+001
1.697064e+002, 8.226484e+001
1.701885e+002, 8.166191e+001
1.706707e+002, 8.087383e+001
1.711528e+002, 8.044487e+001
1.716349e+002, 8.033363e+001
1.721170e+002, 8.031872e+001
1.725991e+002, 8.030421e+001
1.730812e+002, 8.030054e+001
1.735634e+002, 8.007230e+001
1.740455e+002, 7.931791e+001
1.745276e+002, 7.854980e+001
1.750097e+002, 7.802689e+001
1.754918e+002, 7.772312e+001
1.759739e+002, 7.742301e+001
1.764561e+002, 7.679952e+001
1.769382e+002, 7.558140e+001
1.774203e+002, 7.497578e+001
1.779024e+002, 7.570715e+001
1.783845e+002, 7.641990e+001
1.788666e+002, 7.630630e+001
1.793488e+002, 7.531922e+001
1.798309e+002, 7.400027e+001
1.803130e+002, 7.308393e+001
1.807951e+002, 7.273412e+001
1.812772e+002, 7.247640e+001
1.817593e+002, 7.244411e+001
1.822415e+002, 7.240817e+001
1.827236e+002, 7.221119e+001
1.832057e+002, 7.181332e+001
1.836878e+002, 7.125914e+001
1.841699e+002, 7.059426e+001
1.846520e+002, 6.964729e+001
1.851342e+002, 6.895986e+001
1.856163e+002, 6.872901e+001
1.860984e+002, 6.868586e+001
1.865805e+002, 6.855931e+001
1.870626e+002, 6.827007e+001
1.875447e+002, 6.787997e+001
1.880269e+002, 6.747951e+001
1.885090e+002, 6.707102e+001
1.889911e+002, 6.664598e+001
1.894732e+002, 6.616830e+001
1.899553e+002, 6.567784e+001
1.904374e+002, 6.522460e+001
1.909196e+002, 6.478701e+001
1.914017e+002, 6.446703e+001
1.918838e+002, 6.450982e+001
1.923659e+002, 6.495744e+001
1.928480e+002, 6.521136e+001
1.933301e+002, 6.485372e+001
1.938123e+002, 6.404324e+001
1.942944e+002, 6.334435e+001
1.947765e+002, 6.284319e+001
1.952586e+002, 6.259540e+001
1.957407e+002, 6.269527e+001
1.962228e+002, 6.314982e+001
1.967050e+002, 6.354006e+001
1.971871e+002, 6.350599e+001
1.976692e+002, 6.306789e+001
1.981513e+002, 6.268718e+001
1.986334e+002, 6.248796e+001
1.991155e+002, 6.234861e+001
1.995977e+002, 6.217382e+001
2.000798e+002, 6.196150e+001
2.005619e+002, 6.178633e+001
2.010440e+002, 6.170493e+001
2.015261e+002, 6.171366e+001
2.020082e+002, 6.184486e+001
2.024904e+002, 6.237669e+001
2.029725e+002, 6.283794e+001
2.034546e+002, 6.297392e+001
2.039367e+002, 6.276182e+001
2.044188e+002, 6.235918e+001
2.049009e+002, 6.187532e+001
2.053831e+002, 6.115027e+001
2.058652e+002, 6.086291e+001
2.063473e+002, 6.134980e+001
2.068294e+002, 6.200031e+001
2.073115e+002, 6.256373e+001
2.077936e+002, 6.295269e+001
2.082758e+002, 6.313356e+001
2.087579e+002, 6.302946e+001
2.092400e+002, 6.247680e+001
2.097221e+002, 6.198130e+001
2.102042e+002, 6.144036e+001
2.106863e+002, 6.101380e+001
2.111685e+002, 6.089394e+001
2.116506e+002, 6.108045e+001
2.121327e+002, 6.132483e+001
2.126148e+002, 6.124282e+001
2.130969e+002, 6.051136e+001
2.135790e+002, 6.014928e+001
2.140612e+002, 6.046777e+001
2.145433e+002, 6.093496e+001
2.150254e+002, 6.113615e+001
2.155075e+002, 6.097292e+001
2.159896e+002, 6.061542e+001
2.164717e+002, 6.028877e+001
2.169539e+002, 5.997099e+001
2.174360e+002, 5.975904e+001
2.179181e+002, 5.965904e+001
2.184002e+002, 5.966258e+001
2.188823e+002, 5.980426e+001
2.193644e+002, 6.009369e+001
2.198466e+002, 6.040856e+001
2.203287e+002, 6.059241e+001
2.208108e+002, 6.064435e+001
2.212929e+002, 6.057933e+001
2.217750e+002, 6.031991e+001
2.222571e+002, 5.997374e+001
2.227393e+002, 5.964793e+001
2.232214e+002, 5.935517e+001
2.237035e+002, 5.914274e+001
2.241856e+002, 5.914051e+001
2.246677e+002, 5.933137e+001
2.251498e+002, 5.944092e+001
2.256320e+002, 5.937148e+001
2.261141e+002, 5.918422e+001
2.265962e+002, 5.895800e+001
2.270783e+002, 5.868349e+001
2.275604e+002, 5.843430e+001
2.280425e+002, 5.829717e+001
2.285247e+002, 5.825045e+001
2.290068e+002, 5.822186e+001
2.294889e+002, 5.818851e+001
2.299710e+002, 5.815418e+001
2.304531e+002, 5.812510e+001
2.309352e+002, 5.809800e+001
2.314174e+002, 5.808553e+001
2.318995e+002, 5.809198e+001
2.323816e+002, 5.811750e+001
2.328637e+002, 5.816750e+001
2.333458e+002, 5.826915e+001
2.338279e+002, 5.839975e+001
2.343101e+002, 5.851577e+001
2.347922e+002, 5.871333e+001
2.352743e+002, 5.870800e+001
2.357564e+002, 5.807402e+001
2.362385e+002, 5.714441e+001
2.367206e+002, 5.662603e+001
2.372028e+002, 5.720455e+001
2.376849e+002, 5.853493e+001
2.381670e+002, 5.904871e+001
2.386491e+002, 5.802083e+001
2.391312e+002, 5.724859e+001
2.396133e+002, 5.779049e+001
2.400955e+002, 5.901651e+001
2.405776e+002, 5.983263e+001
2.410597e+002, 5.946578e+001
2.415418e+002, 5.820735e+001
2.420239e+002, 5.748222e+001
2.425060e+002, 5.758495e+001
2.429882e+002, 5.787048e+001
2.434703e+002, 5.835773e+001
2.439524e+002, 5.884352e+001
2.444345e+002, 5.902693e+001
2.449166e+002, 5.870086e+001
2.453987e+002, 5.797911e+001
2.458809e+002, 5.738909e+001
2.463630e+002, 5.682686e+001
2.468451e+002, 5.657463e+001
2.473272e+002, 5.686177e+001
2.478093e+002, 5.742231e+001
2.482914e+002, 5.794588e+001
2.487736e+002, 5.827204e+001
2.492557e+002, 5.841078e+001
2.497378e+002, 5.839187e+001
2.502199e+002, 5.797051e+001
2.507020e+002, 5.769415e+001
2.511841e+002, 5.779512e+001
2.516663e+002, 5.802439e+001
2.521484e+002, 5.808086e+001
2.526305e+002, 5.781756e+001
2.531126e+002, 5.732129e+001
2.535947e+002, 5.684980e+001
2.540768e+002, 5.612901e+001
2.545590e+002, 5.580865e+001
2.550411e+002, 5.626884e+001
2.555232e+002, 5.701196e+001
2.560053e+002, 5.749239e+001
2.564874e+002, 5.747807e+001
2.569695e+002, 5.713297e+001
2.574517e+002, 5.685352e+001
2.579338e+002, 5.661541e+001
2.584159e+002, 5.648771e+001
2.588980e+002, 5.647128e+001
2.593801e+002, 5.656444e+001
2.598622e+002, 5.680769e+001
2.603444e+002, 5.721013e+001
2.608265e+002, 5.766703e+001
2.613086e+002, 5.798192e+001
2.617907e+002, 5.809915e+001
2.622728e+002, 5.813876e+001
2.627549e+002, 5.819835e+001
2.632371e+002, 5.813421e+001
2.637192e+002, 5.765914e+001
2.642013e+002, 5.671764e+001
2.646834e+002, 5.576449e+001
2.651655e+002, 5.552735e+001
2.656476e+002, 5.649976e+001
2.661298e+002, 5.700370e+001
2.666119e+002, 5.656021e+001
2.670940e+002, 5.588256e+001
2.675761e+002, 5.561798e+001
2.680582e+002, 5.589417e+001
2.685403e+002, 5.647577e+001
2.690225e+002, 5.716657e+001
2.695046e+002, 5.804976e+001
2.699867e+002, 5.853843e+001
2.704688e+002, 5.834392e+001
2.709509e+002, 5.791843e+001
2.714330e+002, 5.768096e+001
2.719152e+002, 5.767271e+001
2.723973e+002, 5.758916e+001
2.728794e+002, 5.705230e+001
2.733615e+002, 5.602624e+001
2.738436e+002, 5.545409e+001
2.743257e+002, 5.557872e+001
2.748079e+002, 5.599862e+001
2.752900e+002, 5.652183e+001
2.757721e+002, 5.710960e+001
2.762542e+002, 5.755202e+001
2.767363e+002, 5.768079e+001
2.772184e+002, 5.749196e+001
2.777006e+002, 5.723837e+001
2.781827e+002, 5.670358e+001
2.786648e+002, 5.627787e+001
2.791469e+002, 5.635853e+001
2.796290e+002, 5.688144e+001
2.801111e+002, 5.733417e+001
2.805933e+002, 5.744921e+001
2.810754e+002, 5.722525e+001
2.815575e+002, 5.679212e+001
2.820396e+002, 5.587651e+001
2.825217e+002, 5.508400e+001
2.830038e+002, 5.495298e+001
2.834860e+002, 5.534603e+001
2.839681e+002, 5.549943e+001
2.844502e+002, 5.493065e+001
2.849323e+002, 5.402911e+001
2.854144e+002, 5.363870e+001
2.858965e+002, 5.393819e+001
2.863787e+002, 5.428485e+001
2.868608e+002, 5.428504e+001
2.873429e+002, 5.403225e+001
2.878250e+002, 5.390281e+001
2.883071e+002, 5.412058e+001
2.887892e+002, 5.436739e+001
2.892714e+002, 5.408655e+001
2.897535e+002, 5.319204e+001
2.902356e+002, 5.251110e+001
2.907177e+002, 5.261134e+001
2.911998e+002, 5.322402e+001
2.916819e+002, 5.366192e+001
2.921641e+002, 5.380306e+001
2.926462e+002, 5.366923e+001
2.931283e+002, 5.313943e+001
2.936104e+002, 5.227137e+001
2.940925e+002, 5.159425e+001
2.945746e+002, 5.144988e+001
2.950568e+002, 5.161846e+001
2.955389e+002, 5.164711e+001
2.960210e+002, 5.144143e+001
2.965031e+002, 5.122268e+001
2.969852e+002, 5.122855e+001
2.974673e+002, 5.138191e+001
2.979495e+002, 5.147441e+001
2.984316e+002, 5.141013e+001
2.989137e+002, 5.125750e+001
2.993958e+002, 5.108577e+001
2.998779e+002, 5.087596e+001
3.003600e+002, 5.075214e+001
3.008422e+002, 5.095117e+001
3.013243e+002, 5.127210e+001
3.018064e+002, 5.134244e+001
3.022885e+002, 5.092730e+001
3.027706e+002, 5.037753e+001
3.032527e+002, 5.009477e+001
3.037349e+002, 5.009232e+001
3.042170e+002, 5.015773e+001
3.046991e+002, 5.022750e+001
3.051812e+002, 5.029277e+001
3.056633e+002, 5.033145e+001
3.061454e+002, 5.031946e+001
3.066276e+002, 5.033403e+001
3.071097e+002, 5.052631e+001
3.075918e+002, 5.087599e+001
3.080739e+002, 5.100159e+001
3.085560e+002, 5.062175e+001
3.090381e+002, 5.009375e+001
3.095203e+002, 4.978283e+001
3.100024e+002, 4.969680e+001
3.104845e+002, 4.983133e+001
3.109666e+002, 5.039120e+001
3.114487e+002, 5.124258e+001
3.119308e+002, 5.166820e+001
3.124130e+002, 5.132448e+001
3.128951e+002, 5.080452e+001
3.133772e+002, 5.062628e+001
3.138593e+002, 5.075647e+001
3.143414e+002, 5.102273e+001
3.148235e+002, 5.142340e+001
3.153057e+002, 5.189367e+001
3.157878e+002, 5.228804e+001
3.162699e+002, 5.261596e+001
3.167520e+002, 5.280758e+001
3.172341e+002, 5.278597e+001
3.177162e+002, 5.259748e+001
3.181984e+002, 5.230892e+001
3.186805e+002, 5.175074e+001
3.191626e+002, 5.119555e+001
3.196447e+002, 5.111731e+001
3.201268e+002, 5.158398e+001
3.206089e+002, 5.219039e+001
3.210911e+002, 5.281150e+001
3.215732e+002, 5.340768e+001
3.220553e+002, 5.393329e+001
3.225374e+002, 5.443670e+001
3.230195e+002, 5.477711e+001
3.235016e+002, 5.468816e+001
3.239838e+002, 5.416449e+001
3.244659e+002, 5.380104e+001
3.249480e+002, 5.393298e+001
3.254301e+002, 5.427164e+001
3.259122e+002, 5.444501e+001
3.263943e+002, 5.440641e+001
3.268765e+002, 5.435378e+001
3.273586e+002, 5.441012e+001
3.278407e+002, 5.456953e+001
3.283228e+002, 5.483712e+001
3.288049e+002, 5.535227e+001
3.292870e+002, 5.577338e+001
3.297692e+002, 5.565164e+001
3.302513e+002, 5.504158e+001
3.307334e+002, 5.456822e+001
3.312155e+002, 5.473219e+001
3.316976e+002, 5.523209e+001
3.321797e+002, 5.532285e+001
3.326619e+002, 5.482740e+001
3.331440e+002, 5.420161e+001
3.336261e+002, 5.375643e+001
3.341082e+002, 5.346126e+001
3.345903e+002, 5.327981e+001
3.350724e+002, 5.328429e+001
3.355546e+002, 5.335804e+001
3.360367e+002, 5.333033e+001
3.365188e+002, 5.318752e+001
3.370009e+002, 5.308263e+001
3.374830e+002, 5.310392e+001
3.379651e+002, 5.322669e+001
3.384473e+002, 5.342873e+001
3.389294e+002, 5.384375e+001
3.394115e+002, 5.412312e+001
3.398936e+002, 5.386141e+001
3.403757e+002, 5.313671e+001
3.408578e+002, 5.253725e+001
3.413400e+002, 5.225710e+001
3.418221e+002, 5.224472e+001
3.423042e+002, 5.242806e+001
3.427863e+002, 5.285057e+001
3.432684e+002, 5.322090e+001
3.437505e+002, 5.349894e+001
3.442327e+002, 5.361666e+001
3.447148e+002, 5.326947e+001
3.451969e+002, 5.220155e+001
3.456790e+002, 5.117442e+001
3.461611e+002, 5.131873e+001
3.466432e+002, 5.243451e+001
3.471254e+002, 5.330251e+001
3.476075e+002, 5.355989e+001
3.480896e+002, 5.342236e+001
3.485717e+002, 5.300666e+001
3.490538e+002, 5.230443e+001
3.495359e+002, 5.177190e+001
3.500181e+002, 5.186311e+001
3.505002e+002, 5.242725e+001
3.509823e+002, 5.272101e+001
3.514644e+002, 5.258394e+001
3.519465e+002, 5.226744e+001
3.524286e+002, 5.185936e+001
3.529108e+002, 5.138939e+001
3.533929e+002, 5.100581e+001
3.538750e+002, 5.082157e+001
3.543571e+002, 5.072943e+001
3.548392e+002, 5.043374e+001
3.553214e+002, 4.978839e+001
3.558035e+002, 4.929055e+001
3.562856e+002, 4.929288e+001
3.567677e+002, 4.953244e+001
3.572498e+002, 4.947000e+001
3.577319e+002, 4.890808e+001
3.582141e+002, 4.826172e+001
3.586962e+002, 4.815886e+001
3.591783e+002, 4.871206e+001
3.596604e+002, 4.908470e+001
3.601425e+002, 4.903511e+001
3.606246e+002, 4.885666e+001
3.611068e+002, 4.883092e+001
3.615889e+002, 4.897964e+001
3.620710e+002, 4.914809e+001
3.625531e+002, 4.922062e+001
3.630352e+002, 4.919111e+001
3.635173e+002, 4.908048e+001
3.639995e+002, 4.866837e+001
3.644816e+002, 4.839747e+001
3.649637e+002, 4.859859e+001
3.654458e+002, 4.911880e+001
3.659279e+002, 4.958473e+001
3.664100e+002, 4.981816e+001
3.668922e+002, 4.982890e+001
3.673743e+002, 4.962257e+001
3.678564e+002, 4.886168e+001
3.683385e+002, 4.837225e+001
3.688206e+002, 4.835642e+001
3.693027e+002, 4.862540e+001
3.697849e+002, 4.899734e+001
3.702670e+002, 4.941332e+001
3.707491e+002, 4.987500e+001
3.712312e+002, 5.042388e+001
3.717133e+002, 5.122625e+001
3.721954e+002, 5.153098e+001
3.726776e+002, 5.090383e+001
3.731597e+002, 5.018200e+001
3.736418e+002, 4.983331e+001
3.741239e+002, 4.987476e+001
3.746060e+002, 5.013626e+001
3.750881e+002, 5.052421e+001
3.755703e+002, 5.102577e+001
3.760524e+002, 5.124281e+001
3.765345e+002, 5.075081e+001
3.770166e+002, 5.046593e+001
3.774987e+002, 5.071755e+001
3.779808e+002, 5.127398e+001
3.784630e+002, 5.181083e+001
3.789451e+002, 5.217920e+001
3.794272e+002, 5.241487e+001
3.799093e+002, 5.260402e+001
3.803914e+002, 5.278102e+001
3.808735e+002, 5.284147e+001
3.813557e+002, 5.273058e+001
3.818378e+002, 5.255259e+001
3.823199e+002, 5.236861e+001
3.828020e+002, 5.219486e+001
3.832841e+002, 5.203016e+001
3.837662e+002, 5.187444e+001
3.842484e+002, 5.172761e+001
3.847305e+002, 5.158494e+001
3.852126e+002, 5.119115e+001
3.856947e+002, 5.105720e+001
3.861768e+002, 5.163451e+001
3.866589e+002, 5.258506e+001
3.871411e+002, 5.324717e+001
3.876232e+002, 5.320771e+001
3.881053e+002, 5.261749e+001
3.885874e+002, 5.200879e+001
3.890695e+002, 5.139701e+001
3.895516e+002, 5.073472e+001
3.900338e+002, 4.985143e+001
3.905159e+002, 4.900115e+001
3.909980e+002, 4.844904e+001
3.914801e+002, 4.826530e+001
3.919622e+002, 4.825216e+001
3.924443e+002, 4.821698e+001
3.929265e+002, 4.817365e+001
3.934086e+002, 4.797393e+001
3.938907e+002, 4.747777e+001
3.943728e+002, 4.692733e+001
3.948549e+002, 4.647659e+001
3.953370e+002, 4.610217e+001
3.958192e+002, 4.569036e+001
3.963013e+002, 4.506702e+001
3.967834e+002, 4.435220e+001
3.972655e+002, 4.398238e+001
3.977476e+002, 4.406630e+001
3.982297e+002, 4.421630e+001
3.987119e+002, 4.415326e+001
3.991940e+002, 4.405574e+001
3.996761e+002, 4.423812e+001
4.001582e+002, 4.496167e+001
4.006403e+002, 4.557671e+001
4.011224e+002, 4.524308e+001
4.016046e+002, 4.402273e+001
4.020867e+002, 4.304511e+001
4.025688e+002, 4.274558e+001
4.030509e+002, 4.272819e+001
4.035330e+002, 4.245004e+001
4.040151e+002, 4.189946e+001
4.044973e+002, 4.153725e+001
4.049794e+002, 4.182801e+001
4.054615e+002, 4.236456e+001
4.059436e+002, 4.231873e+001
4.064257e+002, 4.152246e+001
4.069078e+002, 4.074469e+001
4.073900e+002, 4.065292e+001
4.078721e+002, 4.114422e+001
4.083542e+002, 4.158106e+001
4.088363e+002, 4.197359e+001
4.093184e+002, 4.225331e+001
4.098005e+002, 4.230131e+001
4.102827e+002, 4.218087e+001
4.107648e+002, 4.213218e+001
4.112469e+002, 4.229315e+001
4.117290e+002, 4.252219e+001
4.122111e+002, 4.246791e+001
4.126932e+002, 4.201667e+001
4.131754e+002, 4.161629e+001
4.136575e+002, 4.147392e+001
4.141396e+002, 4.134973e+001
4.146217e+002, 4.084016e+001
4.151038e+002, 3.993225e+001
4.155859e+002, 3.921105e+001
4.160681e+002, 3.934465e+001
4.165502e+002, 4.046490e+001
4.170323e+002, 4.095586e+001
4.175144e+002, 4.033464e+001
4.179965e+002, 3.969620e+001
4.184786e+002, 3.939198e+001
4.189608e+002, 3.940652e+001
4.194429e+002, 3.974019e+001
4.199250e+002, 4.041856e+001
4.204071e+002, 4.119592e+001
4.208892e+002, 4.136541e+001
4.213713e+002, 4.030489e+001
4.218535e+002, 3.955843e+001
4.223356e+002, 3.938140e+001
4.228177e+002, 3.936412e+001
4.232998e+002, 3.916306e+001
4.237819e+002, 3.875401e+001
4.242640e+002, 3.838054e+001
4.247462e+002, 3.832449e+001
4.252283e+002, 3.861683e+001
4.257104e+002, 3.876450e+001
4.261925e+002, 3.865524e+001
4.266746e+002, 3.851128e+001
4.271567e+002, 3.842480e+001
4.276389e+002, 3.833907e+001
4.281210e+002, 3.812945e+001
4.286031e+002, 3.771025e+001
4.290852e+002, 3.724287e+001
4.295673e+002, 3.708159e+001
4.300494e+002, 3.731072e+001
4.305316e+002, 3.753939e+001
4.310137e+002, 3.767694e+001
4.314958e+002, 3.778478e+001
4.319779e+002, 3.789516e+001
4.324600e+002, 3.801187e+001
4.329421e+002, 3.812611e+001
4.334243e+002, 3.830702e+001
4.339064e+002, 3.849611e+001
4.343885e+002, 3.836936e+001
4.348706e+002, 3.772927e+001
4.353527e+002, 3.719897e+001
4.358348e+002, 3.739629e+001
4.363170e+002, 3.793902e+001
4.367991e+002, 3.816401e+001
4.372812e+002, 3.772980e+001
4.377633e+002, 3.718095e+001
4.382454e+002, 3.711259e+001
4.387275e+002, 3.743938e+001
4.392097e+002, 3.752370e+001
4.396918e+002, 3.702583e+001
4.401739e+002, 3.637145e+001
4.406560e+002, 3.623440e+001
4.411381e+002, 3.662939e+001
4.416202e+002, 3.705449e+001
4.421024e+002, 3.762367e+001
4.425845e+002, 3.801330e+001
4.430666e+002, 3.758144e+001
4.435487e+002, 3.635407e+001
4.440308e+002, 3.542304e+001
4.445129e+002, 3.572254e+001
4.449951e+002, 3.708619e+001
4.454772e+002, 3.786741e+001
4.459593e+002, 3.781456e+001
4.464414e+002, 3.756491e+001
4.469235e+002, 3.711979e+001
4.474056e+002, 3.665267e+001
4.478878e+002, 3.649812e+001
4.483699e+002, 3.676031e+001
4.488520e+002, 3.708058e+001
4.493341e+002, 3.683976e+001
4.498162e+002, 3.555821e+001
4.502983e+002, 3.512074e+001
4.507805e+002, 3.629293e+001
4.512626e+002, 3.747287e+001
4.517447e+002, 3.779525e+001
4.522268e+002, 3.740550e+001
4.527089e+002, 3.686574e+001
4.531910e+002, 3.652395e+001
4.536732e+002, 3.638048e+001
4.541553e+002, 3.649030e+001
4.546374e+002, 3.723347e+001
4.551195e+002, 3.756274e+001
4.556016e+002, 3.700454e+001
4.560837e+002, 3.621990e+001
4.565659e+002, 3.575063e+001
4.570480e+002, 3.569661e+001
4.575301e+002, 3.582673e+001
4.580122e+002, 3.594978e+001
4.584943e+002, 3.606486e+001
4.589764e+002, 3.610277e+001
4.594586e+002, 3.605402e+001
4.599407e+002, 3.593226e+001
4.604228e+002, 3.573797e+001
4.609049e+002, 3.548711e+001
4.613870e+002, 3.517433e+001
4.618691e+002, 3.469218e+001
4.623513e+002, 3.432212e+001
4.628334e+002, 3.456055e+001
4.633155e+002, 3.537657e+001
4.637976e+002, 3.595745e+001
4.642797e+002, 3.605808e+001
4.647618e+002, 3.579534e+001
4.652440e+002, 3.518871e+001
4.657261e+002, 3.422005e+001
4.662082e+002, 3.356220e+001
4.666903e+002, 3.363902e+001
4.671724e+002, 3.403920e+001
4.676545e+002, 3.433770e+001
4.681367e+002, 3.448876e+001
4.686188e+002, 3.442139e+001
4.691009e+002, 3.398191e+001
4.695830e+002, 3.331327e+001
4.700651e+002, 3.313239e+001
4.705472e+002, 3.380075e+001
4.710294e+002, 3.442743e+001
4.715115e+002, 3.497655e+001
4.719936e+002, 3.528188e+001
4.724757e+002, 3.496104e+001
4.729578e+002, 3.396918e+001
4.734399e+002, 3.291234e+001
4.739221e+002, 3.255418e+001
4.744042e+002, 3.306381e+001
4.748863e+002, 3.329945e+001
4.753684e+002, 3.292018e+001
4.758505e+002, 3.266173e+001
4.763326e+002, 3.295543e+001
4.768148e+002, 3.352475e+001
4.772969e+002, 3.387251e+001
4.777790e+002, 3.375180e+001
4.782611e+002, 3.335963e+001
4.787432e+002, 3.310845e+001
4.792253e+002, 3.304857e+001
4.797075e+002, 3.299150e+001
4.801896e+002, 3.278744e+001
4.806717e+002, 3.268941e+001
4.811538e+002, 3.297511e+001
4.816359e+002, 3.354128e+001
4.821180e+002, 3.394827e+001
4.826002e+002, 3.381004e+001
4.830823e+002, 3.332555e+001
4.835644e+002, 3.306025e+001
4.840465e+002, 3.305973e+001
4.845286e+002, 3.312151e+001
4.850107e+002, 3.322026e+001
4.854929e+002, 3.330118e+001
4.859750e+002, 3.330815e+001
4.864571e+002, 3.323934e+001
4.869392e+002, 3.307378e+001
4.874213e+002, 3.264627e+001
4.879034e+002, 3.213363e+001
4.883856e+002, 3.199585e+001
4.888677e+002, 3.234392e+001
4.893498e+002, 3.276175e+001
4.898319e+002, 3.294790e+001
4.903140e+002, 3.287914e+001
4.907961e+002, 3.259187e+001
4.912783e+002, 3.168869e+001
4.917604e+002, 3.098554e+001
4.922425e+002, 3.098438e+001
4.927246e+002, 3.141894e+001
4.932067e+002, 3.180257e+001
4.936888e+002, 3.196314e+001
4.941710e+002, 3.201397e+001
4.946531e+002, 3.213853e+001
4.951352e+002, 3.242450e+001
4.956173e+002, 3.249294e+001
4.960994e+002, 3.214676e+001
4.965815e+002, 3.180662e+001
4.970637e+002, 3.164821e+001
4.975458e+002, 3.165934e+001
4.980279e+002, 3.179503e+001
4.985100e+002, 3.204277e+001
4.989921e+002, 3.233316e+001
4.994742e+002, 3.250289e+001
4.999564e+002, 3.255525e+001
5.004385e+002, 3.247043e+001
5.009206e+002, 3.195917e+001
5.014027e+002, 3.153620e+001
5.018848e+002, 3.165126e+001
5.023669e+002, 3.222099e+001
5.028491e+002, 3.269149e+001
5.033312e+002, 3.250431e+001
5.038133e+002, 3.198257e+001
5.042954e+002, 3.212629e+001
5.047775e+002, 3.311458e+001
5.052596e+002, 3.390785e+001
5.057418e+002, 3.381075e+001
5.062239e+002, 3.335463e+001
5.067060e+002, 3.336038e+001
5.071881e+002, 3.400122e+001
5.076702e+002, 3.454300e+001
5.081523e+002, 3.458899e+001
5.086345e+002, 3.430745e+001
5.091166e+002, 3.393854e+001
5.095987e+002, 3.351649e+001
5.100808e+002, 3.306653e+001
5.105629e+002, 3.251613e+001
5.110450e+002, 3.192896e+001
5.115272e+002, 3.194401e+001
5.120093e+002, 3.323960e+001
5.124914e+002, 3.424992e+001
5.129735e+002, 3.434615e+001
5.134556e+002, 3.396755e+001
5.139377e+002, 3.366192e+001
5.144199e+002, 3.359112e+001
5.149020e+002, 3.362683e+001
5.153841e+002, 3.359828e+001
5.158662e+002, 3.347105e+001
5.163483e+002, 3.351644e+001
5.168304e+002, 3.397406e+001
5.173126e+002, 3.435297e+001
5.177947e+002, 3.450759e+001
5.182768e+002, 3.449821e+001
5.187589e+002, 3.442328e+001
5.192410e+002, 3.432194e+001
5.197231e+002, 3.416401e+001
5.202053e+002, 3.380888e+001
5.206874e+002, 3.322043e+001
5.211695e+002, 3.302640e+001
5.216516e+002, 3.368350e+001
5.221337e+002, 3.426994e+001
5.226158e+002, 3.393451e+001
5.230980e+002, 3.301967e+001
5.235801e+002, 3.253019e+001
5.240622e+002, 3.311575e+001
5.245443e+002, 3.398664e+001
5.250264e+002, 3.429242e+001
5.255085e+002, 3.412146e+001
5.259907e+002, 3.398130e+001
5.264728e+002, 3.405387e+001
5.269549e+002, 3.422241e+001
5.274370e+002, 3.433829e+001
5.279191e+002, 3.441549e+001
5.284012e+002, 3.436723e+001
5.288834e+002, 3.402519e+001
5.293655e+002, 3.369151e+001
5.298476e+002, 3.352275e+001
5.303297e+002, 3.353898e+001
5.308118e+002, 3.381112e+001
5.312939e+002, 3.440342e+001
5.317761e+002, 3.510600e+001
5.322582e+002, 3.535162e+001
5.327403e+002, 3.470809e+001
5.332224e+002, 3.440092e+001
5.337045e+002, 3.486428e+001
5.341866e+002, 3.526487e+001
5.346688e+002, 3.498611e+001
5.351509e+002, 3.418358e+001
5.356330e+002, 3.345797e+001
5.361151e+002, 3.322738e+001
5.365972e+002, 3.330467e+001
5.370793e+002, 3.313887e+001
5.375615e+002, 3.262496e+001
5.380436e+002, 3.230133e+001
5.385257e+002, 3.235018e+001
5.390078e+002, 3.264988e+001
5.394899e+002, 3.325695e+001
5.399720e+002, 3.413170e+001
5.404542e+002, 3.467918e+001
5.409363e+002, 3.442241e+001
5.414184e+002, 3.375904e+001
5.419005e+002, 3.312045e+001
5.423826e+002, 3.254558e+001
5.428647e+002, 3.234877e+001
5.433469e+002, 3.280403e+001
5.438290e+002, 3.363117e+001
5.443111e+002, 3.414799e+001
5.447932e+002, 3.448627e+001
5.452753e+002, 3.428206e+001
5.457574e+002, 3.298529e+001
5.462396e+002, 3.147599e+001
5.467217e+002, 3.041855e+001
5.472038e+002, 2.987847e+001
5.476859e+002, 2.971056e+001
5.481680e+002, 2.982700e+001
5.486501e+002, 3.019818e+001
5.491323e+002, 3.072289e+001
5.496144e+002, 3.165157e+001
5.500965e+002, 3.228387e+001
5.505786e+002, 3.260905e+001
5.510607e+002, 3.261053e+001
5.515428e+002, 3.207846e+001
5.520250e+002, 3.113476e+001
5.525071e+002, 3.033585e+001
5.529892e+002, 3.016081e+001
5.534713e+002, 3.040401e+001
5.539534e+002, 3.048905e+001
5.544355e+002, 3.041056e+001
5.549177e+002, 3.017823e+001
5.553998e+002, 2.962982e+001
5.558819e+002, 2.905051e+001
5.563640e+002, 2.883964e+001
5.568461e+002, 2.904492e+001
5.573282e+002, 2.927524e+001
5.578104e+002, 2.938709e+001
5.582925e+002, 2.943974e+001
5.587746e+002, 2.948843e+001
5.592567e+002, 2.954186e+001
5.597388e+002, 2.962893e+001
5.602209e+002, 2.978950e+001
5.607031e+002, 2.996194e+001
5.611852e+002, 2.994943e+001
5.616673e+002, 2.953928e+001
5.621494e+002, 2.923816e+001
5.626315e+002, 2.912104e+001
5.631136e+002, 2.906160e+001
5.635958e+002, 2.900990e+001
5.640779e+002, 2.893422e+001
5.645600e+002, 2.875262e+001
5.650421e+002, 2.836088e+001
5.655242e+002, 2.790064e+001
5.660063e+002, 2.791316e+001
5.664885e+002, 2.861485e+001
5.669706e+002, 2.915775e+001
5.674527e+002, 2.926275e+001
5.679348e+002, 2.919337e+001
5.684169e+002, 2.903310e+001
5.688990e+002, 2.882561e+001
5.693812e+002, 2.875941e+001
5.698633e+002, 2.915030e+001
5.703454e+002, 2.962698e+001
5.708275e+002, 2.959617e+001
5.713096e+002, 2.908409e+001
5.717917e+002, 2.850000e+001
5.722739e+002, 2.793339e+001
5.727560e+002, 2.751201e+001
5.732381e+002, 2.755851e+001
5.737202e+002, 2.828560e+001
5.742023e+002, 2.861848e+001
5.746844e+002, 2.804947e+001
5.751666e+002, 2.741064e+001
5.756487e+002, 2.728400e+001
5.761308e+002, 2.757142e+001
5.766129e+002, 2.794524e+001
5.770950e+002, 2.824533e+001
5.775771e+002, 2.842349e+001
5.780593e+002, 2.833932e+001
5.785414e+002, 2.785042e+001
5.790235e+002, 2.748738e+001
5.795056e+002, 2.726598e+001
5.799877e+002, 2.718851e+001
5.804698e+002, 2.741023e+001
5.809520e+002, 2.777197e+001
5.814341e+002, 2.790300e+001
5.819162e+002, 2.755877e+001
5.823983e+002, 2.707803e+001
5.828804e+002, 2.690585e+001
5.833625e+002, 2.702172e+001
5.838447e+002, 2.727237e+001
5.843268e+002, 2.774364e+001
5.848089e+002, 2.805868e+001
5.852910e+002, 2.761480e+001
5.857731e+002, 2.652165e+001
5.862552e+002, 2.595332e+001
5.867374e+002, 2.630017e+001
5.872195e+002, 2.689379e+001
5.877016e+002, 2.772278e+001
5.881837e+002, 2.847625e+001
5.886658e+002, 2.845850e+001
5.891479e+002, 2.750731e+001
5.896301e+002, 2.642949e+001
5.901122e+002, 2.626914e+001
5.905943e+002, 2.715767e+001
5.910764e+002, 2.771863e+001
5.915585e+002, 2.775914e+001
5.920406e+002, 2.767753e+001
5.925228e+002, 2.749795e+001
5.930049e+002, 2.727980e+001
5.934870e+002, 2.709818e+001
5.939691e+002, 2.696967e+001
5.944512e+002, 2.682130e+001
5.949333e+002, 2.650697e+001
5.954155e+002, 2.609925e+001
5.958976e+002, 2.595895e+001
5.963797e+002, 2.616340e+001
5.968618e+002, 2.638221e+001
5.973439e+002, 2.645631e+001
5.978260e+002, 2.639560e+001
5.983082e+002, 2.620555e+001
5.987903e+002, 2.572185e+001
5.992724e+002, 2.552285e+001
5.997545e+002, 2.622068e+001
6.002366e+002, 2.703273e+001
6.007188e+002, 2.682084e+001
6.012009e+002, 2.573158e+001
6.016830e+002, 2.515137e+001
6.021651e+002, 2.611578e+001
6.026472e+002, 2.805951e+001
6.031293e+002, 2.883779e+001
6.036115e+002, 2.764977e+001
6.040936e+002, 2.674649e+001
6.045757e+002, 2.627903e+001
6.050578e+002, 2.610934e+001
6.055399e+002, 2.630072e+001
6.060220e+002, 2.673138e+001
6.065042e+002, 2.710055e+001
6.069863e+002, 2.726146e+001
6.074684e+002, 2.723791e+001
6.079505e+002, 2.701563e+001
6.084326e+002, 2.659956e+001
6.089147e+002, 2.621431e+001
6.093969e+002, 2.592484e+001
6.098790e+002, 2.567137e+001
6.103611e+002, 2.536115e+001
6.108432e+002, 2.500453e+001
6.113253e+002, 2.477965e+001
6.118074e+002, 2.473366e+001
6.122896e+002, 2.479426e+001
6.127717e+002, 2.500193e+001
6.132538e+002, 2.526836e+001
6.137359e+002, 2.546807e+001
6.142180e+002, 2.555866e+001
6.147001e+002, 2.552195e+001
6.151823e+002, 2.528870e+001
6.156644e+002, 2.483392e+001
6.161465e+002, 2.472203e+001
6.166286e+002, 2.539971e+001
6.171107e+002, 2.580048e+001
6.175928e+002, 2.546224e+001
6.180750e+002, 2.484311e+001
6.185571e+002, 2.434755e+001
6.190392e+002, 2.406631e+001
6.195213e+002, 2.402081e+001
6.200034e+002, 2.443629e+001
6.204855e+002, 2.504873e+001
6.209677e+002, 2.522894e+001
6.214498e+002, 2.493993e+001
6.219319e+002, 2.453196e+001
6.224140e+002, 2.410056e+001
6.228961e+002, 2.373569e+001
6.233782e+002, 2.364015e+001
6.238604e+002, 2.383157e+001
6.243425e+002, 2.419099e+001
6.248246e+002, 2.511248e+001
6.253067e+002, 2.583720e+001
6.257888e+002, 2.557763e+001
6.262709e+002, 2.471081e+001
6.267531e+002, 2.425576e+001
6.272352e+002, 2.472463e+001
6.277173e+002, 2.557568e+001
6.281994e+002, 2.578124e+001
6.286815e+002, 2.519879e+001
6.291636e+002, 2.474863e+001
6.296458e+002, 2.442124e+001
6.301279e+002, 2.432032e+001
6.306100e+002, 2.460866e+001
6.310921e+002, 2.510406e+001
6.315742e+002, 2.550377e+001
6.320563e+002, 2.575887e+001
6.325385e+002, 2.582837e+001
6.330206e+002, 2.561279e+001
6.335027e+002, 2.520886e+001
6.339848e+002, 2.473333e+001
6.344669e+002, 2.421273e+001
6.349490e+002, 2.389448e+001
6.354312e+002, 2.401509e+001
6.359133e+002, 2.444757e+001
6.363954e+002, 2.458700e+001
6.368775e+002, 2.395996e+001
6.373596e+002, 2.367579e+001
6.378417e+002, 2.421207e+001
6.383239e+002, 2.474187e+001
6.388060e+002, 2.452776e+001
6.392881e+002, 2.374798e+001
6.397702e+002, 2.312514e+001
6.402523e+002, 2.309251e+001
6.407344e+002, 2.345464e+001
6.412166e+002, 2.394654e+001
6.416987e+002, 2.458768e+001
6.421808e+002, 2.491485e+001
6.426629e+002, 2.469639e+001
6.431450e+002, 2.437287e+001
6.436271e+002, 2.436291e+001
6.441093e+002, 2.458304e+001
6.445914e+002, 2.473885e+001
6.450735e+002, 2.488272e+001
6.455556e+002, 2.484846e+001
6.460377e+002, 2.432587e+001
6.465198e+002, 2.367335e+001
6.470020e+002, 2.347970e+001
6.474841e+002, 2.381312e+001
6.479662e+002, 2.422699e+001
6.484483e+002, 2.432441e+001
6.489304e+002, 2.414995e+001
6.494125e+002, 2.401433e+001
6.498947e+002, 2.388835e+001
6.503768e+002, 2.386195e+001
6.508589e+002, 2.398393e+001
6.513410e+002, 2.417861e+001
6.518231e+002, 2.449842e+001
6.523052e+002, 2.487382e+001
6.527874e+002, 2.501594e+001
6.532695e+002, 2.459808e+001
6.537516e+002, 2.404928e+001
6.542337e+002, 2.393324e+001
6.547158e+002, 2.416654e+001
6.551979e+002, 2.440524e+001
6.556801e+002, 2.457669e+001
6.561622e+002, 2.455915e+001
6.566443e+002, 2.411839e+001
6.571264e+002, 2.320403e+001
6.576085e+002, 2.287984e+001
6.580906e+002, 2.370811e+001
6.585728e+002, 2.433797e+001
6.590549e+002, 2.424388e+001
6.595370e+002, 2.392027e+001
6.600191e+002, 2.388892e+001
6.605012e+002, 2.422027e+001
6.609833e+002, 2.465938e+001
6.614655e+002, 2.506083e+001
6.619476e+002, 2.537683e+001
6.624297e+002, 2.539273e+001
6.629118e+002, 2.506368e+001
6.633939e+002, 2.478931e+001
6.638760e+002, 2.470729e+001
6.643582e+002, 2.471370e+001
6.648403e+002, 2.470372e+001
6.653224e+002, 2.467805e+001
6.658045e+002, 2.462868e+001
6.662866e+002, 2.447104e+001
6.667687e+002, 2.437621e+001
6.672509e+002, 2.452839e+001
6.677330e+002, 2.477850e+001
6.682151e+002, 2.483531e+001
6.686972e+002, 2.464480e+001
6.691793e+002, 2.447636e+001
6.696614e+002, 2.465905e+001
6.701436e+002, 2.514688e+001
6.706257e+002, 2.522986e+001
6.711078e+002, 2.459785e+001
6.715899e+002, 2.420215e+001
6.720720e+002, 2.454896e+001
6.725541e+002, 2.506537e+001
6.730363e+002, 2.532399e+001
6.735184e+002, 2.531015e+001
6.740005e+002, 2.521858e+001
6.744826e+002, 2.510554e+001
6.749647e+002, 2.497326e+001
6.754468e+002, 2.469596e+001
6.759290e+002, 2.439565e+001
6.764111e+002, 2.452454e+001
6.768932e+002, 2.523118e+001
6.773753e+002, 2.605318e+001
6.778574e+002, 2.646995e+001
6.783395e+002, 2.647582e+001
6.788217e+002, 2.621031e+001
6.793038e+002, 2.519447e+001
6.797859e+002, 2.452419e+001
6.802680e+002, 2.450513e+001
6.807501e+002, 2.482790e+001
6.812322e+002, 2.533010e+001
6.817144e+002, 2.592532e+001
6.821965e+002, 2.639491e+001
6.826786e+002, 2.647269e+001
6.831607e+002, 2.641858e+001
6.836428e+002, 2.681905e+001
6.841249e+002, 2.758077e+001
6.846071e+002, 2.779138e+001
6.850892e+002, 2.705961e+001
6.855713e+002, 2.611231e+001
6.860534e+002, 2.575189e+001
6.865355e+002, 2.601053e+001
6.870176e+002, 2.639652e+001
6.874998e+002, 2.719920e+001
6.879819e+002, 2.775411e+001
6.884640e+002, 2.780529e+001
6.889461e+002, 2.758456e+001
6.894282e+002, 2.724290e+001
6.899103e+002, 2.685755e+001
6.903925e+002, 2.656180e+001
6.908746e+002, 2.647684e+001
6.913567e+002, 2.653363e+001
6.918388e+002, 2.655718e+001
6.923209e+002, 2.654297e+001
6.928030e+002, 2.665181e+001
6.932852e+002, 2.703808e+001
6.937673e+002, 2.734352e+001
6.942494e+002, 2.701688e+001
6.947315e+002, 2.613495e+001
6.952136e+002, 2.588178e+001
6.956957e+002, 2.714199e+001
6.961779e+002, 2.801800e+001
6.966600e+002, 2.736217e+001
6.971421e+002, 2.627524e+001
6.976242e+002, 2.617622e+001
6.981063e+002, 2.707710e+001
6.985884e+002, 2.778280e+001
6.990706e+002, 2.731798e+001
6.995527e+002, 2.612082e+001
7.000348e+002, 2.543680e+001
7.005169e+002, 2.532981e+001
7.009990e+002, 2.535168e+001
7.014811e+002, 2.546749e+001
7.019633e+002, 2.561659e+001
7.024454e+002, 2.570708e+001
7.029275e+002, 2.578162e+001
7.034096e+002, 2.600857e+001
7.038917e+002, 2.661953e+001
7.043738e+002, 2.709762e+001
7.048560e+002, 2.712456e+001
7.053381e+002, 2.696313e+001
7.058202e+002, 2.694120e+001
7.063023e+002, 2.707371e+001
7.067844e+002, 2.714056e+001
7.072665e+002, 2.696673e+001
7.077487e+002, 2.670936e+001
7.082308e+002, 2.688928e+001
7.087129e+002, 2.768224e+001
7.091950e+002, 2.807864e+001
7.096771e+002, 2.780158e+001
7.101592e+002, 2.730965e+001
7.106414e+002, 2.670467e+001
7.111235e+002, 2.613428e+001
7.116056e+002, 2.595890e+001
7.120877e+002, 2.639361e+001
7.125698e+002, 2.685904e+001
7.130519e+002, 2.703356e+001
7.135341e+002, 2.710928e+001
7.140162e+002, 2.729087e+001
7.144983e+002, 2.759670e+001
7.149804e+002, 2.802849e+001
7.154625e+002, 2.861008e+001
7.159446e+002, 2.916476e+001
7.164268e+002, 2.919311e+001
7.169089e+002, 2.842303e+001
7.173910e+002, 2.840741e+001
7.178731e+002, 2.995413e+001
7.183552e+002, 3.120639e+001
7.188373e+002, 3.094771e+001
7.193195e+002, 3.002072e+001
7.198016e+002, 2.968694e+001
7.202837e+002, 3.023553e+001
7.207658e+002, 3.072133e+001
7.212479e+002, 3.051230e+001
7.217300e+002, 3.014099e+001
7.222122e+002, 3.026810e+001
7.226943e+002, 3.077341e+001
7.231764e+002, 3.102914e+001
7.236585e+002, 3.075460e+001
7.241406e+002, 3.046492e+001
7.246227e+002, 3.107078e+001
7.251049e+002, 3.275143e+001
7.255870e+002, 3.361074e+001
7.260691e+002, 3.306385e+001
7.265512e+002, 3.263324e+001
7.270333e+002, 3.294125e+001
7.275154e+002, 3.354534e+001
7.279976e+002, 3.412072e+001
7.284797e+002, 3.462253e+001
7.289618e+002, 3.480316e+001
7.294439e+002, 3.408303e+001
7.299260e+002, 3.340304e+001
7.304081e+002, 3.374066e+001
7.308903e+002, 3.478381e+001
7.313724e+002, 3.579918e+001
7.318545e+002, 3.656194e+001
7.323366e+002, 3.715892e+001
7.328187e+002, 3.767110e+001
7.333008e+002, 3.810350e+001
7.337830e+002, 3.852612e+001
7.342651e+002, 3.893019e+001
7.347472e+002, 3.934283e+001
7.352293e+002, 3.967569e+001
7.357114e+002, 4.010059e+001
7.361935e+002, 4.090533e+001
7.366757e+002, 4.195228e+001
7.371578e+002, 4.263383e+001
7.376399e+002, 4.254708e+001
7.381220e+002, 4.232616e+001
7.386041e+002, 4.230136e+001
7.390862e+002, 4.245535e+001
7.395684e+002, 4.280302e+001
7.400505e+002, 4.332015e+001
7.405326e+002, 4.391318e+001
7.410147e+002, 4.454191e+001
7.414968e+002, 4.511773e+001
7.419789e+002, 4.528302e+001
7.424611e+002, 4.479790e+001
7.429432e+002, 4.482308e+001
7.434253e+002, 4.600479e+001
7.439074e+002, 4.703216e+001
7.443895e+002, 4.693608e+001
7.448716e+002, 4.624120e+001
7.453538e+002, 4.594962e+001
7.458359e+002, 4.635517e+001
7.463180e+002, 4.670798e+001
7.468001e+002, 4.669464e+001
7.472822e+002, 4.644627e+001
7.477643e+002, 4.600852e+001
7.482465e+002, 4.545519e+001
7.487286e+002, 4.491846e+001
7.492107e+002, 4.446024e+001
7.496928e+002, 4.414044e+001
7.501749e+002, 4.408891e+001
7.506570e+002, 4.432244e+001
7.511392e+002, 4.448383e+001
7.516213e+002, 4.458813e+001
7.521034e+002, 4.458862e+001
7.525855e+002, 4.450763e+001
7.530676e+002, 4.427752e+001
7.535497e+002, 4.373134e+001
7.540319e+002, 4.285413e+001
7.545140e+002, 4.220665e+001
7.549961e+002, 4.201799e+001
7.554782e+002, 4.199674e+001
7.559603e+002, 4.229156e+001
7.564424e+002, 4.250878e+001
7.569246e+002, 4.181017e+001
7.574067e+002, 4.018494e+001
7.578888e+002, 3.877356e+001
7.583709e+002, 3.863232e+001
7.588530e+002, 3.935787e+001
7.593351e+002, 3.952882e+001
7.598173e+002, 3.905579e+001
7.602994e+002, 3.881127e+001
7.607815e+002, 3.908796e+001
7.612636e+002, 3.944517e+001
7.617457e+002, 3.959746e+001
7.622278e+002, 3.952047e+001
7.627100e+002, 3.913133e+001
7.631921e+002, 3.803650e+001
7.636742e+002, 3.723897e+001
7.641563e+002, 3.705790e+001
7.646384e+002, 3.719422e+001
7.651205e+002, 3.743641e+001
7.656027e+002, 3.777885e+001
7.660848e+002, 3.839681e+001
7.665669e+002, 3.940229e+001
7.670490e+002, 4.025379e+001
7.675311e+002, 4.005346e+001
7.680132e+002, 3.901380e+001
7.684954e+002, 3.827412e+001
7.689775e+002, 3.789605e+001
7.694596e+002, 3.794320e+001
7.699417e+002, 3.864986e+001
7.704238e+002, 3.950169e+001
7.709059e+002, 3.954723e+001
7.713881e+002, 3.851144e+001
7.718702e+002, 3.774727e+001
7.723523e+002, 3.698524e+001
7.728344e+002, 3.679694e+001
7.733165e+002, 3.793116e+001
7.737986e+002, 3.941925e+001
7.742808e+002, 4.016724e+001
7.747629e+002, 4.005444e+001
7.752450e+002, 3.974046e+001
7.757271e+002, 3.958336e+001
7.762092e+002, 3.955116e+001
7.766913e+002, 3.965178e+001
7.771735e+002, 3.984536e+001
7.776556e+002, 3.993501e+001
7.781377e+002, 3.987035e+001
7.786198e+002, 3.985841e+001
7.791019e+002, 4.010333e+001
7.795840e+002, 4.053042e+001
7.800662e+002, 4.074810e+001
7.805483e+002, 4.063271e+001
7.810304e+002, 4.054031e+001
7.815125e+002, 4.033526e+001
7.819946e+002, 4.031593e+001
7.824767e+002, 4.083522e+001
7.829589e+002, 4.159470e+001
7.834410e+002, 4.201918e+001
7.839231e+002, 4.193404e+001
7.844052e+002, 4.169505e+001
7.848873e+002, 4.138632e+001
7.853694e+002, 4.112739e+001
7.858516e+002, 4.108367e+001
7.863337e+002, 4.122820e+001
7.868158e+002, 4.145869e+001
7.872979e+002, 4.173280e+001
7.877800e+002, 4.200528e+001
7.882621e+002, 4.222214e+001
7.887443e+002, 4.238252e+001
7.892264e+002, 4.246961e+001
7.897085e+002, 4.240149e+001
7.901906e+002, 4.249563e+001
7.906727e+002, 4.294322e+001
7.911548e+002, 4.349908e+001
7.916370e+002, 4.394707e+001
7.921191e+002, 4.429240e+001
7.926012e+002, 4.454756e+001
7.930833e+002, 4.450206e+001
7.935654e+002, 4.463248e+001
7.940475e+002, 4.519573e+001
7.945297e+002, 4.596698e+001
7.950118e+002, 4.695142e+001
7.954939e+002, 4.794269e+001
7.959760e+002, 4.830521e+001
7.964581e+002, 4.760939e+001
7.969402e+002, 4.665334e+001
7.974224e+002, 4.670248e+001
7.979045e+002, 4.761190e+001
7.983866e+002, 4.856756e+001
7.988687e+002, 4.957731e+001
7.993508e+002, 4.982240e+001
7.998329e+002, 4.858250e+001
8.003151e+002, 4.680174e+001
8.007972e+002, 4.629110e+001
8.012793e+002, 4.746283e+001
8.017614e+002, 4.828788e+001
8.022435e+002, 4.872392e+001
8.027256e+002, 4.890422e+001
8.032078e+002, 4.856077e+001
8.036899e+002, 4.817858e+001
8.041720e+002, 4.839133e+001
8.046541e+002, 4.915265e+001
8.051362e+002, 4.969227e+001
8.056183e+002, 4.945467e+001
8.061005e+002, 4.897911e+001
8.065826e+002, 4.882094e+001
8.070647e+002, 4.885512e+001
8.075468e+002, 4.885336e+001
8.080289e+002, 4.875538e+001
8.085110e+002, 4.842364e+001
8.089932e+002, 4.771587e+001
8.094753e+002, 4.685425e+001
8.099574e+002, 4.651627e+001
8.104395e+002, 4.692778e+001
8.109216e+002, 4.677674e+001
8.114037e+002, 4.551406e+001
8.118859e+002, 4.449402e+001
8.123680e+002, 4.460749e+001
8.128501e+002, 4.527719e+001
8.133322e+002, 4.576849e+001
8.138143e+002, 4.608097e+001
8.142964e+002, 4.598835e+001
8.147786e+002, 4.497208e+001
8.152607e+002, 4.403251e+001
8.157428e+002, 4.384927e+001
8.162249e+002, 4.406428e+001
8.167070e+002, 4.419433e+001
8.171891e+002, 4.412463e+001
8.176713e+002, 4.393363e+001
8.181534e+002, 4.362938e+001
8.186355e+002, 4.331988e+001
8.191176e+002, 4.327438e+001
8.195997e+002, 4.344806e+001
8.200818e+002, 4.349259e+001
8.205640e+002, 4.334601e+001
8.210461e+002, 4.307006e+001
8.215282e+002, 4.269878e+001
8.220103e+002, 4.223719e+001
8.224924e+002, 4.167363e+001
8.229745e+002, 4.070931e+001
8.234567e+002, 4.030600e+001
8.239388e+002, 4.104027e+001
8.244209e+002, 4.167051e+001
8.249030e+002, 4.165785e+001
8.253851e+002, 4.134394e+001
8.258672e+002, 4.121354e+001
8.263494e+002, 4.133037e+001
8.268315e+002, 4.129264e+001
8.273136e+002, 4.049410e+001
8.277957e+002, 3.986115e+001
8.282778e+002, 4.059188e+001
8.287599e+002, 4.191803e+001
8.292421e+002, 4.231913e+001
8.297242e+002, 4.159798e+001
8.302063e+002, 4.069561e+001
8.306884e+002, 4.028446e+001
8.311705e+002, 4.029872e+001
8.316526e+002, 4.072274e+001
8.321348e+002, 4.158115e+001
8.326169e+002, 4.196791e+001
8.330990e+002, 4.164783e+001
8.335811e+002, 4.127568e+001
8.340632e+002, 4.128522e+001
8.345453e+002, 4.145793e+001
8.350275e+002, 4.125562e+001
8.355096e+002, 4.039051e+001
8.359917e+002, 4.002938e+001
8.364738e+002, 4.052755e+001
8.369559e+002, 4.111742e+001
8.374380e+002, 4.170042e+001
8.379202e+002, 4.211452e+001
8.384023e+002, 4.208335e+001
8.388844e+002, 4.165748e+001
8.393665e+002, 4.135149e+001
8.398486e+002, 4.150002e+001
8.403307e+002, 4.181689e+001
8.408129e+002, 4.213444e+001
8.412950e+002, 4.236919e+001
8.417771e+002, 4.229018e+001
8.422592e+002, 4.190824e+001
8.427413e+002, 4.148064e+001
8.432234e+002, 4.115925e+001
8.437056e+002, 4.097118e+001
8.441877e+002, 4.098457e+001
8.446698e+002, 4.120727e+001
8.451519e+002, 4.152471e+001
8.456340e+002, 4.192101e+001
8.461161e+002, 4.247390e+001
8.465983e+002, 4.343675e+001
8.470804e+002, 4.436863e+001
8.475625e+002, 4.457201e+001
8.480446e+002, 4.400023e+001
8.485267e+002, 4.352854e+001
8.490089e+002, 4.298969e+001
8.494910e+002, 4.281496e+001
8.499731e+002, 4.349007e+001
8.504552e+002, 4.429804e+001
8.509373e+002, 4.464219e+001
8.514194e+002, 4.452353e+001
8.519016e+002, 4.415308e+001
8.523837e+002, 4.353309e+001
8.528658e+002, 4.301028e+001
8.533479e+002, 4.297475e+001
8.538300e+002, 4.321440e+001
8.543121e+002, 4.338421e+001
8.547943e+002, 4.346423e+001
8.552764e+002, 4.355308e+001
8.557585e+002, 4.369379e+001
8.562406e+002, 4.373767e+001
8.567227e+002, 4.343139e+001
8.572048e+002, 4.282180e+001
8.576870e+002, 4.252386e+001
8.581691e+002, 4.259089e+001
8.586512e+002, 4.279974e+001
8.591333e+002, 4.324776e+001
8.596154e+002, 4.358282e+001
8.600975e+002, 4.350435e+001
8.605797e+002, 4.303925e+001
8.610618e+002, 4.236864e+001
8.615439e+002, 4.115498e+001
8.620260e+002, 4.030489e+001
8.625081e+002, 3.995713e+001
8.629902e+002, 3.995119e+001
8.634724e+002, 4.052874e+001
8.639545e+002, 4.125166e+001
8.644366e+002, 4.138436e+001
8.649187e+002, 4.076138e+001
8.654008e+002, 4.006884e+001
8.658829e+002, 3.971442e+001
8.663651e+002, 3.956408e+001
8.668472e+002, 3.949200e+001
8.673293e+002, 3.949137e+001
8.678114e+002, 3.957674e+001
8.682935e+002, 3.973837e+001
8.687756e+002, 3.991628e+001
8.692578e+002, 4.009138e+001
8.697399e+002, 4.016385e+001
8.702220e+002, 3.967718e+001
8.707041e+002, 3.856730e+001
8.711862e+002, 3.846548e+001
8.716683e+002, 3.982621e+001
8.721505e+002, 4.102028e+001
8.726326e+002, 4.113924e+001
8.731147e+002, 4.069065e+001
8.735968e+002, 4.049047e+001
8.740789e+002, 4.055511e+001
8.745610e+002, 4.078915e+001
8.750432e+002, 4.141778e+001
8.755253e+002, 4.190887e+001
8.760074e+002, 4.209118e+001
8.764895e+002, 4.212877e+001
8.769716e+002, 4.206147e+001
8.774537e+002, 4.197210e+001
8.779359e+002, 4.207337e+001
8.784180e+002, 4.241932e+001
8.789001e+002, 4.301191e+001
8.793822e+002, 4.419781e+001
8.798643e+002, 4.538351e+001
8.803464e+002, 4.575061e+001
8.808286e+002, 4.553272e+001
8.813107e+002, 4.542702e+001
8.817928e+002, 4.570558e+001
8.822749e+002, 4.635518e+001
8.827570e+002, 4.754371e+001
8.832391e+002, 4.900914e+001
8.837213e+002, 4.982590e+001
8.842034e+002, 5.003673e+001
8.846855e+002, 5.034386e+001
8.851676e+002, 5.090100e+001
8.856497e+002, 5.165158e+001
8.861318e+002, 5.260122e+001
8.866140e+002, 5.365878e+001
8.870961e+002, 5.445728e+001
8.875782e+002, 5.464087e+001
8.880603e+002, 5.551648e+001
8.885424e+002, 5.770620e+001
8.890245e+002, 5.973633e+001
8.895067e+002, 6.085270e+001
8.899888e+002, 6.159998e+001
8.904709e+002, 6.258937e+001
8.909530e+002, 6.384937e+001
8.914351e+002, 6.508978e+001
8.919172e+002, 6.621277e+001
8.923994e+002, 6.736057e+001
8.928815e+002, 6.847582e+001
8.933636e+002, 6.973061e+001
8.938457e+002, 7.118972e+001
8.943278e+002, 7.294666e+001
8.948099e+002, 7.535227e+001
8.952921e+002, 7.866158e+001
8.957742e+002, 8.174573e+001
8.962563e+002, 8.316862e+001
8.967384e+002, 8.383972e+001
8.972205e+002, 8.538850e+001
8.977026e+002, 8.764190e+001
8.981848e+002, 8.953137e+001
8.986669e+002, 9.074759e+001
8.991490e+002, 9.189187e+001
8.996311e+002, 9.353898e+001
9.001132e+002, 9.561845e+001
9.005953e+002, 9.809371e+001
9.010775e+002, 1.010965e+002
9.015596e+002, 1.029232e+002
9.020417e+002, 1.032260e+002
9.025238e+002, 1.026149e+002
9.030059e+002, 1.011308e+002
9.034880e+002, 9.929021e+001
9.039702e+002, 9.823075e+001
9.044523e+002, 9.832304e+001
9.049344e+002, 9.770820e+001
9.054165e+002, 9.579835e+001
9.058986e+002, 9.394028e+001
9.063807e+002, 9.262480e+001
9.068629e+002, 9.131039e+001
9.073450e+002, 8.948804e+001
9.078271e+002, 8.722911e+001
9.083092e+002, 8.496912e+001
9.087913e+002, 8.276707e+001
9.092734e+002, 8.064606e+001
9.097556e+002, 7.871598e+001
9.102377e+002, 7.676894e+001
9.107198e+002, 7.450755e+001
9.112019e+002, 7.211347e+001
9.116840e+002, 6.994209e+001
9.121661e+002, 6.810922e+001
9.126483e+002, 6.653657e+001
9.131304e+002, 6.537241e+001
9.136125e+002, 6.423973e+001
9.140946e+002, 6.236142e+001
9.145767e+002, 6.000204e+001
9.150588e+002, 5.802364e+001
9.155410e+002, 5.655873e+001
9.160231e+002, 5.537060e+001
9.165052e+002, 5.433559e+001
9.169873e+002, 5.328770e+001
9.174694e+002, 5.185416e+001
9.179515e+002, 5.001624e+001
9.184337e+002, 4.818538e+001
9.189158e+002, 4.630486e+001
9.193979e+002, 4.466747e+001
9.198800e+002, 4.334191e+001
9.203621e+002, 4.238750e+001
9.208442e+002, 4.199258e+001
9.213264e+002, 4.207820e+001
9.218085e+002, 4.181824e+001
9.222906e+002, 4.095280e+001
9.227727e+002, 4.016174e+001
9.232548e+002, 3.947662e+001
9.237369e+002, 3.886596e+001
9.242191e+002, 3.828888e+001
9.247012e+002, 3.779146e+001
9.251833e+002, 3.761274e+001
9.256654e+002, 3.781487e+001
9.261475e+002, 3.738018e+001
9.266296e+002, 3.513666e+001
9.271118e+002, 3.320868e+001
9.275939e+002, 3.299344e+001
9.280760e+002, 3.342246e+001
9.285581e+002, 3.342613e+001
9.290402e+002, 3.292438e+001
9.295223e+002, 3.216786e+001
9.300045e+002, 3.119804e+001
9.304866e+002, 3.045590e+001
9.309687e+002, 3.068993e+001
9.314508e+002, 3.119430e+001
9.319329e+002, 3.056317e+001
9.324150e+002, 2.922225e+001
9.328972e+002, 2.886621e+001
9.333793e+002, 2.984917e+001
9.338614e+002, 3.066105e+001
9.343435e+002, 2.990302e+001
9.348256e+002, 2.825628e+001
9.353077e+002, 2.726270e+001
9.357899e+002, 2.691843e+001
9.362720e+002, 2.743857e+001
9.367541e+002, 2.897031e+001
9.372362e+002, 2.979387e+001
9.377183e+002, 2.892622e+001
9.382004e+002, 2.733216e+001
9.386826e+002, 2.643624e+001
9.391647e+002, 2.625240e+001
9.396468e+002, 2.610684e+001
9.401289e+002, 2.596812e+001
9.406110e+002, 2.596059e+001
9.410931e+002, 2.629878e+001
9.415753e+002, 2.652197e+001
9.420574e+002, 2.613014e+001
9.425395e+002, 2.540976e+001
9.430216e+002, 2.520308e+001
9.435037e+002, 2.583980e+001
9.439858e+002, 2.598520e+001
9.444680e+002, 2.493516e+001
9.449501e+002, 2.410551e+001
9.454322e+002, 2.422904e+001
9.459143e+002, 2.468316e+001
9.463964e+002, 2.482194e+001
9.468785e+002, 2.465213e+001
9.473607e+002, 2.453706e+001
9.478428e+002, 2.457724e+001
9.483249e+002, 2.473496e+001
9.488070e+002, 2.515183e+001
9.492891e+002, 2.553781e+001
9.497712e+002, 2.557917e+001
9.502534e+002, 2.538421e+001
9.507355e+002, 2.517391e+001
9.512176e+002, 2.501924e+001
9.516997e+002, 2.491664e+001
9.521818e+002, 2.489848e+001
9.526639e+002, 2.488685e+001
9.531461e+002, 2.476260e+001
9.536282e+002, 2.456563e+001
9.541103e+002, 2.440993e+001
9.545924e+002, 2.429066e+001
9.550745e+002, 2.410229e+001
9.555566e+002, 2.379122e+001
9.560388e+002, 2.337965e+001
9.565209e+002, 2.283401e+001
9.570030e+002, 2.221540e+001
9.574851e+002, 2.188751e+001
9.579672e+002, 2.184665e+001
9.584493e+002, 2.163544e+001
9.589315e+002, 2.109291e+001
9.594136e+002, 2.088369e+001
9.598957e+002, 2.161097e+001
9.603778e+002, 2.278792e+001
9.608599e+002, 2.309518e+001
9.613420e+002, 2.229935e+001
9.618242e+002, 2.185074e+001
9.623063e+002, 2.195278e+001
9.627884e+002, 2.189454e+001
9.632705e+002, 2.134426e+001
9.637526e+002, 2.067557e+001
9.642347e+002, 2.023625e+001
9.647169e+002, 2.000934e+001
9.651990e+002, 1.986619e+001
9.656811e+002, 1.986469e+001
9.661632e+002, 1.986001e+001
9.666453e+002, 1.985383e+001
9.671274e+002, 1.984235e+001
9.676096e+002, 1.986136e+001
9.680917e+002, 1.985216e+001
9.685738e+002, 1.969489e+001
9.690559e+002, 1.939770e+001
9.695380e+002, 1.922602e+001
9.700201e+002, 1.941169e+001
9.705023e+002, 1.950724e+001
9.709844e+002, 1.931784e+001
9.714665e+002, 1.900967e+001
9.719486e+002, 1.861486e+001
9.724307e+002, 1.823752e+001
9.729128e+002, 1.801510e+001
9.733950e+002, 1.798664e+001
9.738771e+002, 1.818936e+001
9.743592e+002, 1.890474e+001
9.748413e+002, 1.960199e+001
9.753234e+002, 1.986956e+001
9.758055e+002, 1.979015e+001
9.762877e+002, 1.929865e+001
9.767698e+002, 1.857754e+001
9.772519e+002, 1.820685e+001
9.777340e+002, 1.846811e+001
9.782161e+002, 1.885170e+001
9.786982e+002, 1.885291e+001
9.791804e+002, 1.857503e+001
9.796625e+002, 1.794938e+001
9.801446e+002, 1.722082e+001
9.806267e+002, 1.753545e+001
9.811088e+002, 1.894181e+001
9.815909e+002, 1.952480e+001
9.820731e+002, 1.781536e+001
9.825552e+002, 1.545148e+001
9.830373e+002, 1.578406e+001
9.835194e+002, 1.833313e+001
9.840015e+002, 1.956091e+001
9.844836e+002, 1.936282e+001
9.849658e+002, 1.869732e+001
9.854479e+002, 1.779719e+001
9.859300e+002, 1.716319e+001
9.864121e+002, 1.732694e+001
9.868942e+002, 1.801578e+001
9.873763e+002, 1.821320e+001
9.878585e+002, 1.782584e+001
9.883406e+002, 1.757836e+001
9.888227e+002, 1.757614e+001
9.893048e+002, 1.744078e+001
9.897869e+002, 1.688790e+001
9.902690e+002, 1.639336e+001
9.907512e+002, 1.665026e+001
9.912333e+002, 1.755264e+001
9.917154e+002, 1.771126e+001
9.921975e+002, 1.653483e+001
9.926796e+002, 1.587262e+001
9.931617e+002, 1.609559e+001
9.936439e+002, 1.650460e+001
9.941260e+002, 1.675073e+001
9.946081e+002, 1.700873e+001
9.950902e+002, 1.779970e+001
9.955723e+002, 1.918379e+001
9.960544e+002, 1.935718e+001
9.965366e+002, 1.678784e+001
9.970187e+002, 1.510420e+001
9.975008e+002, 1.553873e+001
9.979829e+002, 1.635672e+001
9.984650e+002, 1.658224e+001
9.989471e+002, 1.642875e+001
9.994293e+002, 1.622171e+001
9.999114e+002, 1.598075e+001
1.000393e+003, 1.623200e+001
1.000876e+003, 1.804547e+001
1.001358e+003, 1.920070e+001
1.001840e+003, 1.812547e+001
1.002322e+003, 1.653089e+001
1.002804e+003, 1.589972e+001
1.003286e+003, 1.603280e+001
1.003768e+003, 1.610395e+001
1.004250e+003, 1.587616e+001
1.004733e+003, 1.581830e+001
1.005215e+003, 1.651944e+001
1.005697e+003, 1.712060e+001
1.006179e+003, 1.678199e+001
1.006661e+003, 1.608169e+001
1.007143e+003, 1.572939e+001
1.007625e+003, 1.576274e+001
1.008107e+003, 1.597662e+001
1.008589e+003, 1.630941e+001
1.009072e+003, 1.648838e+001
1.009554e+003, 1.594941e+001
1.010036e+003, 1.540665e+001
1.010518e+003, 1.605738e+001
1.011000e+003, 1.724178e+001
1.011482e+003, 1.744820e+001
1.011964e+003, 1.666348e+001
1.012446e+003, 1.623953e+001
1.012929e+003, 1.697165e+001
1.013411e+003, 1.776528e+001
1.013893e+003, 1.704769e+001
1.014375e+003, 1.557328e+001
1.014857e+003, 1.479233e+001
1.015339e+003, 1.464177e+001
1.015821e+003, 1.487080e+001
1.016303e+003, 1.534120e+001
1.016785e+003, 1.552693e+001
1.017268e+003, 1.502335e+001
1.017750e+003, 1.433556e+001
1.018232e+003, 1.429816e+001
1.018714e+003, 1.478977e+001
1.019196e+003, 1.538816e+001
1.019678e+003, 1.604985e+001
1.020160e+003, 1.658292e+001
1.020642e+003, 1.693554e+001
1.021125e+003, 1.710282e+001
1.021607e+003, 1.707475e+001
1.022089e+003, 1.688992e+001
1.022571e+003, 1.659051e+001
1.023053e+003, 1.618653e+001
1.023535e+003, 1.588423e+001
1.024017e+003, 1.568568e+001
1.024499e+003, 1.583499e+001
1.024981e+003, 1.649261e+001
1.025464e+003, 1.683238e+001
1.025946e+003, 1.595305e+001
1.026428e+003, 1.445173e+001
1.026910e+003, 1.442006e+001
1.027392e+003, 1.610677e+001
1.027874e+003, 1.680341e+001
1.028356e+003, 1.624384e+001
1.028838e+003, 1.550079e+001
1.029321e+003, 1.484293e+001
1.029803e+003, 1.442072e+001
1.030285e+003, 1.439520e+001
1.030767e+003, 1.471548e+001
1.031249e+003, 1.517348e+001
1.031731e+003, 1.583071e+001
1.032213e+003, 1.644173e+001
1.032695e+003, 1.716971e+001
1.033177e+003, 1.737095e+001
1.033660e+003, 1.657240e+001
1.034142e+003, 1.553026e+001
1.034624e+003, 1.497738e+001
1.035106e+003, 1.487603e+001
1.035588e+003, 1.505548e+001
1.036070e+003, 1.584865e+001
1.036552e+003, 1.609696e+001
1.037034e+003, 1.543813e+001
1.037516e+003, 1.482126e+001
1.037999e+003, 1.462916e+001
1.038481e+003, 1.460408e+001
1.038963e+003, 1.438582e+001
1.039445e+003, 1.405359e+001
1.039927e+003, 1.424005e+001
1.040409e+003, 1.561761e+001
1.040891e+003, 1.632204e+001
1.041373e+003, 1.577936e+001
1.041855e+003, 1.528382e+001
1.042338e+003, 1.545353e+001
1.042820e+003, 1.579071e+001
1.043302e+003, 1.580305e+001
1.043784e+003, 1.551776e+001
1.044266e+003, 1.515649e+001
1.044748e+003, 1.446999e+001
1.045230e+003, 1.414058e+001
1.045712e+003, 1.452376e+001
1.046195e+003, 1.488620e+001
1.046677e+003, 1.489167e+001
1.047159e+003, 1.476452e+001
1.047641e+003, 1.476990e+001
1.048123e+003, 1.488594e+001
1.048605e+003, 1.488827e+001
1.049087e+003, 1.462795e+001
1.049569e+003, 1.448075e+001
1.050052e+003, 1.468911e+001
1.050534e+003, 1.479920e+001
1.051016e+003, 1.433150e+001
1.051498e+003, 1.384781e+001
1.051980e+003, 1.411470e+001
1.052462e+003, 1.501276e+001
1.052944e+003, 1.559855e+001
1.053426e+003, 1.555304e+001
1.053908e+003, 1.550169e+001
1.054391e+003, 1.564247e+001
1.054873e+003, 1.574209e+001
1.055355e+003, 1.561510e+001
1.055837e+003, 1.543037e+001
1.056319e+003, 1.544157e+001
1.056801e+003, 1.559851e+001
1.057283e+003, 1.554112e+001
1.057765e+003, 1.499615e+001
1.058248e+003, 1.468500e+001
1.058730e+003, 1.514768e+001
1.059212e+003, 1.552355e+001
1.059694e+003, 1.515033e+001
1.060176e+003, 1.455667e+001
1.060658e+003, 1.441563e+001
1.061140e+003, 1.466842e+001
1.061622e+003, 1.476346e+001
1.062104e+003, 1.449251e+001
1.062587e+003, 1.422783e+001
1.063069e+003, 1.384071e+001
1.063551e+003, 1.379616e+001
1.064033e+003, 1.488427e+001
1.064515e+003, 1.609983e+001
1.064997e+003, 1.610596e+001
1.065479e+003, 1.513257e+001
1.065961e+003, 1.450763e+001
1.066443e+003, 1.471781e+001
1.066926e+003, 1.491506e+001
1.067408e+003, 1.466117e+001
1.067890e+003, 1.440017e+001
1.068372e+003, 1.442031e+001
1.068854e+003, 1.456070e+001
1.069336e+003, 1.463368e+001
1.069818e+003, 1.464344e+001
1.070300e+003, 1.471979e+001
1.070782e+003, 1.495398e+001
1.071265e+003, 1.498598e+001
1.071747e+003, 1.423459e+001
1.072229e+003, 1.372313e+001
1.072711e+003, 1.442849e+001
1.073193e+003, 1.542596e+001
1.073675e+003, 1.556281e+001
1.074157e+003, 1.508356e+001
1.074639e+003, 1.505792e+001
1.075122e+003, 1.587376e+001
1.075604e+003, 1.643379e+001
1.076086e+003, 1.611168e+001
1.076568e+003, 1.553733e+001
1.077050e+003, 1.494676e+001
1.077532e+003, 1.439596e+001
1.078014e+003, 1.382847e+001
1.078496e+003, 1.336133e+001
1.078979e+003, 1.331680e+001
1.079461e+003, 1.379852e+001
1.079943e+003, 1.425441e+001
1.080425e+003, 1.442447e+001
1.080907e+003, 1.450841e+001
1.081389e+003, 1.464937e+001
1.081871e+003, 1.472623e+001
1.082353e+003, 1.450764e+001
1.082835e+003, 1.416479e+001
1.083318e+003, 1.413660e+001
1.083800e+003, 1.451458e+001
1.084282e+003, 1.470363e+001
1.084764e+003, 1.418968e+001
1.085246e+003, 1.375445e+001
1.085728e+003, 1.383546e+001
1.086210e+003, 1.411858e+001
1.086692e+003, 1.438936e+001
1.087175e+003, 1.463218e+001
1.087657e+003, 1.486643e+001
1.088139e+003, 1.509549e+001
1.088621e+003, 1.531268e+001
1.089103e+003, 1.582488e+001
1.089585e+003, 1.588971e+001
1.090067e+003, 1.452687e+001
1.090549e+003, 1.324867e+001
1.091031e+003, 1.363782e+001
1.091514e+003, 1.467074e+001
1.091996e+003, 1.449212e+001
1.092478e+003, 1.306528e+001
1.092960e+003, 1.230186e+001
1.093442e+003, 1.331555e+001
1.093924e+003, 1.418955e+001
1.094406e+003, 1.386937e+001
1.094888e+003, 1.355178e+001
1.095370e+003, 1.425527e+001
1.095853e+003, 1.527363e+001
1.096335e+003, 1.577098e+001
1.096817e+003, 1.566523e+001
1.097299e+003, 1.507816e+001
1.097781e+003, 1.369946e+001
1.098263e+003, 1.272746e+001
1.098745e+003, 1.271883e+001
1.099227e+003, 1.300236e+001
1.099709e+003, 1.331252e+001
1.100192e+003, 1.367017e+001
1.100674e+003, 1.427851e+001
1.101156e+003, 1.496766e+001
1.101638e+003, 1.513089e+001
1.102120e+003, 1.447530e+001
1.102602e+003, 1.397705e+001
1.103084e+003, 1.416959e+001
1.103566e+003, 1.418061e+001
1.104049e+003, 1.333494e+001
1.104531e+003, 1.245885e+001
1.105013e+003, 1.228314e+001
1.105495e+003, 1.263203e+001
1.105977e+003, 1.304847e+001
1.106459e+003, 1.351902e+001
1.106941e+003, 1.377558e+001
1.107423e+003, 1.360073e+001
1.107906e+003, 1.344772e+001
1.108388e+003, 1.350239e+001
1.108870e+003, 1.354863e+001
1.109352e+003, 1.353287e+001
1.109834e+003, 1.337257e+001
1.110316e+003, 1.277456e+001
1.110798e+003, 1.167597e+001
1.111280e+003, 1.123337e+001
1.111762e+003, 1.219270e+001
1.112245e+003, 1.282028e+001
1.112727e+003, 1.270529e+001
1.113209e+003, 1.244522e+001
1.113691e+003, 1.229302e+001
1.114173e+003, 1.217927e+001
1.114655e+003, 1.176197e+001
1.115137e+003, 1.113467e+001
1.115619e+003, 1.162941e+001
1.116102e+003, 1.489278e+001
1.116584e+003, 1.631784e+001
1.117066e+003, 1.434508e+001
1.117548e+003, 1.276852e+001
1.118030e+003, 1.326177e+001
1.118512e+003, 1.428816e+001
1.118994e+003, 1.443833e+001
1.119476e+003, 1.389264e+001
1.119958e+003, 1.334765e+001
1.120441e+003, 1.269401e+001
1.120923e+003, 1.240225e+001
1.121405e+003, 1.258278e+001
1.121887e+003, 1.289369e+001
1.122369e+003, 1.328745e+001
1.122851e+003, 1.373880e+001
1.123333e+003, 1.434730e+001
1.123815e+003, 1.487578e+001
1.124297e+003, 1.475231e+001
1.124780e+003, 1.391646e+001
1.125262e+003, 1.316921e+001
1.125744e+003, 1.240038e+001
1.126226e+003, 1.221971e+001
1.126708e+003, 1.291093e+001
1.127190e+003, 1.362282e+001
1.127672e+003, 1.392688e+001
1.128154e+003, 1.388763e+001
1.128636e+003, 1.354283e+001
1.129119e+003, 1.294787e+001
1.129601e+003, 1.258652e+001
1.130083e+003, 1.247616e+001
1.130565e+003, 1.240104e+001
1.131047e+003, 1.234826e+001
1.131529e+003, 1.218288e+001
1.132011e+003, 1.179390e+001
1.132493e+003, 1.175213e+001
1.132976e+003, 1.278787e+001
1.133458e+003, 1.429273e+001
1.133940e+003, 1.434989e+001
1.134422e+003, 1.309693e+001
1.134904e+003, 1.216429e+001
1.135386e+003, 1.163802e+001
1.135868e+003, 1.184191e+001
1.136350e+003, 1.283917e+001
1.136833e+003, 1.344248e+001
1.137315e+003, 1.274914e+001
1.137797e+003, 1.160403e+001
1.138279e+003, 1.133538e+001
1.138761e+003, 1.181439e+001
1.139243e+003, 1.291670e+001
1.139725e+003, 1.438152e+001
1.140207e+003, 1.504238e+001
1.140689e+003, 1.480580e+001
1.141172e+003, 1.447685e+001
1.141654e+003, 1.443715e+001
1.142136e+003, 1.427820e+001
1.142618e+003, 1.337902e+001
1.143100e+003, 1.229486e+001
1.143582e+003, 1.204305e+001
1.144064e+003, 1.229069e+001
1.144546e+003, 1.237496e+001
1.145029e+003, 1.228819e+001
1.145511e+003, 1.221240e+001
1.145993e+003, 1.222799e+001
1.146475e+003, 1.246811e+001
1.146957e+003, 1.310744e+001
1.147439e+003, 1.378896e+001
1.147921e+003, 1.419255e+001
1.148403e+003, 1.441359e+001
1.148885e+003, 1.460786e+001
1.149368e+003, 1.468102e+001
1.149850e+003, 1.436033e+001
1.150332e+003, 1.372187e+001
1.150814e+003, 1.318767e+001
1.151296e+003, 1.293565e+001
1.151778e+003, 1.279509e+001
1.152260e+003, 1.293435e+001
1.152742e+003, 1.283968e+001
1.153224e+003, 1.186236e+001
1.153707e+003, 1.070977e+001
1.154189e+003, 9.806976e+000
1.154671e+003, 9.454435e+000
1.155153e+003, 1.044754e+001
1.155635e+003, 1.296962e+001
1.156117e+003, 1.461507e+001
1.156599e+003, 1.394715e+001
1.157081e+003, 1.326242e+001
1.157563e+003, 1.330287e+001
1.158046e+003, 1.350847e+001
1.158528e+003, 1.379427e+001
1.159010e+003, 1.386879e+001
1.159492e+003, 1.310943e+001
1.159974e+003, 1.167415e+001
1.160456e+003, 1.099170e+001
1.160938e+003, 1.144822e+001
1.161420e+003, 1.214239e+001
1.161903e+003, 1.372508e+001
1.162385e+003, 1.454546e+001
1.162867e+003, 1.351483e+001
1.163349e+003, 1.230683e+001
1.163831e+003, 1.223978e+001
1.164313e+003, 1.294064e+001
1.164795e+003, 1.358261e+001
1.165277e+003, 1.423455e+001
1.165760e+003, 1.419291e+001
1.166242e+003, 1.316769e+001
1.166724e+003, 1.236261e+001
1.167206e+003, 1.195663e+001
1.167688e+003, 1.181811e+001
1.168170e+003, 1.190594e+001
1.168652e+003, 1.218684e+001
1.169134e+003, 1.268829e+001
1.169616e+003, 1.328282e+001
1.170099e+003, 1.331053e+001
1.170581e+003, 1.276401e+001
1.171063e+003, 1.208403e+001
1.171545e+003, 1.129136e+001
1.172027e+003, 1.127669e+001
1.172509e+003, 1.232233e+001
1.172991e+003, 1.351442e+001
1.173473e+003, 1.419428e+001
1.173956e+003, 1.440623e+001
1.174438e+003, 1.400828e+001
1.174920e+003, 1.326179e+001
1.175402e+003, 1.311318e+001
1.175884e+003, 1.337844e+001
1.176366e+003, 1.339006e+001
1.176848e+003, 1.306479e+001
1.177330e+003, 1.250565e+001
1.177813e+003, 1.178091e+001
1.178295e+003, 1.136685e+001
1.178777e+003, 1.193428e+001
1.179259e+003, 1.265946e+001
1.179741e+003, 1.234172e+001
1.180223e+003, 1.165034e+001
1.180705e+003, 1.148602e+001
1.181187e+003, 1.176279e+001
1.181669e+003, 1.232136e+001
1.182151e+003, 1.297486e+001
1.182634e+003, 1.310692e+001
1.183116e+003, 1.228640e+001
1.183598e+003, 1.148059e+001
1.184080e+003, 1.130645e+001
1.184562e+003, 1.128027e+001
1.185044e+003, 1.097432e+001
1.185526e+003, 1.073737e+001
1.186008e+003, 1.113577e+001
1.186490e+003, 1.185908e+001
1.186973e+003, 1.210882e+001
1.187455e+003, 1.173225e+001
1.187937e+003, 1.130429e+001
1.188419e+003, 1.029257e+001
1.188901e+003, 1.020077e+001
1.189383e+003, 1.246566e+001
1.189865e+003, 1.437439e+001
1.190347e+003, 1.434197e+001
1.190830e+003, 1.341374e+001
1.191312e+003, 1.235230e+001
1.191794e+003, 1.135652e+001
1.192276e+003, 1.153304e+001
1.192758e+003, 1.364328e+001
1.193240e+003, 1.424314e+001
1.193722e+003, 1.277401e+001
1.194204e+003, 1.141206e+001
1.194687e+003, 1.058355e+001
1.195169e+003, 1.021734e+001
1.195651e+003, 1.034512e+001
1.196133e+003, 1.068597e+001
1.196615e+003, 1.075961e+001
1.197097e+003, 1.065283e+001
1.197579e+003, 1.105665e+001
1.198061e+003, 1.191547e+001
1.198543e+003, 1.190545e+001
1.199026e+003, 1.099146e+001
1.199508e+003, 1.062623e+001
1.199990e+003, 1.128117e+001
1.200472e+003, 1.222155e+001
1.200954e+003, 1.291276e+001
1.201436e+003, 1.331849e+001
1.201918e+003, 1.317518e+001
1.202400e+003, 1.283076e+001
1.202883e+003, 1.314998e+001
1.203365e+003, 1.378557e+001
1.203847e+003, 1.398174e+001
1.204329e+003, 1.363335e+001
1.204811e+003, 1.268173e+001
1.205293e+003, 1.115493e+001
1.205775e+003, 1.013782e+001
1.206257e+003, 1.069251e+001
1.206740e+003, 1.157501e+001
1.207222e+003, 1.193522e+001
1.207704e+003, 1.216673e+001
1.208186e+003, 1.279360e+001
1.208668e+003, 1.343194e+001
1.209150e+003, 1.337583e+001
1.209632e+003, 1.271846e+001
1.210114e+003, 1.226758e+001
1.210596e+003, 1.225597e+001
1.211078e+003, 1.227654e+001
1.211561e+003, 1.224437e+001
1.212043e+003, 1.223926e+001
1.212525e+003, 1.228639e+001
1.213007e+003, 1.236627e+001
1.213489e+003, 1.243057e+001
1.213971e+003, 1.255290e+001
1.214453e+003, 1.297124e+001
1.214935e+003, 1.363195e+001
1.215417e+003, 1.344943e+001
1.215900e+003, 1.202858e+001
1.216382e+003, 1.126575e+001
1.216864e+003, 1.131753e+001
1.217346e+003, 1.191037e+001
1.217828e+003, 1.311139e+001
1.218310e+003, 1.399446e+001
1.218792e+003, 1.380777e+001
1.219274e+003, 1.307409e+001
1.219757e+003, 1.274257e+001
1.220239e+003, 1.272067e+001
1.220721e+003, 1.248922e+001
1.221203e+003, 1.214030e+001
1.221685e+003, 1.224621e+001
1.222167e+003, 1.275906e+001
1.222649e+003, 1.297425e+001
1.223131e+003, 1.267848e+001
1.223614e+003, 1.244195e+001
1.224096e+003, 1.276291e+001
1.224578e+003, 1.312237e+001
1.225060e+003, 1.288525e+001
1.225542e+003, 1.242239e+001
1.226024e+003, 1.216953e+001
1.226506e+003, 1.200588e+001
1.226988e+003, 1.158805e+001
1.227470e+003, 1.106590e+001
1.227953e+003, 1.098960e+001
1.228435e+003, 1.152448e+001
1.228917e+003, 1.212605e+001
1.229399e+003, 1.296116e+001
1.229881e+003, 1.328450e+001
1.230363e+003, 1.237495e+001
1.230845e+003, 1.143140e+001
1.231327e+003, 1.133444e+001
1.231810e+003, 1.145397e+001
1.232292e+003, 1.071364e+001
1.232774e+003, 9.517854e+000
1.233256e+003, 9.626078e+000
1.233738e+003, 1.154323e+001
1.234220e+003, 1.252149e+001
1.234702e+003, 1.215033e+001
1.235184e+003, 1.223687e+001
1.235667e+003, 1.329853e+001
1.236149e+003, 1.408031e+001
1.236631e+003, 1.390628e+001
1.237113e+003, 1.326621e+001
1.237595e+003, 1.267618e+001
1.238077e+003, 1.219575e+001
1.238559e+003, 1.204254e+001
1.239041e+003, 1.215552e+001
1.239523e+003, 1.233108e+001
1.240005e+003, 1.247833e+001
1.240488e+003, 1.203586e+001
1.240970e+003, 1.106644e+001
1.241452e+003, 1.065396e+001
1.241934e+003, 1.133657e+001
1.242416e+003, 1.224982e+001
1.242898e+003, 1.276358e+001
1.243380e+003, 1.293317e+001
1.243862e+003, 1.271258e+001
1.244344e+003, 1.226678e+001
1.244827e+003, 1.147298e+001
1.245309e+003, 1.075744e+001
1.245791e+003, 1.090348e+001
1.246273e+003, 1.184003e+001
1.246755e+003, 1.273759e+001
1.247237e+003, 1.350201e+001
1.247719e+003, 1.381656e+001
1.248201e+003, 1.330359e+001
1.248684e+003, 1.276597e+001
1.249166e+003, 1.224609e+001
1.249648e+003, 1.200266e+001
1.250130e+003, 1.237770e+001
1.250612e+003, 1.291059e+001
1.251094e+003, 1.296629e+001
1.251576e+003, 1.262328e+001
1.252058e+003, 1.241130e+001
1.252541e+003, 1.237757e+001
1.253023e+003, 1.204537e+001
1.253505e+003, 1.134496e+001
1.253987e+003, 1.108855e+001
1.254469e+003, 1.147200e+001
1.254951e+003, 1.192383e+001
1.255433e+003, 1.211481e+001
1.255915e+003, 1.226355e+001
1.256397e+003, 1.282532e+001
1.256880e+003, 1.325897e+001
1.257362e+003, 1.194566e+001
1.257844e+003, 1.002100e+001
1.258326e+003, 9.969155e+000
1.258808e+003, 1.119472e+001
1.259290e+003, 1.204851e+001
1.259772e+003, 1.217654e+001
1.260254e+003, 1.174013e+001
1.260737e+003, 1.068344e+001
1.261219e+003, 1.005253e+001
1.261701e+003, 1.075045e+001
1.262183e+003, 1.153710e+001
1.262665e+003, 1.196850e+001
1.263147e+003, 1.210659e+001
1.263629e+003, 1.165904e+001
1.264111e+003, 1.117348e+001
1.264594e+003, 1.168552e+001
1.265076e+003, 1.292015e+001
1.265558e+003, 1.311901e+001
1.266040e+003, 1.180806e+001
1.266522e+003, 1.123156e+001
1.267004e+003, 1.165385e+001
1.267486e+003, 1.182897e+001
1.267968e+003, 1.143116e+001
1.268450e+003, 1.122750e+001
1.268932e+003, 1.163273e+001
1.269415e+003, 1.226023e+001
1.269897e+003, 1.273765e+001
1.270379e+003, 1.298499e+001
1.270861e+003, 1.258612e+001
1.271343e+003, 1.187261e+001
1.271825e+003, 1.194377e+001
1.272307e+003, 1.258737e+001
1.272789e+003, 1.313628e+001
1.273271e+003, 1.343823e+001
1.273754e+003, 1.340351e+001
1.274236e+003, 1.301921e+001
1.274718e+003, 1.287398e+001
1.275200e+003, 1.384026e+001
1.275682e+003, 1.442074e+001
1.276164e+003, 1.342702e+001
1.276646e+003, 1.206254e+001
1.277128e+003, 1.072513e+001
1.277611e+003, 9.865116e+000
1.278093e+003, 1.037532e+001
1.278575e+003, 1.170875e+001
1.279057e+003, 1.188635e+001
1.279539e+003, 1.059539e+001
1.280021e+003, 1.035834e+001
1.280503e+003, 1.173099e+001
1.280985e+003, 1.255325e+001
1.281468e+003, 1.251834e+001
1.281950e+003, 1.224180e+001
1.282432e+003, 1.189390e+001
1.282914e+003, 1.171109e+001
1.283396e+003, 1.193781e+001
1.283878e+003, 1.224179e+001
1.284360e+003, 1.181686e+001
1.284842e+003, 1.103966e+001
1.285324e+003, 1.097260e+001
##END=



