##NAMES=Volborthite
##RRUFFID=R120063
##IDEAL CHEMISTRY=Cu^2+^_3_V^5+^_2_O_7_(OH)_2_&#183;2H_2_O
##LOCALITY=Milpillas mine, Municipio de Santa Cruz, Sonora, Mexico
##OWNER=RRUFF
##SOURCE=Evan Jones
##DESCRIPTION=Parallel aggregate of dark green tabular crystals associated with malachite
##STATUS=The identification of this mineral has been confirmed only by single crystal X-ray diffraction.
##URL=rruff.info/R120063
9.001007e+001, 0.000000e+000
9.049219e+001, 2.464808e+001
9.097430e+001, 2.260673e+001
9.145642e+001, 2.370680e+001
9.193854e+001, 2.754091e+001
9.242065e+001, 3.071773e+001
9.290277e+001, 2.971152e+001
9.338489e+001, 2.595678e+001
9.386700e+001, 2.278825e+001
9.434912e+001, 2.171188e+001
9.483124e+001, 2.187114e+001
9.531335e+001, 2.151710e+001
9.579547e+001, 2.059702e+001
9.627759e+001, 1.952798e+001
9.675970e+001, 1.872584e+001
9.724182e+001, 1.818745e+001
9.772394e+001, 1.780696e+001
9.820605e+001, 1.755577e+001
9.868817e+001, 1.743015e+001
9.917029e+001, 1.741846e+001
9.965240e+001, 1.756221e+001
1.001345e+002, 1.775071e+001
1.006166e+002, 1.776695e+001
1.010988e+002, 1.758957e+001
1.015809e+002, 1.733300e+001
1.020630e+002, 1.699839e+001
1.025451e+002, 1.652035e+001
1.030272e+002, 1.630373e+001
1.035093e+002, 1.647902e+001
1.039915e+002, 1.692287e+001
1.044736e+002, 1.713009e+001
1.049557e+002, 1.707227e+001
1.054378e+002, 1.681419e+001
1.059199e+002, 1.637819e+001
1.064020e+002, 1.564374e+001
1.068842e+002, 1.494026e+001
1.073663e+002, 1.423275e+001
1.078484e+002, 1.352268e+001
1.083305e+002, 1.312757e+001
1.088126e+002, 1.324083e+001
1.092947e+002, 1.356317e+001
1.097769e+002, 1.382135e+001
1.102590e+002, 1.403082e+001
1.107411e+002, 1.415974e+001
1.112232e+002, 1.417339e+001
1.117053e+002, 1.403370e+001
1.121874e+002, 1.394564e+001
1.126696e+002, 1.350894e+001
1.131517e+002, 1.323337e+001
1.136338e+002, 1.377947e+001
1.141159e+002, 1.721365e+001
1.145980e+002, 1.986732e+001
1.150801e+002, 2.013813e+001
1.155623e+002, 1.668116e+001
1.160444e+002, 1.363896e+001
1.165265e+002, 1.224004e+001
1.170086e+002, 1.200909e+001
1.174907e+002, 1.201350e+001
1.179728e+002, 1.213163e+001
1.184550e+002, 1.224269e+001
1.189371e+002, 1.225602e+001
1.194192e+002, 1.206340e+001
1.199013e+002, 1.190840e+001
1.203834e+002, 1.201456e+001
1.208655e+002, 1.230017e+001
1.213477e+002, 1.244588e+001
1.218298e+002, 1.205769e+001
1.223119e+002, 1.151416e+001
1.227940e+002, 1.123007e+001
1.232761e+002, 1.156063e+001
1.237582e+002, 1.199056e+001
1.242404e+002, 1.212585e+001
1.247225e+002, 1.197326e+001
1.252046e+002, 1.161460e+001
1.256867e+002, 1.085662e+001
1.261688e+002, 9.950677e+000
1.266509e+002, 9.360443e+000
1.271331e+002, 9.404041e+000
1.276152e+002, 9.819443e+000
1.280973e+002, 1.033594e+001
1.285794e+002, 1.097540e+001
1.290615e+002, 1.145043e+001
1.295436e+002, 1.128918e+001
1.300258e+002, 1.063291e+001
1.305079e+002, 1.010568e+001
1.309900e+002, 1.007326e+001
1.314721e+002, 1.039634e+001
1.319542e+002, 1.066647e+001
1.324363e+002, 1.087789e+001
1.329185e+002, 1.101096e+001
1.334006e+002, 1.100660e+001
1.338827e+002, 1.086447e+001
1.343648e+002, 1.070612e+001
1.348469e+002, 1.058226e+001
1.353290e+002, 1.049288e+001
1.358112e+002, 1.044977e+001
1.362933e+002, 1.047590e+001
1.367754e+002, 1.052259e+001
1.372575e+002, 1.047179e+001
1.377396e+002, 1.030880e+001
1.382217e+002, 1.011051e+001
1.387039e+002, 9.910949e+000
1.391860e+002, 9.705256e+000
1.396681e+002, 9.532751e+000
1.401502e+002, 9.411197e+000
1.406323e+002, 9.323508e+000
1.411144e+002, 9.187399e+000
1.415966e+002, 8.989732e+000
1.420787e+002, 8.766977e+000
1.425608e+002, 8.523955e+000
1.430429e+002, 8.212094e+000
1.435250e+002, 8.030105e+000
1.440071e+002, 8.082098e+000
1.444893e+002, 8.350375e+000
1.449714e+002, 8.343654e+000
1.454535e+002, 7.791501e+000
1.459356e+002, 7.228633e+000
1.464177e+002, 7.210077e+000
1.468998e+002, 8.237684e+000
1.473820e+002, 9.016416e+000
1.478641e+002, 9.261944e+000
1.483462e+002, 8.891041e+000
1.488283e+002, 8.546227e+000
1.493104e+002, 8.118875e+000
1.497925e+002, 7.766358e+000
1.502747e+002, 7.670856e+000
1.507568e+002, 8.075566e+000
1.512389e+002, 8.487576e+000
1.517210e+002, 8.860172e+000
1.522031e+002, 9.283591e+000
1.526852e+002, 9.378723e+000
1.531674e+002, 8.823395e+000
1.536495e+002, 8.005573e+000
1.541316e+002, 7.483754e+000
1.546137e+002, 7.332826e+000
1.550958e+002, 7.454852e+000
1.555779e+002, 7.921322e+000
1.560601e+002, 9.061079e+000
1.565422e+002, 9.778570e+000
1.570243e+002, 9.520016e+000
1.575064e+002, 8.747859e+000
1.579885e+002, 8.357538e+000
1.584706e+002, 8.914298e+000
1.589528e+002, 9.623147e+000
1.594349e+002, 1.010132e+001
1.599170e+002, 1.012489e+001
1.603991e+002, 1.020897e+001
1.608812e+002, 1.046325e+001
1.613633e+002, 1.088023e+001
1.618455e+002, 1.144023e+001
1.623276e+002, 1.226093e+001
1.628097e+002, 1.314242e+001
1.632918e+002, 1.394349e+001
1.637739e+002, 1.434667e+001
1.642560e+002, 1.504827e+001
1.647382e+002, 1.650457e+001
1.652203e+002, 1.856228e+001
1.657024e+002, 2.063477e+001
1.661845e+002, 2.228353e+001
1.666666e+002, 2.390087e+001
1.671487e+002, 2.582496e+001
1.676309e+002, 2.838410e+001
1.681130e+002, 3.105947e+001
1.685951e+002, 3.347172e+001
1.690772e+002, 3.567712e+001
1.695593e+002, 3.795291e+001
1.700414e+002, 4.042822e+001
1.705236e+002, 4.308832e+001
1.710057e+002, 4.588692e+001
1.714878e+002, 4.904058e+001
1.719699e+002, 5.218856e+001
1.724520e+002, 5.497697e+001
1.729341e+002, 5.743501e+001
1.734163e+002, 5.976451e+001
1.738984e+002, 6.205335e+001
1.743805e+002, 6.433727e+001
1.748626e+002, 6.660430e+001
1.753447e+002, 6.899185e+001
1.758268e+002, 7.133157e+001
1.763090e+002, 7.342536e+001
1.767911e+002, 7.525394e+001
1.772732e+002, 7.696162e+001
1.777553e+002, 7.819533e+001
1.782374e+002, 7.902426e+001
1.787195e+002, 7.997507e+001
1.792017e+002, 8.122733e+001
1.796838e+002, 8.275636e+001
1.801659e+002, 8.458235e+001
1.806480e+002, 8.673829e+001
1.811301e+002, 8.892331e+001
1.816122e+002, 9.096604e+001
1.820944e+002, 9.285586e+001
1.825765e+002, 9.449747e+001
1.830586e+002, 9.556719e+001
1.835407e+002, 9.641061e+001
1.840228e+002, 9.790592e+001
1.845049e+002, 1.001185e+002
1.849871e+002, 1.025818e+002
1.854692e+002, 1.046944e+002
1.859513e+002, 1.065380e+002
1.864334e+002, 1.084342e+002
1.869155e+002, 1.107993e+002
1.873976e+002, 1.133782e+002
1.878798e+002, 1.152894e+002
1.883619e+002, 1.164273e+002
1.888440e+002, 1.171919e+002
1.893261e+002, 1.180208e+002
1.898082e+002, 1.189210e+002
1.902903e+002, 1.199114e+002
1.907725e+002, 1.211403e+002
1.912546e+002, 1.225362e+002
1.917367e+002, 1.235172e+002
1.922188e+002, 1.239824e+002
1.927009e+002, 1.242460e+002
1.931830e+002, 1.248362e+002
1.936652e+002, 1.257505e+002
1.941473e+002, 1.266674e+002
1.946294e+002, 1.274594e+002
1.951115e+002, 1.281218e+002
1.955936e+002, 1.285225e+002
1.960757e+002, 1.285745e+002
1.965579e+002, 1.285016e+002
1.970400e+002, 1.287924e+002
1.975221e+002, 1.294846e+002
1.980042e+002, 1.301330e+002
1.984863e+002, 1.303243e+002
1.989684e+002, 1.300462e+002
1.994506e+002, 1.303923e+002
1.999327e+002, 1.315831e+002
2.004148e+002, 1.332351e+002
2.008969e+002, 1.345529e+002
2.013790e+002, 1.355369e+002
2.018611e+002, 1.362719e+002
2.023433e+002, 1.367766e+002
2.028254e+002, 1.370405e+002
2.033075e+002, 1.371750e+002
2.037896e+002, 1.370806e+002
2.042717e+002, 1.369509e+002
2.047538e+002, 1.373130e+002
2.052360e+002, 1.382344e+002
2.057181e+002, 1.393793e+002
2.062002e+002, 1.406274e+002
2.066823e+002, 1.420256e+002
2.071644e+002, 1.432272e+002
2.076465e+002, 1.442498e+002
2.081287e+002, 1.450317e+002
2.086108e+002, 1.452965e+002
2.090929e+002, 1.448319e+002
2.095750e+002, 1.444322e+002
2.100571e+002, 1.446361e+002
2.105392e+002, 1.455780e+002
2.110214e+002, 1.464918e+002
2.115035e+002, 1.473393e+002
2.119856e+002, 1.481075e+002
2.124677e+002, 1.487258e+002
2.129498e+002, 1.490914e+002
2.134319e+002, 1.495497e+002
2.139140e+002, 1.504114e+002
2.143962e+002, 1.518974e+002
2.148783e+002, 1.529817e+002
2.153604e+002, 1.534274e+002
2.158425e+002, 1.534289e+002
2.163246e+002, 1.537833e+002
2.168067e+002, 1.546742e+002
2.172889e+002, 1.555668e+002
2.177710e+002, 1.560907e+002
2.182531e+002, 1.560546e+002
2.187352e+002, 1.562243e+002
2.192173e+002, 1.567303e+002
2.196994e+002, 1.574929e+002
2.201816e+002, 1.580999e+002
2.206637e+002, 1.584686e+002
2.211458e+002, 1.588327e+002
2.216279e+002, 1.593107e+002
2.221100e+002, 1.598703e+002
2.225921e+002, 1.606670e+002
2.230743e+002, 1.619022e+002
2.235564e+002, 1.633951e+002
2.240385e+002, 1.642856e+002
2.245206e+002, 1.642422e+002
2.250027e+002, 1.640994e+002
2.254848e+002, 1.643799e+002
2.259670e+002, 1.652592e+002
2.264491e+002, 1.661524e+002
2.269312e+002, 1.670825e+002
2.274133e+002, 1.680027e+002
2.278954e+002, 1.686902e+002
2.283775e+002, 1.689663e+002
2.288597e+002, 1.692535e+002
2.293418e+002, 1.698053e+002
2.298239e+002, 1.706980e+002
2.303060e+002, 1.716863e+002
2.307881e+002, 1.728426e+002
2.312702e+002, 1.740893e+002
2.317524e+002, 1.749679e+002
2.322345e+002, 1.751774e+002
2.327166e+002, 1.754207e+002
2.331987e+002, 1.762086e+002
2.336808e+002, 1.781359e+002
2.341629e+002, 1.792188e+002
2.346451e+002, 1.788702e+002
2.351272e+002, 1.775486e+002
2.356093e+002, 1.773439e+002
2.360914e+002, 1.789020e+002
2.365735e+002, 1.806876e+002
2.370556e+002, 1.818467e+002
2.375378e+002, 1.821192e+002
2.380199e+002, 1.823483e+002
2.385020e+002, 1.826372e+002
2.389841e+002, 1.829242e+002
2.394662e+002, 1.828838e+002
2.399483e+002, 1.821707e+002
2.404305e+002, 1.816130e+002
2.409126e+002, 1.817583e+002
2.413947e+002, 1.832772e+002
2.418768e+002, 1.839927e+002
2.423589e+002, 1.834637e+002
2.428410e+002, 1.820916e+002
2.433232e+002, 1.813192e+002
2.438053e+002, 1.815300e+002
2.442874e+002, 1.818164e+002
2.447695e+002, 1.816840e+002
2.452516e+002, 1.808213e+002
2.457337e+002, 1.802299e+002
2.462159e+002, 1.800077e+002
2.466980e+002, 1.800609e+002
2.471801e+002, 1.801166e+002
2.476622e+002, 1.802238e+002
2.481443e+002, 1.802531e+002
2.486264e+002, 1.801407e+002
2.491086e+002, 1.798564e+002
2.495907e+002, 1.794782e+002
2.500728e+002, 1.788800e+002
2.505549e+002, 1.782258e+002
2.510370e+002, 1.780275e+002
2.515191e+002, 1.787016e+002
2.520013e+002, 1.791777e+002
2.524834e+002, 1.789038e+002
2.529655e+002, 1.774488e+002
2.534476e+002, 1.763951e+002
2.539297e+002, 1.758395e+002
2.544118e+002, 1.756455e+002
2.548940e+002, 1.755110e+002
2.553761e+002, 1.754569e+002
2.558582e+002, 1.754243e+002
2.563403e+002, 1.754273e+002
2.568224e+002, 1.755584e+002
2.573046e+002, 1.753701e+002
2.577867e+002, 1.746588e+002
2.582688e+002, 1.737540e+002
2.587509e+002, 1.733629e+002
2.592330e+002, 1.737746e+002
2.597151e+002, 1.741078e+002
2.601973e+002, 1.739520e+002
2.606794e+002, 1.731259e+002
2.611615e+002, 1.726694e+002
2.616436e+002, 1.727673e+002
2.621257e+002, 1.730816e+002
2.626078e+002, 1.730058e+002
2.630900e+002, 1.723689e+002
2.635721e+002, 1.717629e+002
2.640542e+002, 1.714055e+002
2.645363e+002, 1.713309e+002
2.650184e+002, 1.712769e+002
2.655005e+002, 1.712461e+002
2.659827e+002, 1.712390e+002
2.664648e+002, 1.712652e+002
2.669469e+002, 1.713475e+002
2.674290e+002, 1.714041e+002
2.679111e+002, 1.714438e+002
2.683932e+002, 1.714765e+002
2.688754e+002, 1.712447e+002
2.693575e+002, 1.706274e+002
2.698396e+002, 1.699255e+002
2.703217e+002, 1.695947e+002
2.708038e+002, 1.697729e+002
2.712859e+002, 1.697586e+002
2.717681e+002, 1.692431e+002
2.722502e+002, 1.682555e+002
2.727323e+002, 1.677434e+002
2.732144e+002, 1.678783e+002
2.736965e+002, 1.681560e+002
2.741786e+002, 1.679933e+002
2.746608e+002, 1.672935e+002
2.751429e+002, 1.666746e+002
2.756250e+002, 1.663030e+002
2.761071e+002, 1.661475e+002
2.765892e+002, 1.659671e+002
2.770714e+002, 1.657642e+002
2.775535e+002, 1.655379e+002
2.780356e+002, 1.652507e+002
2.785177e+002, 1.648843e+002
2.789998e+002, 1.646672e+002
2.794819e+002, 1.647568e+002
2.799641e+002, 1.650083e+002
2.804462e+002, 1.647990e+002
2.809283e+002, 1.641017e+002
2.814104e+002, 1.630514e+002
2.818925e+002, 1.615586e+002
2.823746e+002, 1.596129e+002
2.828568e+002, 1.579790e+002
2.833389e+002, 1.566371e+002
2.838210e+002, 1.558010e+002
2.843031e+002, 1.565111e+002
2.847852e+002, 1.589926e+002
2.852673e+002, 1.611661e+002
2.857495e+002, 1.614690e+002
2.862316e+002, 1.600186e+002
2.867137e+002, 1.581994e+002
2.871958e+002, 1.560456e+002
2.876779e+002, 1.538191e+002
2.881600e+002, 1.519883e+002
2.886422e+002, 1.505507e+002
2.891243e+002, 1.495232e+002
2.896064e+002, 1.490960e+002
2.900885e+002, 1.491540e+002
2.905706e+002, 1.491526e+002
2.910527e+002, 1.490423e+002
2.915349e+002, 1.488463e+002
2.920170e+002, 1.485470e+002
2.924991e+002, 1.481583e+002
2.929812e+002, 1.478295e+002
2.934633e+002, 1.477994e+002
2.939454e+002, 1.479089e+002
2.944276e+002, 1.476166e+002
2.949097e+002, 1.468585e+002
2.953918e+002, 1.458722e+002
2.958739e+002, 1.448153e+002
2.963560e+002, 1.437445e+002
2.968381e+002, 1.428762e+002
2.973203e+002, 1.424369e+002
2.978024e+002, 1.422594e+002
2.982845e+002, 1.419960e+002
2.987666e+002, 1.416329e+002
2.992487e+002, 1.412530e+002
2.997308e+002, 1.409549e+002
3.002130e+002, 1.407055e+002
3.006951e+002, 1.404127e+002
3.011772e+002, 1.399413e+002
3.016593e+002, 1.394535e+002
3.021414e+002, 1.392652e+002
3.026235e+002, 1.393689e+002
3.031057e+002, 1.393935e+002
3.035878e+002, 1.389016e+002
3.040699e+002, 1.381243e+002
3.045520e+002, 1.375013e+002
3.050341e+002, 1.372520e+002
3.055162e+002, 1.371487e+002
3.059984e+002, 1.370659e+002
3.064805e+002, 1.369725e+002
3.069626e+002, 1.366476e+002
3.074447e+002, 1.355162e+002
3.079268e+002, 1.341951e+002
3.084089e+002, 1.335787e+002
3.088911e+002, 1.343172e+002
3.093732e+002, 1.351669e+002
3.098553e+002, 1.350694e+002
3.103374e+002, 1.342328e+002
3.108195e+002, 1.333515e+002
3.113016e+002, 1.326997e+002
3.117838e+002, 1.322494e+002
3.122659e+002, 1.319906e+002
3.127480e+002, 1.319714e+002
3.132301e+002, 1.320281e+002
3.137122e+002, 1.321292e+002
3.141943e+002, 1.322352e+002
3.146765e+002, 1.322608e+002
3.151586e+002, 1.320818e+002
3.156407e+002, 1.318717e+002
3.161228e+002, 1.317753e+002
3.166049e+002, 1.318648e+002
3.170870e+002, 1.318363e+002
3.175692e+002, 1.314211e+002
3.180513e+002, 1.308379e+002
3.185334e+002, 1.303946e+002
3.190155e+002, 1.302587e+002
3.194976e+002, 1.302251e+002
3.199797e+002, 1.302399e+002
3.204619e+002, 1.303055e+002
3.209440e+002, 1.303288e+002
3.214261e+002, 1.302300e+002
3.219082e+002, 1.300966e+002
3.223903e+002, 1.300119e+002
3.228724e+002, 1.299542e+002
3.233546e+002, 1.299833e+002
3.238367e+002, 1.301665e+002
3.243188e+002, 1.304949e+002
3.248009e+002, 1.307474e+002
3.252830e+002, 1.308804e+002
3.257651e+002, 1.309312e+002
3.262473e+002, 1.309241e+002
3.267294e+002, 1.304955e+002
3.272115e+002, 1.304363e+002
3.276936e+002, 1.311427e+002
3.281757e+002, 1.323968e+002
3.286578e+002, 1.331329e+002
3.291400e+002, 1.330169e+002
3.296221e+002, 1.326582e+002
3.301042e+002, 1.322920e+002
3.305863e+002, 1.317688e+002
3.310684e+002, 1.314879e+002
3.315505e+002, 1.315067e+002
3.320327e+002, 1.317554e+002
3.325148e+002, 1.320807e+002
3.329969e+002, 1.324444e+002
3.334790e+002, 1.329344e+002
3.339611e+002, 1.336578e+002
3.344432e+002, 1.347674e+002
3.349254e+002, 1.354436e+002
3.354075e+002, 1.354501e+002
3.358896e+002, 1.352081e+002
3.363717e+002, 1.353180e+002
3.368538e+002, 1.359232e+002
3.373359e+002, 1.365018e+002
3.378180e+002, 1.367369e+002
3.383001e+002, 1.366436e+002
3.387823e+002, 1.377522e+002
3.392644e+002, 1.407318e+002
3.397465e+002, 1.435798e+002
3.402286e+002, 1.440522e+002
3.407107e+002, 1.417077e+002
3.411928e+002, 1.396020e+002
3.416750e+002, 1.383297e+002
3.421571e+002, 1.377398e+002
3.426392e+002, 1.373146e+002
3.431213e+002, 1.370256e+002
3.436034e+002, 1.370369e+002
3.440855e+002, 1.377738e+002
3.445677e+002, 1.391753e+002
3.450498e+002, 1.397524e+002
3.455319e+002, 1.391478e+002
3.460140e+002, 1.379312e+002
3.464961e+002, 1.371600e+002
3.469782e+002, 1.368217e+002
3.474604e+002, 1.365429e+002
3.479425e+002, 1.359454e+002
3.484246e+002, 1.352112e+002
3.489067e+002, 1.349771e+002
3.493888e+002, 1.352604e+002
3.498709e+002, 1.361218e+002
3.503531e+002, 1.385089e+002
3.508352e+002, 1.417892e+002
3.513173e+002, 1.436100e+002
3.517994e+002, 1.417504e+002
3.522815e+002, 1.382108e+002
3.527636e+002, 1.364178e+002
3.532458e+002, 1.363709e+002
3.537279e+002, 1.366676e+002
3.542100e+002, 1.360563e+002
3.546921e+002, 1.349877e+002
3.551742e+002, 1.342508e+002
3.556563e+002, 1.341933e+002
3.561385e+002, 1.344435e+002
3.566206e+002, 1.346543e+002
3.571027e+002, 1.348592e+002
3.575848e+002, 1.352173e+002
3.580669e+002, 1.359868e+002
3.585490e+002, 1.368764e+002
3.590312e+002, 1.376098e+002
3.595133e+002, 1.381225e+002
3.599954e+002, 1.385179e+002
3.604775e+002, 1.387854e+002
3.609596e+002, 1.389837e+002
3.614417e+002, 1.392314e+002
3.619239e+002, 1.394517e+002
3.624060e+002, 1.398343e+002
3.628881e+002, 1.405109e+002
3.633702e+002, 1.415310e+002
3.638523e+002, 1.426524e+002
3.643344e+002, 1.439026e+002
3.648166e+002, 1.451765e+002
3.652987e+002, 1.463642e+002
3.657808e+002, 1.471533e+002
3.662629e+002, 1.481095e+002
3.667450e+002, 1.494310e+002
3.672271e+002, 1.511187e+002
3.677093e+002, 1.528229e+002
3.681914e+002, 1.547032e+002
3.686735e+002, 1.564602e+002
3.691556e+002, 1.579026e+002
3.696377e+002, 1.581733e+002
3.701198e+002, 1.591625e+002
3.706020e+002, 1.612822e+002
3.710841e+002, 1.642171e+002
3.715662e+002, 1.668400e+002
3.720483e+002, 1.689637e+002
3.725304e+002, 1.709606e+002
3.730125e+002, 1.729289e+002
3.734947e+002, 1.747030e+002
3.739768e+002, 1.769353e+002
3.744589e+002, 1.799327e+002
3.749410e+002, 1.831676e+002
3.754231e+002, 1.856584e+002
3.759052e+002, 1.870776e+002
3.763874e+002, 1.887455e+002
3.768695e+002, 1.911784e+002
3.773516e+002, 1.943804e+002
3.778337e+002, 1.969928e+002
3.783158e+002, 1.989317e+002
3.787979e+002, 2.006315e+002
3.792801e+002, 2.025412e+002
3.797622e+002, 2.047003e+002
3.802443e+002, 2.066010e+002
3.807264e+002, 2.081380e+002
3.812085e+002, 2.093864e+002
3.816906e+002, 2.105895e+002
3.821728e+002, 2.117450e+002
3.826549e+002, 2.126951e+002
3.831370e+002, 2.132079e+002
3.836191e+002, 2.133905e+002
3.841012e+002, 2.137473e+002
3.845833e+002, 2.144331e+002
3.850655e+002, 2.149336e+002
3.855476e+002, 2.145063e+002
3.860297e+002, 2.132918e+002
3.865118e+002, 2.118258e+002
3.869939e+002, 2.103635e+002
3.874760e+002, 2.087919e+002
3.879582e+002, 2.069231e+002
3.884403e+002, 2.047386e+002
3.889224e+002, 2.023899e+002
3.894045e+002, 2.000495e+002
3.898866e+002, 1.976410e+002
3.903687e+002, 1.949654e+002
3.908509e+002, 1.910799e+002
3.913330e+002, 1.879096e+002
3.918151e+002, 1.880374e+002
3.922972e+002, 1.904475e+002
3.927793e+002, 1.910101e+002
3.932614e+002, 1.858694e+002
3.937436e+002, 1.792793e+002
3.942257e+002, 1.741269e+002
3.947078e+002, 1.712193e+002
3.951899e+002, 1.691342e+002
3.956720e+002, 1.679073e+002
3.961541e+002, 1.670889e+002
3.966363e+002, 1.659574e+002
3.971184e+002, 1.642721e+002
3.976005e+002, 1.623051e+002
3.980826e+002, 1.597330e+002
3.985647e+002, 1.563140e+002
3.990468e+002, 1.543394e+002
3.995290e+002, 1.561414e+002
4.000111e+002, 1.582902e+002
4.004932e+002, 1.580018e+002
4.009753e+002, 1.527285e+002
4.014574e+002, 1.484018e+002
4.019395e+002, 1.455641e+002
4.024217e+002, 1.440816e+002
4.029038e+002, 1.435412e+002
4.033859e+002, 1.446796e+002
4.038680e+002, 1.456809e+002
4.043501e+002, 1.456800e+002
4.048322e+002, 1.445203e+002
4.053144e+002, 1.428132e+002
4.057965e+002, 1.403187e+002
4.062786e+002, 1.375864e+002
4.067607e+002, 1.354956e+002
4.072428e+002, 1.341002e+002
4.077249e+002, 1.330557e+002
4.082071e+002, 1.323200e+002
4.086892e+002, 1.318558e+002
4.091713e+002, 1.314592e+002
4.096534e+002, 1.311250e+002
4.101355e+002, 1.308772e+002
4.106176e+002, 1.308662e+002
4.110998e+002, 1.310142e+002
4.115819e+002, 1.308423e+002
4.120640e+002, 1.301959e+002
4.125461e+002, 1.292902e+002
4.130282e+002, 1.283114e+002
4.135103e+002, 1.273118e+002
4.139925e+002, 1.265736e+002
4.144746e+002, 1.264687e+002
4.149567e+002, 1.266540e+002
4.154388e+002, 1.265888e+002
4.159209e+002, 1.262126e+002
4.164030e+002, 1.257481e+002
4.168852e+002, 1.253114e+002
4.173673e+002, 1.249205e+002
4.178494e+002, 1.246026e+002
4.183315e+002, 1.245148e+002
4.188136e+002, 1.243819e+002
4.192957e+002, 1.239154e+002
4.197779e+002, 1.231880e+002
4.202600e+002, 1.226409e+002
4.207421e+002, 1.227855e+002
4.212242e+002, 1.230043e+002
4.217063e+002, 1.227920e+002
4.221884e+002, 1.216542e+002
4.226706e+002, 1.208481e+002
4.231527e+002, 1.210172e+002
4.236348e+002, 1.216812e+002
4.241169e+002, 1.219356e+002
4.245990e+002, 1.212833e+002
4.250811e+002, 1.205539e+002
4.255633e+002, 1.199252e+002
4.260454e+002, 1.193715e+002
4.265275e+002, 1.191094e+002
4.270096e+002, 1.192934e+002
4.274917e+002, 1.196408e+002
4.279738e+002, 1.199361e+002
4.284560e+002, 1.202058e+002
4.289381e+002, 1.203646e+002
4.294202e+002, 1.204141e+002
4.299023e+002, 1.203413e+002
4.303844e+002, 1.200403e+002
4.308665e+002, 1.193990e+002
4.313487e+002, 1.188536e+002
4.318308e+002, 1.186870e+002
4.323129e+002, 1.189251e+002
4.327950e+002, 1.190363e+002
4.332771e+002, 1.190256e+002
4.337592e+002, 1.188602e+002
4.342414e+002, 1.183554e+002
4.347235e+002, 1.175575e+002
4.352056e+002, 1.170337e+002
4.356877e+002, 1.170698e+002
4.361698e+002, 1.174195e+002
4.366519e+002, 1.175659e+002
4.371341e+002, 1.175186e+002
4.376162e+002, 1.174493e+002
4.380983e+002, 1.174668e+002
4.385804e+002, 1.175526e+002
4.390625e+002, 1.176965e+002
4.395446e+002, 1.179253e+002
4.400268e+002, 1.181151e+002
4.405089e+002, 1.181554e+002
4.409910e+002, 1.180741e+002
4.414731e+002, 1.179294e+002
4.419552e+002, 1.177918e+002
4.424373e+002, 1.175623e+002
4.429195e+002, 1.170205e+002
4.434016e+002, 1.161816e+002
4.438837e+002, 1.156812e+002
4.443658e+002, 1.160315e+002
4.448479e+002, 1.166845e+002
4.453300e+002, 1.172159e+002
4.458122e+002, 1.176771e+002
4.462943e+002, 1.178379e+002
4.467764e+002, 1.174337e+002
4.472585e+002, 1.166936e+002
4.477406e+002, 1.162053e+002
4.482227e+002, 1.162329e+002
4.487049e+002, 1.162943e+002
4.491870e+002, 1.162401e+002
4.496691e+002, 1.160378e+002
4.501512e+002, 1.159317e+002
4.506333e+002, 1.159760e+002
4.511154e+002, 1.160621e+002
4.515976e+002, 1.160916e+002
4.520797e+002, 1.160594e+002
4.525618e+002, 1.159705e+002
4.530439e+002, 1.157360e+002
4.535260e+002, 1.154952e+002
4.540081e+002, 1.158195e+002
4.544903e+002, 1.168310e+002
4.549724e+002, 1.176198e+002
4.554545e+002, 1.175171e+002
4.559366e+002, 1.166684e+002
4.564187e+002, 1.161018e+002
4.569008e+002, 1.158684e+002
4.573830e+002, 1.158261e+002
4.578651e+002, 1.158596e+002
4.583472e+002, 1.159572e+002
4.588293e+002, 1.160978e+002
4.593114e+002, 1.163743e+002
4.597935e+002, 1.165849e+002
4.602757e+002, 1.163115e+002
4.607578e+002, 1.156708e+002
4.612399e+002, 1.152532e+002
4.617220e+002, 1.157311e+002
4.622041e+002, 1.164356e+002
4.626862e+002, 1.166973e+002
4.631684e+002, 1.163440e+002
4.636505e+002, 1.158989e+002
4.641326e+002, 1.155750e+002
4.646147e+002, 1.153383e+002
4.650968e+002, 1.151395e+002
4.655789e+002, 1.149991e+002
4.660611e+002, 1.148696e+002
4.665432e+002, 1.146692e+002
4.670253e+002, 1.144246e+002
4.675074e+002, 1.143986e+002
4.679895e+002, 1.149777e+002
4.684716e+002, 1.154963e+002
4.689538e+002, 1.155959e+002
4.694359e+002, 1.149153e+002
4.699180e+002, 1.146229e+002
4.704001e+002, 1.149153e+002
4.708822e+002, 1.154556e+002
4.713643e+002, 1.157545e+002
4.718465e+002, 1.157828e+002
4.723286e+002, 1.156310e+002
4.728107e+002, 1.152282e+002
4.732928e+002, 1.146570e+002
4.737749e+002, 1.144402e+002
4.742570e+002, 1.146446e+002
4.747392e+002, 1.148555e+002
4.752213e+002, 1.146505e+002
4.757034e+002, 1.141226e+002
4.761855e+002, 1.139635e+002
4.766676e+002, 1.143147e+002
4.771497e+002, 1.148099e+002
4.776319e+002, 1.149486e+002
4.781140e+002, 1.148168e+002
4.785961e+002, 1.146890e+002
4.790782e+002, 1.146707e+002
4.795603e+002, 1.147279e+002
4.800424e+002, 1.148577e+002
4.805246e+002, 1.150483e+002
4.810067e+002, 1.152004e+002
4.814888e+002, 1.153158e+002
4.819709e+002, 1.153293e+002
4.824530e+002, 1.151516e+002
4.829352e+002, 1.146728e+002
4.834173e+002, 1.142329e+002
4.838994e+002, 1.139411e+002
4.843815e+002, 1.137753e+002
4.848636e+002, 1.137049e+002
4.853457e+002, 1.138412e+002
4.858279e+002, 1.139490e+002
4.863100e+002, 1.139548e+002
4.867921e+002, 1.138570e+002
4.872742e+002, 1.137709e+002
4.877563e+002, 1.136527e+002
4.882384e+002, 1.135935e+002
4.887206e+002, 1.136640e+002
4.892027e+002, 1.139521e+002
4.896848e+002, 1.141460e+002
4.901669e+002, 1.142604e+002
4.906490e+002, 1.142623e+002
4.911311e+002, 1.139969e+002
4.916133e+002, 1.133869e+002
4.920954e+002, 1.130813e+002
4.925775e+002, 1.134169e+002
4.930596e+002, 1.141727e+002
4.935417e+002, 1.144867e+002
4.940238e+002, 1.143508e+002
4.945060e+002, 1.141555e+002
4.949881e+002, 1.142315e+002
4.954702e+002, 1.144648e+002
4.959523e+002, 1.145515e+002
4.964344e+002, 1.144229e+002
4.969165e+002, 1.142720e+002
4.973987e+002, 1.142363e+002
4.978808e+002, 1.143207e+002
4.983629e+002, 1.145363e+002
4.988450e+002, 1.151036e+002
4.993271e+002, 1.156226e+002
4.998092e+002, 1.157821e+002
5.002914e+002, 1.156390e+002
5.007735e+002, 1.154970e+002
5.012556e+002, 1.154001e+002
5.017377e+002, 1.153970e+002
5.022198e+002, 1.155378e+002
5.027019e+002, 1.159057e+002
5.031841e+002, 1.162214e+002
5.036662e+002, 1.164152e+002
5.041483e+002, 1.165561e+002
5.046304e+002, 1.167215e+002
5.051125e+002, 1.169315e+002
5.055946e+002, 1.171286e+002
5.060768e+002, 1.172952e+002
5.065589e+002, 1.174409e+002
5.070410e+002, 1.175984e+002
5.075231e+002, 1.177288e+002
5.080052e+002, 1.179744e+002
5.084873e+002, 1.185135e+002
5.089695e+002, 1.193428e+002
5.094516e+002, 1.198506e+002
5.099337e+002, 1.200031e+002
5.104158e+002, 1.199536e+002
5.108979e+002, 1.197360e+002
5.113800e+002, 1.194244e+002
5.118622e+002, 1.193915e+002
5.123443e+002, 1.198473e+002
5.128264e+002, 1.204623e+002
5.133085e+002, 1.207804e+002
5.137906e+002, 1.208767e+002
5.142728e+002, 1.210197e+002
5.147549e+002, 1.214250e+002
5.152370e+002, 1.219020e+002
5.157191e+002, 1.223111e+002
5.162012e+002, 1.226447e+002
5.166833e+002, 1.228818e+002
5.171655e+002, 1.228667e+002
5.176476e+002, 1.228340e+002
5.181297e+002, 1.229907e+002
5.186118e+002, 1.238566e+002
5.190939e+002, 1.243214e+002
5.195760e+002, 1.238212e+002
5.200582e+002, 1.228231e+002
5.205403e+002, 1.224405e+002
5.210224e+002, 1.230788e+002
5.215045e+002, 1.237762e+002
5.219866e+002, 1.243127e+002
5.224688e+002, 1.246886e+002
5.229509e+002, 1.248881e+002
5.234330e+002, 1.248170e+002
5.239151e+002, 1.247865e+002
5.243972e+002, 1.251321e+002
5.248793e+002, 1.258644e+002
5.253615e+002, 1.262852e+002
5.258436e+002, 1.262922e+002
5.263257e+002, 1.260879e+002
5.268078e+002, 1.260178e+002
5.272899e+002, 1.260218e+002
5.277720e+002, 1.257986e+002
5.282542e+002, 1.250308e+002
5.287363e+002, 1.241311e+002
5.292184e+002, 1.237149e+002
5.297005e+002, 1.237038e+002
5.301826e+002, 1.236496e+002
5.306647e+002, 1.232488e+002
5.311469e+002, 1.227052e+002
5.316290e+002, 1.221488e+002
5.321111e+002, 1.215719e+002
5.325932e+002, 1.211374e+002
5.330753e+002, 1.210059e+002
5.335574e+002, 1.210087e+002
5.340396e+002, 1.209731e+002
5.345217e+002, 1.209794e+002
5.350038e+002, 1.208179e+002
5.354859e+002, 1.204269e+002
5.359680e+002, 1.198473e+002
5.364501e+002, 1.191659e+002
5.369323e+002, 1.182181e+002
5.374144e+002, 1.174528e+002
5.378965e+002, 1.170928e+002
5.383786e+002, 1.171498e+002
5.388607e+002, 1.170767e+002
5.393428e+002, 1.168356e+002
5.398250e+002, 1.165781e+002
5.403071e+002, 1.165954e+002
5.407892e+002, 1.168167e+002
5.412713e+002, 1.164667e+002
5.417534e+002, 1.153001e+002
5.422355e+002, 1.138861e+002
5.427177e+002, 1.129128e+002
5.431998e+002, 1.123329e+002
5.436819e+002, 1.120264e+002
5.441640e+002, 1.117532e+002
5.446461e+002, 1.118562e+002
5.451282e+002, 1.133420e+002
5.456104e+002, 1.158370e+002
5.460925e+002, 1.170842e+002
5.465746e+002, 1.147250e+002
5.470567e+002, 1.115598e+002
5.475388e+002, 1.094755e+002
5.480209e+002, 1.090530e+002
5.485031e+002, 1.086672e+002
5.489852e+002, 1.078488e+002
5.494673e+002, 1.069623e+002
5.499494e+002, 1.063973e+002
5.504315e+002, 1.063772e+002
5.509136e+002, 1.063391e+002
5.513958e+002, 1.062392e+002
5.518779e+002, 1.060789e+002
5.523600e+002, 1.058817e+002
5.528421e+002, 1.056714e+002
5.533242e+002, 1.053284e+002
5.538063e+002, 1.046936e+002
5.542885e+002, 1.038418e+002
5.547706e+002, 1.034678e+002
5.552527e+002, 1.036180e+002
5.557348e+002, 1.037583e+002
5.562169e+002, 1.033299e+002
5.566990e+002, 1.025354e+002
5.571812e+002, 1.018792e+002
5.576633e+002, 1.014452e+002
5.581454e+002, 1.011460e+002
5.586275e+002, 1.009114e+002
5.591096e+002, 1.007523e+002
5.595917e+002, 1.006824e+002
5.600739e+002, 1.008862e+002
5.605560e+002, 1.010136e+002
5.610381e+002, 1.007674e+002
5.615202e+002, 1.002574e+002
5.620023e+002, 9.995930e+001
5.624844e+002, 1.000462e+002
5.629666e+002, 1.003249e+002
5.634487e+002, 1.007385e+002
5.639308e+002, 1.013006e+002
5.644129e+002, 1.019480e+002
5.648950e+002, 1.031514e+002
5.653771e+002, 1.039226e+002
5.658593e+002, 1.031949e+002
5.663414e+002, 1.004209e+002
5.668235e+002, 9.852347e+001
5.673056e+002, 9.792750e+001
5.677877e+002, 9.808016e+001
5.682698e+002, 9.805978e+001
5.687520e+002, 9.787281e+001
5.692341e+002, 9.761857e+001
5.697162e+002, 9.726994e+001
5.701983e+002, 9.692173e+001
5.706804e+002, 9.679133e+001
5.711625e+002, 9.684846e+001
5.716447e+002, 9.687061e+001
5.721268e+002, 9.663027e+001
5.726089e+002, 9.633372e+001
5.730910e+002, 9.623868e+001
5.735731e+002, 9.641516e+001
5.740552e+002, 9.645693e+001
5.745374e+002, 9.591902e+001
5.750195e+002, 9.528768e+001
5.755016e+002, 9.501469e+001
5.759837e+002, 9.544305e+001
5.764658e+002, 9.591281e+001
5.769479e+002, 9.631815e+001
5.774301e+002, 9.673544e+001
5.779122e+002, 9.742271e+001
5.783943e+002, 9.892275e+001
5.788764e+002, 9.956231e+001
5.793585e+002, 9.856618e+001
5.798406e+002, 9.625071e+001
5.803228e+002, 9.487226e+001
5.808049e+002, 9.451287e+001
5.812870e+002, 9.456141e+001
5.817691e+002, 9.474314e+001
5.822512e+002, 9.501272e+001
5.827333e+002, 9.522100e+001
5.832155e+002, 9.537174e+001
5.836975e+002, 9.535747e+001
5.841796e+002, 9.490909e+001
5.846617e+002, 9.426893e+001
5.851439e+002, 9.386958e+001
5.856260e+002, 9.401734e+001
5.861081e+002, 9.409269e+001
5.865902e+002, 9.354683e+001
5.870723e+002, 9.267648e+001
5.875544e+002, 9.206380e+001
5.880366e+002, 9.177225e+001
5.885187e+002, 9.185147e+001
5.890008e+002, 9.262840e+001
5.894829e+002, 9.402340e+001
5.899650e+002, 9.463456e+001
5.904471e+002, 9.392243e+001
5.909293e+002, 9.311811e+001
5.914114e+002, 9.281535e+001
5.918935e+002, 9.308639e+001
5.923756e+002, 9.334914e+001
5.928577e+002, 9.363937e+001
5.933398e+002, 9.382349e+001
5.938220e+002, 9.375297e+001
5.943041e+002, 9.344495e+001
5.947862e+002, 9.298574e+001
5.952683e+002, 9.232225e+001
5.957504e+002, 9.169729e+001
5.962325e+002, 9.146021e+001
5.967147e+002, 9.151118e+001
5.971968e+002, 9.159097e+001
5.976789e+002, 9.165398e+001
5.981610e+002, 9.164841e+001
5.986431e+002, 9.152213e+001
5.991252e+002, 9.128958e+001
5.996074e+002, 9.101707e+001
6.000895e+002, 9.043160e+001
6.005716e+002, 9.006049e+001
6.010537e+002, 9.034414e+001
6.015358e+002, 9.159547e+001
6.020179e+002, 9.204250e+001
6.025001e+002, 9.099084e+001
6.029822e+002, 8.980263e+001
6.034643e+002, 8.960406e+001
6.039464e+002, 9.079961e+001
6.044285e+002, 9.131503e+001
6.049106e+002, 9.083875e+001
6.053928e+002, 8.999918e+001
6.058749e+002, 8.977934e+001
6.063570e+002, 9.013374e+001
6.068391e+002, 9.043861e+001
6.073212e+002, 9.036421e+001
6.078033e+002, 9.031739e+001
6.082855e+002, 9.133955e+001
6.087676e+002, 9.304037e+001
6.092497e+002, 9.401999e+001
6.097318e+002, 9.267232e+001
6.102139e+002, 9.089302e+001
6.106960e+002, 9.033882e+001
6.111782e+002, 9.103732e+001
6.116603e+002, 9.140614e+001
6.121424e+002, 9.054494e+001
6.126245e+002, 8.943279e+001
6.131066e+002, 8.866369e+001
6.135887e+002, 8.835873e+001
6.140709e+002, 8.822775e+001
6.145530e+002, 8.837231e+001
6.150351e+002, 8.860117e+001
6.155172e+002, 8.872245e+001
6.159993e+002, 8.872706e+001
6.164814e+002, 8.865873e+001
6.169636e+002, 8.849063e+001
6.174457e+002, 8.830282e+001
6.179278e+002, 8.826679e+001
6.184099e+002, 8.836899e+001
6.188920e+002, 8.847449e+001
6.193741e+002, 8.859751e+001
6.198563e+002, 8.864027e+001
6.203384e+002, 8.835060e+001
6.208205e+002, 8.780318e+001
6.213026e+002, 8.737514e+001
6.217847e+002, 8.738062e+001
6.222668e+002, 8.751779e+001
6.227490e+002, 8.755857e+001
6.232311e+002, 8.747002e+001
6.237132e+002, 8.743130e+001
6.241953e+002, 8.763148e+001
6.246774e+002, 8.780296e+001
6.251595e+002, 8.774540e+001
6.256417e+002, 8.724946e+001
6.261238e+002, 8.695354e+001
6.266059e+002, 8.697047e+001
6.270880e+002, 8.707091e+001
6.275701e+002, 8.683812e+001
6.280522e+002, 8.619289e+001
6.285344e+002, 8.605463e+001
6.290165e+002, 8.679471e+001
6.294986e+002, 8.787731e+001
6.299807e+002, 8.826948e+001
6.304628e+002, 8.805338e+001
6.309449e+002, 8.767402e+001
6.314271e+002, 8.718623e+001
6.319092e+002, 8.675114e+001
6.323913e+002, 8.657703e+001
6.328734e+002, 8.663311e+001
6.333555e+002, 8.672955e+001
6.338376e+002, 8.679277e+001
6.343198e+002, 8.684798e+001
6.348019e+002, 8.692921e+001
6.352840e+002, 8.706227e+001
6.357661e+002, 8.709443e+001
6.362482e+002, 8.688982e+001
6.367303e+002, 8.668082e+001
6.372125e+002, 8.664301e+001
6.376946e+002, 8.687254e+001
6.381767e+002, 8.698667e+001
6.386588e+002, 8.693925e+001
6.391409e+002, 8.683146e+001
6.396230e+002, 8.683440e+001
6.401052e+002, 8.693650e+001
6.405873e+002, 8.693523e+001
6.410694e+002, 8.673974e+001
6.415515e+002, 8.648746e+001
6.420336e+002, 8.636497e+001
6.425157e+002, 8.635676e+001
6.429979e+002, 8.641689e+001
6.434800e+002, 8.661234e+001
6.439621e+002, 8.679306e+001
6.444442e+002, 8.676492e+001
6.449263e+002, 8.658651e+001
6.454084e+002, 8.660628e+001
6.458906e+002, 8.731653e+001
6.463727e+002, 8.791830e+001
6.468548e+002, 8.795615e+001
6.473369e+002, 8.733623e+001
6.478190e+002, 8.689356e+001
6.483011e+002, 8.663231e+001
6.487833e+002, 8.654852e+001
6.492654e+002, 8.673474e+001
6.497475e+002, 8.723790e+001
6.502296e+002, 8.738882e+001
6.507117e+002, 8.708637e+001
6.511938e+002, 8.668241e+001
6.516760e+002, 8.665650e+001
6.521581e+002, 8.689351e+001
6.526402e+002, 8.702052e+001
6.531223e+002, 8.687464e+001
6.536044e+002, 8.672723e+001
6.540865e+002, 8.692024e+001
6.545687e+002, 8.727549e+001
6.550508e+002, 8.745181e+001
6.555329e+002, 8.700599e+001
6.560150e+002, 8.668530e+001
6.564971e+002, 8.684715e+001
6.569792e+002, 8.740151e+001
6.574614e+002, 8.786201e+001
6.579435e+002, 8.829507e+001
6.584256e+002, 8.850573e+001
6.589077e+002, 8.835637e+001
6.593898e+002, 8.786792e+001
6.598719e+002, 8.758096e+001
6.603541e+002, 8.752779e+001
6.608362e+002, 8.752444e+001
6.613183e+002, 8.737691e+001
6.618004e+002, 8.716374e+001
6.622825e+002, 8.722624e+001
6.627646e+002, 8.759454e+001
6.632468e+002, 8.803575e+001
6.637289e+002, 8.841468e+001
6.642110e+002, 8.871609e+001
6.646931e+002, 8.893191e+001
6.651752e+002, 8.909135e+001
6.656573e+002, 8.908463e+001
6.661395e+002, 8.857909e+001
6.666216e+002, 8.799100e+001
6.671037e+002, 8.783249e+001
6.675858e+002, 8.873447e+001
6.680679e+002, 8.936030e+001
6.685500e+002, 8.955580e+001
6.690322e+002, 8.943851e+001
6.695143e+002, 8.919458e+001
6.699964e+002, 8.875738e+001
6.704785e+002, 8.851892e+001
6.709606e+002, 8.864659e+001
6.714427e+002, 8.902039e+001
6.719249e+002, 8.939149e+001
6.724070e+002, 8.974107e+001
6.728891e+002, 8.990165e+001
6.733712e+002, 8.961417e+001
6.738533e+002, 8.917691e+001
6.743354e+002, 8.893127e+001
6.748176e+002, 8.887368e+001
6.752997e+002, 8.886632e+001
6.757818e+002, 8.878616e+001
6.762639e+002, 8.877661e+001
6.767460e+002, 8.895274e+001
6.772281e+002, 8.938369e+001
6.777103e+002, 8.977004e+001
6.781924e+002, 9.013126e+001
6.786745e+002, 9.041357e+001
6.791566e+002, 9.055441e+001
6.796387e+002, 9.050723e+001
6.801208e+002, 9.057587e+001
6.806030e+002, 9.083402e+001
6.810851e+002, 9.105566e+001
6.815672e+002, 9.087830e+001
6.820493e+002, 9.039927e+001
6.825314e+002, 9.002461e+001
6.830135e+002, 8.985178e+001
6.834957e+002, 8.982278e+001
6.839778e+002, 8.995074e+001
6.844599e+002, 9.017260e+001
6.849420e+002, 9.036477e+001
6.854241e+002, 9.027937e+001
6.859063e+002, 9.037276e+001
6.863884e+002, 9.110812e+001
6.868705e+002, 9.220132e+001
6.873526e+002, 9.264812e+001
6.878347e+002, 9.190240e+001
6.883168e+002, 9.124570e+001
6.887990e+002, 9.102036e+001
6.892811e+002, 9.117403e+001
6.897632e+002, 9.142537e+001
6.902453e+002, 9.179520e+001
6.907274e+002, 9.211790e+001
6.912095e+002, 9.231553e+001
6.916917e+002, 9.238774e+001
6.921738e+002, 9.225837e+001
6.926559e+002, 9.193978e+001
6.931380e+002, 9.170431e+001
6.936201e+002, 9.177243e+001
6.941022e+002, 9.200626e+001
6.945844e+002, 9.230891e+001
6.950665e+002, 9.268392e+001
6.955486e+002, 9.298994e+001
6.960307e+002, 9.322630e+001
6.965128e+002, 9.333952e+001
6.969949e+002, 9.326662e+001
6.974771e+002, 9.279607e+001
6.979592e+002, 9.260813e+001
6.984413e+002, 9.281799e+001
6.989234e+002, 9.316716e+001
6.994055e+002, 9.328117e+001
6.998876e+002, 9.315244e+001
7.003698e+002, 9.336759e+001
7.008519e+002, 9.416363e+001
7.013340e+002, 9.496882e+001
7.018161e+002, 9.485644e+001
7.022982e+002, 9.411227e+001
7.027803e+002, 9.343823e+001
7.032625e+002, 9.298561e+001
7.037446e+002, 9.282352e+001
7.042267e+002, 9.309920e+001
7.047088e+002, 9.369502e+001
7.051909e+002, 9.435510e+001
7.056730e+002, 9.524541e+001
7.061552e+002, 9.591402e+001
7.066373e+002, 9.619317e+001
7.071194e+002, 9.615840e+001
7.076015e+002, 9.615565e+001
7.080836e+002, 9.619091e+001
7.085657e+002, 9.623316e+001
7.090479e+002, 9.626612e+001
7.095300e+002, 9.629439e+001
7.100121e+002, 9.629861e+001
7.104942e+002, 9.628481e+001
7.109763e+002, 9.640366e+001
7.114584e+002, 9.708591e+001
7.119406e+002, 9.778328e+001
7.124227e+002, 9.758391e+001
7.129048e+002, 9.648281e+001
7.133869e+002, 9.573413e+001
7.138690e+002, 9.640529e+001
7.143511e+002, 9.730298e+001
7.148333e+002, 9.758888e+001
7.153154e+002, 9.687496e+001
7.157975e+002, 9.653323e+001
7.162796e+002, 9.668156e+001
7.167617e+002, 9.706674e+001
7.172438e+002, 9.758462e+001
7.177260e+002, 9.827364e+001
7.182081e+002, 9.860686e+001
7.186902e+002, 9.849931e+001
7.191723e+002, 9.825075e+001
7.196544e+002, 9.805321e+001
7.201365e+002, 9.799734e+001
7.206187e+002, 9.839418e+001
7.211008e+002, 9.948232e+001
7.215829e+002, 1.005180e+002
7.220650e+002, 1.008400e+002
7.225471e+002, 1.008086e+002
7.230292e+002, 1.009137e+002
7.235114e+002, 1.016299e+002
7.239935e+002, 1.020651e+002
7.244756e+002, 1.018021e+002
7.249577e+002, 1.012792e+002
7.254398e+002, 1.013212e+002
7.259219e+002, 1.022504e+002
7.264041e+002, 1.026732e+002
7.268862e+002, 1.020352e+002
7.273683e+002, 1.009830e+002
7.278504e+002, 1.012400e+002
7.283325e+002, 1.026281e+002
7.288146e+002, 1.039676e+002
7.292968e+002, 1.047676e+002
7.297789e+002, 1.052015e+002
7.302610e+002, 1.053390e+002
7.307431e+002, 1.052541e+002
7.312252e+002, 1.051922e+002
7.317073e+002, 1.052049e+002
7.321895e+002, 1.053153e+002
7.326716e+002, 1.055564e+002
7.331537e+002, 1.059242e+002
7.336358e+002, 1.063251e+002
7.341179e+002, 1.068609e+002
7.346000e+002, 1.072545e+002
7.350822e+002, 1.072746e+002
7.355643e+002, 1.069988e+002
7.360464e+002, 1.073290e+002
7.365285e+002, 1.083004e+002
7.370106e+002, 1.091909e+002
7.374927e+002, 1.093598e+002
7.379749e+002, 1.091550e+002
7.384570e+002, 1.090698e+002
7.389391e+002, 1.091408e+002
7.394212e+002, 1.095314e+002
7.399033e+002, 1.107496e+002
7.403854e+002, 1.120295e+002
7.408676e+002, 1.127814e+002
7.413497e+002, 1.127895e+002
7.418318e+002, 1.128365e+002
7.423139e+002, 1.126867e+002
7.427960e+002, 1.129015e+002
7.432781e+002, 1.140305e+002
7.437603e+002, 1.162805e+002
7.442424e+002, 1.179349e+002
7.447245e+002, 1.188838e+002
7.452066e+002, 1.195314e+002
7.456887e+002, 1.201560e+002
7.461708e+002, 1.208370e+002
7.466530e+002, 1.219349e+002
7.471351e+002, 1.236672e+002
7.476172e+002, 1.249731e+002
7.480993e+002, 1.247539e+002
7.485814e+002, 1.238155e+002
7.490635e+002, 1.230413e+002
7.495457e+002, 1.224694e+002
7.500278e+002, 1.223273e+002
7.505099e+002, 1.228314e+002
7.509920e+002, 1.236453e+002
7.514741e+002, 1.244017e+002
7.519562e+002, 1.250685e+002
7.524384e+002, 1.257614e+002
7.529205e+002, 1.264609e+002
7.534026e+002, 1.272412e+002
7.538847e+002, 1.283763e+002
7.543668e+002, 1.297248e+002
7.548489e+002, 1.307053e+002
7.553311e+002, 1.309461e+002
7.558132e+002, 1.311227e+002
7.562953e+002, 1.318895e+002
7.567774e+002, 1.329928e+002
7.572595e+002, 1.339705e+002
7.577416e+002, 1.345593e+002
7.582238e+002, 1.351610e+002
7.587059e+002, 1.358502e+002
7.591880e+002, 1.366312e+002
7.596701e+002, 1.375637e+002
7.601522e+002, 1.387665e+002
7.606343e+002, 1.397411e+002
7.611165e+002, 1.402670e+002
7.615986e+002, 1.406013e+002
7.620807e+002, 1.414549e+002
7.625628e+002, 1.427395e+002
7.630449e+002, 1.439337e+002
7.635270e+002, 1.447560e+002
7.640092e+002, 1.454120e+002
7.644913e+002, 1.460257e+002
7.649734e+002, 1.466280e+002
7.654555e+002, 1.473252e+002
7.659376e+002, 1.482219e+002
7.664197e+002, 1.491374e+002
7.669019e+002, 1.499875e+002
7.673840e+002, 1.507926e+002
7.678661e+002, 1.517078e+002
7.683482e+002, 1.528577e+002
7.688303e+002, 1.537198e+002
7.693124e+002, 1.539058e+002
7.697946e+002, 1.536970e+002
7.702767e+002, 1.542607e+002
7.707588e+002, 1.554996e+002
7.712409e+002, 1.565079e+002
7.717230e+002, 1.563357e+002
7.722051e+002, 1.559491e+002
7.726873e+002, 1.564499e+002
7.731694e+002, 1.577265e+002
7.736515e+002, 1.587471e+002
7.741336e+002, 1.590028e+002
7.746157e+002, 1.590729e+002
7.750978e+002, 1.591850e+002
7.755800e+002, 1.593412e+002
7.760621e+002, 1.594197e+002
7.765442e+002, 1.593174e+002
7.770263e+002, 1.594371e+002
7.775084e+002, 1.601552e+002
7.779905e+002, 1.612944e+002
7.784727e+002, 1.619887e+002
7.789548e+002, 1.622534e+002
7.794369e+002, 1.623788e+002
7.799190e+002, 1.625889e+002
7.804011e+002, 1.627458e+002
7.808832e+002, 1.626152e+002
7.813654e+002, 1.621924e+002
7.818475e+002, 1.619937e+002
7.823296e+002, 1.623441e+002
7.828117e+002, 1.628212e+002
7.832938e+002, 1.632184e+002
7.837759e+002, 1.635267e+002
7.842581e+002, 1.638675e+002
7.847402e+002, 1.642474e+002
7.852223e+002, 1.646399e+002
7.857044e+002, 1.651269e+002
7.861865e+002, 1.656239e+002
7.866686e+002, 1.657299e+002
7.871508e+002, 1.654404e+002
7.876329e+002, 1.651450e+002
7.881150e+002, 1.649548e+002
7.885971e+002, 1.650110e+002
7.890792e+002, 1.655988e+002
7.895613e+002, 1.668411e+002
7.900435e+002, 1.677244e+002
7.905256e+002, 1.674699e+002
7.910077e+002, 1.672707e+002
7.914898e+002, 1.678485e+002
7.919719e+002, 1.693748e+002
7.924540e+002, 1.703845e+002
7.929362e+002, 1.707853e+002
7.934183e+002, 1.709677e+002
7.939004e+002, 1.711684e+002
7.943825e+002, 1.714063e+002
7.948646e+002, 1.717374e+002
7.953467e+002, 1.721692e+002
7.958289e+002, 1.726573e+002
7.963110e+002, 1.731737e+002
7.967931e+002, 1.737291e+002
7.972752e+002, 1.743585e+002
7.977573e+002, 1.751257e+002
7.982394e+002, 1.757190e+002
7.987216e+002, 1.759086e+002
7.992037e+002, 1.761393e+002
7.996858e+002, 1.766951e+002
8.001679e+002, 1.776161e+002
8.006500e+002, 1.785896e+002
8.011321e+002, 1.796259e+002
8.016143e+002, 1.807357e+002
8.020964e+002, 1.820073e+002
8.025785e+002, 1.833355e+002
8.030606e+002, 1.844928e+002
8.035427e+002, 1.854371e+002
8.040248e+002, 1.864509e+002
8.045070e+002, 1.878270e+002
8.049891e+002, 1.892619e+002
8.054712e+002, 1.904905e+002
8.059533e+002, 1.913717e+002
8.064354e+002, 1.924481e+002
8.069175e+002, 1.937830e+002
8.073997e+002, 1.952195e+002
8.078818e+002, 1.966317e+002
8.083639e+002, 1.980110e+002
8.088460e+002, 1.996124e+002
8.093281e+002, 2.014719e+002
8.098102e+002, 2.032067e+002
8.102924e+002, 2.043702e+002
8.107745e+002, 2.052450e+002
8.112566e+002, 2.061164e+002
8.117387e+002, 2.069791e+002
8.122208e+002, 2.082355e+002
8.127029e+002, 2.104399e+002
8.131851e+002, 2.128094e+002
8.136672e+002, 2.147760e+002
8.141493e+002, 2.162026e+002
8.146314e+002, 2.177979e+002
8.151135e+002, 2.195644e+002
8.155956e+002, 2.214629e+002
8.160778e+002, 2.233911e+002
8.165599e+002, 2.253965e+002
8.170420e+002, 2.278085e+002
8.175241e+002, 2.306630e+002
8.180062e+002, 2.333076e+002
8.184883e+002, 2.350292e+002
8.189705e+002, 2.364534e+002
8.194526e+002, 2.381773e+002
8.199347e+002, 2.403049e+002
8.204168e+002, 2.424297e+002
8.208989e+002, 2.444563e+002
8.213810e+002, 2.464644e+002
8.218632e+002, 2.484488e+002
8.223453e+002, 2.503657e+002
8.228274e+002, 2.528358e+002
8.233095e+002, 2.559152e+002
8.237916e+002, 2.589796e+002
8.242737e+002, 2.614177e+002
8.247559e+002, 2.634820e+002
8.252380e+002, 2.656774e+002
8.257201e+002, 2.680139e+002
8.262022e+002, 2.702827e+002
8.266843e+002, 2.724391e+002
8.271664e+002, 2.743954e+002
8.276486e+002, 2.759542e+002
8.281307e+002, 2.770001e+002
8.286128e+002, 2.785723e+002
8.290949e+002, 2.809291e+002
8.295770e+002, 2.833863e+002
8.300591e+002, 2.856172e+002
8.305413e+002, 2.876257e+002
8.310234e+002, 2.895643e+002
8.315055e+002, 2.914314e+002
8.319876e+002, 2.932549e+002
8.324697e+002, 2.951368e+002
8.329518e+002, 2.969478e+002
8.334340e+002, 2.985616e+002
8.339161e+002, 2.999721e+002
8.343982e+002, 3.013087e+002
8.348803e+002, 3.026452e+002
8.353624e+002, 3.038816e+002
8.358445e+002, 3.049215e+002
8.363267e+002, 3.057773e+002
8.368088e+002, 3.069956e+002
8.372909e+002, 3.087481e+002
8.377730e+002, 3.100367e+002
8.382551e+002, 3.097896e+002
8.387372e+002, 3.088379e+002
8.392194e+002, 3.095740e+002
8.397015e+002, 3.117088e+002
8.401836e+002, 3.135619e+002
8.406657e+002, 3.136638e+002
8.411478e+002, 3.136289e+002
8.416299e+002, 3.145353e+002
8.421121e+002, 3.163064e+002
8.425942e+002, 3.178620e+002
8.430763e+002, 3.192553e+002
8.435584e+002, 3.202022e+002
8.440405e+002, 3.203789e+002
8.445226e+002, 3.201116e+002
8.450048e+002, 3.208876e+002
8.454869e+002, 3.226272e+002
8.459690e+002, 3.241349e+002
8.464511e+002, 3.245190e+002
8.469332e+002, 3.245993e+002
8.474153e+002, 3.253295e+002
8.478975e+002, 3.264914e+002
8.483796e+002, 3.274649e+002
8.488617e+002, 3.276964e+002
8.493438e+002, 3.281223e+002
8.498259e+002, 3.292298e+002
8.503080e+002, 3.306583e+002
8.507902e+002, 3.313822e+002
8.512723e+002, 3.312622e+002
8.517544e+002, 3.312609e+002
8.522365e+002, 3.316769e+002
8.527186e+002, 3.323158e+002
8.532007e+002, 3.329660e+002
8.536829e+002, 3.335571e+002
8.541650e+002, 3.338945e+002
8.546471e+002, 3.336453e+002
8.551292e+002, 3.334537e+002
8.556113e+002, 3.336748e+002
8.560934e+002, 3.341439e+002
8.565756e+002, 3.345654e+002
8.570577e+002, 3.349052e+002
8.575398e+002, 3.352424e+002
8.580219e+002, 3.356288e+002
8.585040e+002, 3.359537e+002
8.589861e+002, 3.359503e+002
8.594683e+002, 3.356922e+002
8.599504e+002, 3.355465e+002
8.604325e+002, 3.355497e+002
8.609146e+002, 3.358512e+002
8.613967e+002, 3.370142e+002
8.618788e+002, 3.383688e+002
8.623610e+002, 3.390358e+002
8.628431e+002, 3.378963e+002
8.633252e+002, 3.377485e+002
8.638073e+002, 3.394403e+002
8.642894e+002, 3.415340e+002
8.647715e+002, 3.423844e+002
8.652537e+002, 3.418842e+002
8.657358e+002, 3.425666e+002
8.662179e+002, 3.447520e+002
8.667000e+002, 3.473035e+002
8.671821e+002, 3.490600e+002
8.676642e+002, 3.504689e+002
8.681464e+002, 3.520591e+002
8.686285e+002, 3.539029e+002
8.691106e+002, 3.561962e+002
8.695927e+002, 3.595859e+002
8.700748e+002, 3.630036e+002
8.705569e+002, 3.655498e+002
8.710391e+002, 3.669171e+002
8.715212e+002, 3.695316e+002
8.720033e+002, 3.736006e+002
8.724854e+002, 3.780178e+002
8.729675e+002, 3.819154e+002
8.734496e+002, 3.855084e+002
8.739318e+002, 3.891685e+002
8.744139e+002, 3.928988e+002
8.748960e+002, 3.966442e+002
8.753781e+002, 4.000224e+002
8.758602e+002, 4.037042e+002
8.763423e+002, 4.081970e+002
8.768245e+002, 4.135023e+002
8.773066e+002, 4.187578e+002
8.777887e+002, 4.239470e+002
8.782708e+002, 4.291581e+002
8.787529e+002, 4.344025e+002
8.792350e+002, 4.397114e+002
8.797172e+002, 4.452144e+002
8.801993e+002, 4.508952e+002
8.806814e+002, 4.570134e+002
8.811635e+002, 4.638690e+002
8.816456e+002, 4.710679e+002
8.821277e+002, 4.783209e+002
8.826099e+002, 4.856768e+002
8.830920e+002, 4.932870e+002
8.835741e+002, 5.012619e+002
8.840562e+002, 5.094135e+002
8.845383e+002, 5.178539e+002
8.850204e+002, 5.264527e+002
8.855026e+002, 5.347378e+002
8.859847e+002, 5.427640e+002
8.864668e+002, 5.515643e+002
8.869489e+002, 5.615942e+002
8.874310e+002, 5.721527e+002
8.879131e+002, 5.826702e+002
8.883953e+002, 5.930087e+002
8.888774e+002, 6.030535e+002
8.893595e+002, 6.124219e+002
8.898416e+002, 6.220206e+002
8.903237e+002, 6.319730e+002
8.908058e+002, 6.422239e+002
8.912880e+002, 6.531818e+002
8.917701e+002, 6.649493e+002
8.922522e+002, 6.752576e+002
8.927343e+002, 6.837841e+002
8.932164e+002, 6.920067e+002
8.936985e+002, 7.016969e+002
8.941807e+002, 7.119456e+002
8.946628e+002, 7.217973e+002
8.951449e+002, 7.311298e+002
8.956270e+002, 7.393469e+002
8.961091e+002, 7.456957e+002
8.965912e+002, 7.513775e+002
8.970734e+002, 7.573478e+002
8.975555e+002, 7.636884e+002
8.980376e+002, 7.687906e+002
8.985197e+002, 7.725695e+002
8.990018e+002, 7.754637e+002
8.994839e+002, 7.777090e+002
8.999661e+002, 7.792761e+002
9.004482e+002, 7.802965e+002
9.009303e+002, 7.806768e+002
9.014124e+002, 7.797776e+002
9.018945e+002, 7.776274e+002
9.023766e+002, 7.737846e+002
9.028588e+002, 7.669414e+002
9.033409e+002, 7.579963e+002
9.038230e+002, 7.509969e+002
9.043051e+002, 7.468195e+002
9.047872e+002, 7.407824e+002
9.052693e+002, 7.308693e+002
9.057515e+002, 7.186130e+002
9.062336e+002, 7.067627e+002
9.067157e+002, 6.951255e+002
9.071978e+002, 6.831535e+002
9.076799e+002, 6.705791e+002
9.081620e+002, 6.577258e+002
9.086442e+002, 6.445784e+002
9.091263e+002, 6.311992e+002
9.096084e+002, 6.175819e+002
9.100905e+002, 6.035959e+002
9.105726e+002, 5.897319e+002
9.110547e+002, 5.758198e+002
9.115369e+002, 5.620336e+002
9.120190e+002, 5.486339e+002
9.125011e+002, 5.354837e+002
9.129832e+002, 5.220640e+002
9.134653e+002, 5.081837e+002
9.139474e+002, 4.947283e+002
9.144296e+002, 4.822609e+002
9.149117e+002, 4.704548e+002
9.153938e+002, 4.590550e+002
9.158759e+002, 4.479820e+002
9.163580e+002, 4.374763e+002
9.168401e+002, 4.276387e+002
9.173223e+002, 4.181035e+002
9.178044e+002, 4.085810e+002
9.182865e+002, 3.991936e+002
9.187686e+002, 3.900619e+002
9.192507e+002, 3.811923e+002
9.197328e+002, 3.726036e+002
9.202150e+002, 3.643051e+002
9.206971e+002, 3.563060e+002
9.211792e+002, 3.486173e+002
9.216613e+002, 3.411812e+002
9.221434e+002, 3.337063e+002
9.226255e+002, 3.258518e+002
9.231077e+002, 3.186769e+002
9.235898e+002, 3.126078e+002
9.240719e+002, 3.072708e+002
9.245540e+002, 3.017169e+002
9.250361e+002, 2.959791e+002
9.255182e+002, 2.902989e+002
9.260004e+002, 2.844584e+002
9.264825e+002, 2.790912e+002
9.269646e+002, 2.747855e+002
9.274467e+002, 2.710587e+002
9.279288e+002, 2.672469e+002
9.284109e+002, 2.630858e+002
9.288931e+002, 2.591996e+002
9.293752e+002, 2.557146e+002
9.298573e+002, 2.523764e+002
9.303394e+002, 2.489848e+002
9.308215e+002, 2.454957e+002
9.313036e+002, 2.413971e+002
9.317858e+002, 2.365501e+002
9.322679e+002, 2.322468e+002
9.327500e+002, 2.298710e+002
9.332321e+002, 2.279953e+002
9.337142e+002, 2.253711e+002
9.341964e+002, 2.217665e+002
9.346785e+002, 2.187245e+002
9.351606e+002, 2.164109e+002
9.356427e+002, 2.143230e+002
9.361248e+002, 2.122747e+002
9.366069e+002, 2.102374e+002
9.370891e+002, 2.082317e+002
9.375712e+002, 2.062312e+002
9.380533e+002, 2.042381e+002
9.385354e+002, 2.023552e+002
9.390175e+002, 2.003663e+002
9.394996e+002, 1.977685e+002
9.399818e+002, 1.949932e+002
9.404639e+002, 1.934095e+002
9.409460e+002, 1.937755e+002
9.414281e+002, 1.933715e+002
9.419102e+002, 1.915319e+002
9.423923e+002, 1.890926e+002
9.428745e+002, 1.872491e+002
9.433566e+002, 1.859198e+002
9.438387e+002, 1.850466e+002
9.443208e+002, 1.848404e+002
9.448029e+002, 1.842799e+002
9.452850e+002, 1.824694e+002
9.457672e+002, 1.802256e+002
9.462493e+002, 1.782740e+002
9.467314e+002, 1.766430e+002
9.472135e+002, 1.753281e+002
9.476956e+002, 1.743879e+002
9.481777e+002, 1.735760e+002
9.486599e+002, 1.728472e+002
9.491420e+002, 1.720876e+002
9.496241e+002, 1.709052e+002
9.501062e+002, 1.693588e+002
9.505883e+002, 1.679737e+002
9.510704e+002, 1.674155e+002
9.515526e+002, 1.667079e+002
9.520347e+002, 1.651458e+002
9.525168e+002, 1.630018e+002
9.529989e+002, 1.613647e+002
9.534810e+002, 1.603589e+002
9.539631e+002, 1.592638e+002
9.544453e+002, 1.578432e+002
9.549274e+002, 1.562842e+002
9.554095e+002, 1.548950e+002
9.558916e+002, 1.536113e+002
9.563737e+002, 1.522660e+002
9.568558e+002, 1.507943e+002
9.573380e+002, 1.492792e+002
9.578201e+002, 1.476590e+002
9.583022e+002, 1.460586e+002
9.587843e+002, 1.445783e+002
9.592664e+002, 1.432022e+002
9.597485e+002, 1.421134e+002
9.602307e+002, 1.413835e+002
9.607128e+002, 1.404811e+002
9.611949e+002, 1.386967e+002
9.616770e+002, 1.365642e+002
9.621591e+002, 1.349228e+002
9.626412e+002, 1.337827e+002
9.631234e+002, 1.325375e+002
9.636055e+002, 1.304836e+002
9.640876e+002, 1.288436e+002
9.645697e+002, 1.281819e+002
9.650518e+002, 1.282430e+002
9.655339e+002, 1.279142e+002
9.660161e+002, 1.271912e+002
9.664982e+002, 1.261789e+002
9.669803e+002, 1.246962e+002
9.674624e+002, 1.233042e+002
9.679445e+002, 1.230008e+002
9.684266e+002, 1.231438e+002
9.689088e+002, 1.226802e+002
9.693909e+002, 1.204298e+002
9.698730e+002, 1.188767e+002
9.703551e+002, 1.185379e+002
9.708372e+002, 1.184585e+002
9.713193e+002, 1.175142e+002
9.718015e+002, 1.158329e+002
9.722836e+002, 1.145908e+002
9.727657e+002, 1.138949e+002
9.732478e+002, 1.132761e+002
9.737299e+002, 1.123244e+002
9.742120e+002, 1.113167e+002
9.746942e+002, 1.104304e+002
9.751763e+002, 1.096898e+002
9.756584e+002, 1.092482e+002
9.761405e+002, 1.093461e+002
9.766226e+002, 1.091978e+002
9.771047e+002, 1.084192e+002
9.775869e+002, 1.072759e+002
9.780690e+002, 1.065076e+002
9.785511e+002, 1.060410e+002
9.790332e+002, 1.055819e+002
9.795153e+002, 1.050085e+002
9.799974e+002, 1.044090e+002
9.804796e+002, 1.037526e+002
9.809617e+002, 1.031338e+002
9.814438e+002, 1.027190e+002
9.819259e+002, 1.026832e+002
9.824080e+002, 1.022293e+002
9.828901e+002, 1.012083e+002
9.833723e+002, 1.001899e+002
9.838544e+002, 9.988122e+001
9.843365e+002, 9.993580e+001
9.848186e+002, 9.967522e+001
9.853007e+002, 9.904895e+001
9.857828e+002, 9.844994e+001
9.862650e+002, 9.734766e+001
9.867471e+002, 9.712673e+001
9.872292e+002, 9.903795e+001
9.877113e+002, 1.023387e+002
9.881934e+002, 1.027365e+002
9.886755e+002, 1.000992e+002
9.891577e+002, 9.765335e+001
9.896398e+002, 9.683229e+001
9.901219e+002, 9.647100e+001
9.906040e+002, 9.489043e+001
9.910861e+002, 9.286652e+001
9.915682e+002, 9.173006e+001
9.920504e+002, 9.297395e+001
9.925325e+002, 9.336340e+001
9.930146e+002, 9.223737e+001
9.934967e+002, 9.076589e+001
9.939788e+002, 9.005180e+001
9.944609e+002, 9.000760e+001
9.949431e+002, 8.986937e+001
9.954252e+002, 8.959727e+001
9.959073e+002, 8.933510e+001
9.963894e+002, 8.935836e+001
9.968715e+002, 8.928773e+001
9.973536e+002, 8.874434e+001
9.978358e+002, 8.776291e+001
9.983179e+002, 8.696627e+001
9.988000e+002, 8.637235e+001
9.992821e+002, 8.597039e+001
9.997642e+002, 8.583222e+001
1.000246e+003, 8.576573e+001
1.000728e+003, 8.528539e+001
1.001211e+003, 8.456960e+001
1.001693e+003, 8.412063e+001
1.002175e+003, 8.424949e+001
1.002657e+003, 8.430968e+001
1.003139e+003, 8.379346e+001
1.003621e+003, 8.324931e+001
1.004103e+003, 8.324940e+001
1.004585e+003, 8.397426e+001
1.005068e+003, 8.418114e+001
1.005550e+003, 8.384650e+001
1.006032e+003, 8.322732e+001
1.006514e+003, 8.217876e+001
1.006996e+003, 8.117315e+001
1.007478e+003, 8.089704e+001
1.007960e+003, 8.125074e+001
1.008442e+003, 8.154459e+001
1.008924e+003, 8.160693e+001
1.009407e+003, 8.155286e+001
1.009889e+003, 8.137790e+001
1.010371e+003, 8.112267e+001
1.010853e+003, 8.089711e+001
1.011335e+003, 8.067784e+001
1.011817e+003, 8.028551e+001
1.012299e+003, 7.961358e+001
1.012781e+003, 7.904512e+001
1.013263e+003, 7.896635e+001
1.013746e+003, 7.906625e+001
1.014228e+003, 7.906734e+001
1.014710e+003, 7.895879e+001
1.015192e+003, 7.865555e+001
1.015674e+003, 7.807140e+001
1.016156e+003, 7.758272e+001
1.016638e+003, 7.747372e+001
1.017120e+003, 7.758712e+001
1.017603e+003, 7.765624e+001
1.018085e+003, 7.765671e+001
1.018567e+003, 7.750220e+001
1.019049e+003, 7.677535e+001
1.019531e+003, 7.635856e+001
1.020013e+003, 7.684690e+001
1.020495e+003, 7.755672e+001
1.020977e+003, 7.733962e+001
1.021459e+003, 7.616129e+001
1.021942e+003, 7.560256e+001
1.022424e+003, 7.593388e+001
1.022906e+003, 7.631718e+001
1.023388e+003, 7.587178e+001
1.023870e+003, 7.515472e+001
1.024352e+003, 7.476204e+001
1.024834e+003, 7.479046e+001
1.025316e+003, 7.462428e+001
1.025799e+003, 7.415706e+001
1.026281e+003, 7.362499e+001
1.026763e+003, 7.302675e+001
1.027245e+003, 7.250850e+001
1.027727e+003, 7.253150e+001
1.028209e+003, 7.295463e+001
1.028691e+003, 7.331463e+001
1.029173e+003, 7.350150e+001
1.029656e+003, 7.347498e+001
1.030138e+003, 7.299998e+001
1.030620e+003, 7.243324e+001
1.031102e+003, 7.218526e+001
1.031584e+003, 7.235232e+001
1.032066e+003, 7.225135e+001
1.032548e+003, 7.184297e+001
1.033030e+003, 7.139605e+001
1.033512e+003, 7.103795e+001
1.033995e+003, 7.083171e+001
1.034477e+003, 7.104316e+001
1.034959e+003, 7.155921e+001
1.035441e+003, 7.164432e+001
1.035923e+003, 7.064962e+001
1.036405e+003, 6.995215e+001
1.036887e+003, 6.991127e+001
1.037369e+003, 7.020081e+001
1.037851e+003, 7.021545e+001
1.038334e+003, 7.000457e+001
1.038816e+003, 6.975031e+001
1.039298e+003, 6.948891e+001
1.039780e+003, 6.920830e+001
1.040262e+003, 6.880283e+001
1.040744e+003, 6.844954e+001
1.041226e+003, 6.829102e+001
1.041708e+003, 6.833017e+001
1.042191e+003, 6.850294e+001
1.042673e+003, 6.884179e+001
1.043155e+003, 6.905801e+001
1.043637e+003, 6.899603e+001
1.044119e+003, 6.872371e+001
1.044601e+003, 6.816509e+001
1.045083e+003, 6.748334e+001
1.045565e+003, 6.707225e+001
1.046047e+003, 6.736625e+001
1.046530e+003, 6.746318e+001
1.047012e+003, 6.720549e+001
1.047494e+003, 6.685136e+001
1.047976e+003, 6.669334e+001
1.048458e+003, 6.669218e+001
1.048940e+003, 6.665109e+001
1.049422e+003, 6.655749e+001
1.049904e+003, 6.653684e+001
1.050386e+003, 6.693717e+001
1.050869e+003, 6.718345e+001
1.051351e+003, 6.670320e+001
1.051833e+003, 6.574385e+001
1.052315e+003, 6.536546e+001
1.052797e+003, 6.565493e+001
1.053279e+003, 6.586492e+001
1.053761e+003, 6.579179e+001
1.054243e+003, 6.556977e+001
1.054726e+003, 6.528791e+001
1.055208e+003, 6.500119e+001
1.055690e+003, 6.478322e+001
1.056172e+003, 6.464728e+001
1.056654e+003, 6.460601e+001
1.057136e+003, 6.473156e+001
1.057618e+003, 6.480977e+001
1.058100e+003, 6.466883e+001
1.058583e+003, 6.438529e+001
1.059065e+003, 6.424025e+001
1.059547e+003, 6.422522e+001
1.060029e+003, 6.430125e+001
1.060511e+003, 6.469894e+001
1.060993e+003, 6.489423e+001
1.061475e+003, 6.442612e+001
1.061957e+003, 6.374793e+001
1.062439e+003, 6.350792e+001
1.062922e+003, 6.376782e+001
1.063404e+003, 6.390611e+001
1.063886e+003, 6.386394e+001
1.064368e+003, 6.379877e+001
1.064850e+003, 6.392112e+001
1.065332e+003, 6.404041e+001
1.065814e+003, 6.391359e+001
1.066296e+003, 6.355197e+001
1.066778e+003, 6.331118e+001
1.067261e+003, 6.327066e+001
1.067743e+003, 6.323790e+001
1.068225e+003, 6.317359e+001
1.068707e+003, 6.307351e+001
1.069189e+003, 6.297917e+001
1.069671e+003, 6.283738e+001
1.070153e+003, 6.246366e+001
1.070635e+003, 6.170086e+001
1.071118e+003, 6.114460e+001
1.071600e+003, 6.128906e+001
1.072082e+003, 6.148289e+001
1.072564e+003, 6.130299e+001
1.073046e+003, 6.080274e+001
1.073528e+003, 6.062860e+001
1.074010e+003, 6.077135e+001
1.074492e+003, 6.108252e+001
1.074974e+003, 6.181305e+001
1.075457e+003, 6.230851e+001
1.075939e+003, 6.180484e+001
1.076421e+003, 6.083137e+001
1.076903e+003, 6.030819e+001
1.077385e+003, 6.046222e+001
1.077867e+003, 6.048877e+001
1.078349e+003, 6.032057e+001
1.078831e+003, 6.016269e+001
1.079313e+003, 6.025866e+001
1.079796e+003, 6.045547e+001
1.080278e+003, 6.052173e+001
1.080760e+003, 6.046076e+001
1.081242e+003, 6.038655e+001
1.081724e+003, 6.029185e+001
1.082206e+003, 6.024141e+001
1.082688e+003, 6.023894e+001
1.083170e+003, 6.030070e+001
1.083652e+003, 6.054259e+001
1.084135e+003, 6.088462e+001
1.084617e+003, 6.097566e+001
1.085099e+003, 6.071719e+001
1.085581e+003, 6.046651e+001
1.086063e+003, 6.052793e+001
1.086545e+003, 6.057465e+001
1.087027e+003, 6.036568e+001
1.087509e+003, 5.993683e+001
1.087992e+003, 5.968003e+001
1.088474e+003, 5.959804e+001
1.088956e+003, 5.944148e+001
1.089438e+003, 5.900837e+001
1.089920e+003, 5.863551e+001
1.090402e+003, 5.882350e+001
1.090884e+003, 5.920010e+001
1.091366e+003, 5.921831e+001
1.091849e+003, 5.855954e+001
1.092331e+003, 5.822881e+001
1.092813e+003, 5.827369e+001
1.093295e+003, 5.848608e+001
1.093777e+003, 5.879074e+001
1.094259e+003, 5.912109e+001
1.094741e+003, 5.942982e+001
1.095223e+003, 5.966741e+001
1.095705e+003, 5.966985e+001
1.096188e+003, 5.916921e+001
1.096670e+003, 5.868521e+001
1.097152e+003, 5.822256e+001
1.097634e+003, 5.791439e+001
1.098116e+003, 5.806955e+001
1.098598e+003, 5.854930e+001
1.099080e+003, 5.866224e+001
1.099562e+003, 5.835010e+001
1.100044e+003, 5.799043e+001
1.100527e+003, 5.781612e+001
1.101009e+003, 5.765287e+001
1.101491e+003, 5.731252e+001
1.101973e+003, 5.692265e+001
1.102455e+003, 5.701576e+001
1.102937e+003, 5.760080e+001
1.103419e+003, 5.783229e+001
1.103901e+003, 5.741203e+001
1.104384e+003, 5.694527e+001
1.104866e+003, 5.716177e+001
1.105348e+003, 5.753653e+001
1.105830e+003, 5.747567e+001
1.106312e+003, 5.684226e+001
1.106794e+003, 5.652206e+001
1.107276e+003, 5.656086e+001
1.107758e+003, 5.675277e+001
1.108240e+003, 5.714329e+001
1.108723e+003, 5.745919e+001
1.109205e+003, 5.702571e+001
1.109687e+003, 5.625307e+001
1.110169e+003, 5.595143e+001
1.110651e+003, 5.680580e+001
1.111133e+003, 5.725877e+001
1.111615e+003, 5.701715e+001
1.112097e+003, 5.670309e+001
1.112579e+003, 5.687136e+001
1.113062e+003, 5.735004e+001
1.113544e+003, 5.756227e+001
1.114026e+003, 5.752625e+001
1.114508e+003, 5.734874e+001
1.114990e+003, 5.699348e+001
1.115472e+003, 5.660868e+001
1.115954e+003, 5.619066e+001
1.116436e+003, 5.581782e+001
1.116919e+003, 5.560738e+001
1.117401e+003, 5.555006e+001
1.117883e+003, 5.554847e+001
1.118365e+003, 5.559469e+001
1.118847e+003, 5.563251e+001
1.119329e+003, 5.560560e+001
1.119811e+003, 5.557250e+001
1.120293e+003, 5.561799e+001
1.120776e+003, 5.568774e+001
1.121258e+003, 5.554610e+001
1.121740e+003, 5.515263e+001
1.122222e+003, 5.496211e+001
1.122704e+003, 5.510109e+001
1.123186e+003, 5.532286e+001
1.123668e+003, 5.545591e+001
1.124150e+003, 5.548434e+001
1.124632e+003, 5.535841e+001
1.125115e+003, 5.505328e+001
1.125597e+003, 5.482750e+001
1.126079e+003, 5.470355e+001
1.126561e+003, 5.458313e+001
1.127043e+003, 5.438607e+001
1.127525e+003, 5.424397e+001
1.128007e+003, 5.449789e+001
1.128489e+003, 5.492143e+001
1.128971e+003, 5.508932e+001
1.129454e+003, 5.470974e+001
1.129936e+003, 5.462901e+001
1.130418e+003, 5.512022e+001
1.130900e+003, 5.553960e+001
1.131382e+003, 5.545312e+001
1.131864e+003, 5.501912e+001
1.132346e+003, 5.460206e+001
1.132828e+003, 5.424762e+001
1.133311e+003, 5.410706e+001
1.133793e+003, 5.450907e+001
1.134275e+003, 5.477712e+001
1.134757e+003, 5.469494e+001
1.135239e+003, 5.449401e+001
1.135721e+003, 5.438880e+001
1.136203e+003, 5.436182e+001
1.136685e+003, 5.424959e+001
1.137167e+003, 5.405458e+001
1.137650e+003, 5.386766e+001
1.138132e+003, 5.367083e+001
1.138614e+003, 5.357439e+001
1.139096e+003, 5.377370e+001
1.139578e+003, 5.404290e+001
1.140060e+003, 5.394494e+001
1.140542e+003, 5.346629e+001
1.141024e+003, 5.334887e+001
1.141506e+003, 5.368737e+001
1.141989e+003, 5.407085e+001
1.142471e+003, 5.431349e+001
1.142953e+003, 5.435424e+001
1.143435e+003, 5.399068e+001
1.143917e+003, 5.335876e+001
1.144399e+003, 5.307190e+001
1.144881e+003, 5.315343e+001
1.145363e+003, 5.351864e+001
1.145846e+003, 5.424055e+001
1.146328e+003, 5.481898e+001
1.146810e+003, 5.453746e+001
1.147292e+003, 5.391605e+001
1.147774e+003, 5.346957e+001
1.148256e+003, 5.327604e+001
1.148738e+003, 5.318945e+001
1.149220e+003, 5.324470e+001
1.149703e+003, 5.325365e+001
1.150185e+003, 5.311100e+001
1.150667e+003, 5.296809e+001
1.151149e+003, 5.302557e+001
1.151631e+003, 5.324585e+001
1.152113e+003, 5.362957e+001
1.152595e+003, 5.433263e+001
1.153077e+003, 5.457690e+001
1.153559e+003, 5.416185e+001
1.154042e+003, 5.367943e+001
1.154524e+003, 5.343760e+001
1.155006e+003, 5.333923e+001
1.155488e+003, 5.314761e+001
1.155970e+003, 5.292344e+001
1.156452e+003, 5.282854e+001
1.156934e+003, 5.305651e+001
1.157416e+003, 5.315017e+001
1.157898e+003, 5.301887e+001
1.158381e+003, 5.281464e+001
1.158863e+003, 5.260866e+001
1.159345e+003, 5.242583e+001
1.159827e+003, 5.235501e+001
1.160309e+003, 5.239723e+001
1.160791e+003, 5.256060e+001
1.161273e+003, 5.302163e+001
1.161755e+003, 5.337782e+001
1.162238e+003, 5.357629e+001
1.162720e+003, 5.358492e+001
1.163202e+003, 5.324335e+001
1.163684e+003, 5.264116e+001
1.164166e+003, 5.243136e+001
1.164648e+003, 5.259430e+001
1.165130e+003, 5.267512e+001
1.165612e+003, 5.226477e+001
1.166094e+003, 5.189008e+001
1.166577e+003, 5.182293e+001
1.167059e+003, 5.189424e+001
1.167541e+003, 5.179104e+001
1.168023e+003, 5.154604e+001
1.168505e+003, 5.166114e+001
1.168987e+003, 5.219104e+001
1.169469e+003, 5.263347e+001
1.169951e+003, 5.254563e+001
1.170433e+003, 5.235582e+001
1.170916e+003, 5.229370e+001
1.171398e+003, 5.233390e+001
1.171880e+003, 5.249483e+001
1.172362e+003, 5.277177e+001
1.172844e+003, 5.258677e+001
1.173326e+003, 5.175134e+001
1.173808e+003, 5.107864e+001
1.174290e+003, 5.134283e+001
1.174773e+003, 5.196478e+001
1.175255e+003, 5.268380e+001
1.175737e+003, 5.339007e+001
1.176219e+003, 5.346386e+001
1.176701e+003, 5.287412e+001
1.177183e+003, 5.227792e+001
1.177665e+003, 5.180082e+001
1.178147e+003, 5.154634e+001
1.178630e+003, 5.181525e+001
1.179112e+003, 5.221143e+001
1.179594e+003, 5.231385e+001
1.180076e+003, 5.210411e+001
1.180558e+003, 5.203354e+001
1.181040e+003, 5.211739e+001
1.181522e+003, 5.219233e+001
1.182004e+003, 5.219886e+001
1.182486e+003, 5.216473e+001
1.182969e+003, 5.209494e+001
1.183451e+003, 5.201532e+001
1.183933e+003, 5.198306e+001
1.184415e+003, 5.203912e+001
1.184897e+003, 5.182135e+001
1.185379e+003, 5.124644e+001
1.185861e+003, 5.093431e+001
1.186343e+003, 5.140438e+001
1.186825e+003, 5.202418e+001
1.187308e+003, 5.204380e+001
1.187790e+003, 5.170374e+001
1.188272e+003, 5.134853e+001
1.188754e+003, 5.094078e+001
1.189236e+003, 5.083297e+001
1.189718e+003, 5.108414e+001
1.190200e+003, 5.133681e+001
1.190682e+003, 5.133076e+001
1.191165e+003, 5.122161e+001
1.191647e+003, 5.122123e+001
1.192129e+003, 5.126873e+001
1.192611e+003, 5.123326e+001
1.193093e+003, 5.102223e+001
1.193575e+003, 5.090406e+001
1.194057e+003, 5.090763e+001
1.194539e+003, 5.090047e+001
1.195021e+003, 5.070492e+001
1.195504e+003, 5.048662e+001
1.195986e+003, 5.050812e+001
1.196468e+003, 5.069733e+001
1.196950e+003, 5.084254e+001
1.197432e+003, 5.097851e+001
1.197914e+003, 5.085087e+001
1.198396e+003, 5.033807e+001
1.198878e+003, 4.994447e+001
1.199360e+003, 5.040548e+001
1.199843e+003, 5.112480e+001
1.200325e+003, 5.119116e+001
1.200807e+003, 5.072089e+001
1.201289e+003, 5.031444e+001
1.201771e+003, 5.008092e+001
1.202253e+003, 4.989393e+001
1.202735e+003, 4.971093e+001
1.203217e+003, 4.967148e+001
1.203700e+003, 5.006501e+001
1.204182e+003, 5.061988e+001
1.204664e+003, 5.100512e+001
1.205146e+003, 5.118755e+001
1.205628e+003, 5.110701e+001
1.206110e+003, 5.048861e+001
1.206592e+003, 5.028059e+001
1.207074e+003, 5.075920e+001
1.207557e+003, 5.130994e+001
1.208039e+003, 5.111331e+001
1.208521e+003, 5.052348e+001
1.209003e+003, 4.994106e+001
1.209485e+003, 4.942410e+001
1.209967e+003, 4.926542e+001
1.210449e+003, 4.967048e+001
1.210931e+003, 4.996488e+001
1.211413e+003, 4.998771e+001
1.211896e+003, 4.991231e+001
1.212378e+003, 5.000423e+001
1.212860e+003, 5.013588e+001
1.213342e+003, 5.005956e+001
1.213824e+003, 4.975005e+001
1.214306e+003, 4.968718e+001
1.214788e+003, 5.003704e+001
1.215270e+003, 5.029173e+001
1.215752e+003, 5.030975e+001
1.216235e+003, 5.019820e+001
1.216717e+003, 5.001590e+001
1.217199e+003, 4.985087e+001
1.217681e+003, 4.988012e+001
1.218163e+003, 5.014937e+001
1.218645e+003, 5.024456e+001
1.219127e+003, 5.015662e+001
1.219609e+003, 4.981794e+001
1.220092e+003, 4.908422e+001
1.220574e+003, 4.836127e+001
1.221056e+003, 4.830279e+001
1.221538e+003, 4.861798e+001
1.222020e+003, 4.870745e+001
1.222502e+003, 4.833422e+001
1.222984e+003, 4.949904e+001
1.223466e+003, 5.297125e+001
1.223948e+003, 5.557130e+001
1.224431e+003, 5.610172e+001
1.224913e+003, 5.527595e+001
1.225395e+003, 5.326949e+001
1.225877e+003, 5.099624e+001
1.226359e+003, 4.978609e+001
1.226841e+003, 5.013542e+001
1.227323e+003, 5.023403e+001
1.227805e+003, 5.001980e+001
1.228287e+003, 4.974729e+001
1.228770e+003, 4.951314e+001
1.229252e+003, 4.928983e+001
1.229734e+003, 4.900689e+001
1.230216e+003, 4.873047e+001
1.230698e+003, 4.854932e+001
1.231180e+003, 4.847986e+001
1.231662e+003, 4.850024e+001
1.232144e+003, 4.860331e+001
1.232627e+003, 4.886024e+001
1.233109e+003, 4.943914e+001
1.233591e+003, 4.995953e+001
1.234073e+003, 4.980571e+001
1.234555e+003, 4.939846e+001
1.235037e+003, 4.927237e+001
1.235519e+003, 4.945113e+001
1.236001e+003, 5.023470e+001
1.236484e+003, 5.173090e+001
1.236966e+003, 5.283591e+001
1.237448e+003, 5.300948e+001
1.237930e+003, 5.251429e+001
1.238412e+003, 5.098860e+001
1.238894e+003, 4.927301e+001
1.239376e+003, 4.867051e+001
1.239858e+003, 4.940654e+001
1.240340e+003, 4.958820e+001
1.240823e+003, 4.918472e+001
1.241305e+003, 4.884008e+001
1.241787e+003, 4.899334e+001
1.242269e+003, 4.920251e+001
1.242751e+003, 4.900027e+001
1.243233e+003, 4.869039e+001
1.243715e+003, 4.867350e+001
1.244197e+003, 4.899036e+001
1.244679e+003, 4.925118e+001
1.245162e+003, 4.945604e+001
1.245644e+003, 4.951088e+001
1.246126e+003, 4.931944e+001
1.246608e+003, 4.902623e+001
1.247090e+003, 4.860367e+001
1.247572e+003, 4.821806e+001
1.248054e+003, 4.804838e+001
1.248536e+003, 4.809810e+001
1.249019e+003, 4.830096e+001
1.249501e+003, 4.863084e+001
1.249983e+003, 4.879661e+001
1.250465e+003, 4.838221e+001
1.250947e+003, 4.808160e+001
1.251429e+003, 4.842318e+001
1.251911e+003, 4.891545e+001
1.252393e+003, 4.909943e+001
1.252875e+003, 4.899125e+001
1.253358e+003, 4.893155e+001
1.253840e+003, 4.890247e+001
1.254322e+003, 4.879076e+001
1.254804e+003, 4.828536e+001
1.255286e+003, 4.802231e+001
1.255768e+003, 4.848083e+001
1.256250e+003, 4.899234e+001
1.256732e+003, 4.890840e+001
1.257214e+003, 4.836231e+001
1.257697e+003, 4.817118e+001
1.258179e+003, 4.828438e+001
1.258661e+003, 4.845018e+001
1.259143e+003, 4.859827e+001
1.259625e+003, 4.873051e+001
1.260107e+003, 4.886800e+001
1.260589e+003, 4.896413e+001
1.261071e+003, 4.892458e+001
1.261554e+003, 4.882310e+001
1.262036e+003, 4.890319e+001
1.262518e+003, 4.913165e+001
1.263000e+003, 4.939145e+001
1.263482e+003, 4.991125e+001
1.263964e+003, 4.997728e+001
1.264446e+003, 4.938301e+001
1.264928e+003, 4.869722e+001
1.265411e+003, 4.835877e+001
1.265893e+003, 4.827991e+001
1.266375e+003, 4.839145e+001
1.266857e+003, 4.861211e+001
1.267339e+003, 4.872922e+001
1.267821e+003, 4.865117e+001
1.268303e+003, 4.851383e+001
1.268785e+003, 4.829649e+001
1.269267e+003, 4.811314e+001
1.269750e+003, 4.814966e+001
1.270232e+003, 4.820161e+001
1.270714e+003, 4.781868e+001
1.271196e+003, 4.727322e+001
1.271678e+003, 4.727616e+001
1.272160e+003, 4.819356e+001
1.272642e+003, 4.858594e+001
1.273124e+003, 4.837620e+001
1.273606e+003, 4.799104e+001
1.274089e+003, 4.750760e+001
1.274571e+003, 4.720635e+001
1.275053e+003, 4.756578e+001
1.275535e+003, 4.819532e+001
1.276017e+003, 4.839974e+001
1.276499e+003, 4.809992e+001
1.276981e+003, 4.775814e+001
1.277463e+003, 4.738783e+001
1.277946e+003, 4.718975e+001
1.278428e+003, 4.739135e+001
1.278910e+003, 4.770426e+001
1.279392e+003, 4.812065e+001
1.279874e+003, 4.842969e+001
1.280356e+003, 4.829516e+001
1.280838e+003, 4.773748e+001
1.281320e+003, 4.766198e+001
1.281802e+003, 4.802411e+001
1.282285e+003, 4.831813e+001
1.282767e+003, 4.825437e+001
1.283249e+003, 4.808839e+001
1.283731e+003, 4.785308e+001
1.284213e+003, 4.761704e+001
1.284695e+003, 4.740730e+001
1.285177e+003, 4.724632e+001
1.285659e+003, 4.727789e+001
1.286141e+003, 4.746593e+001
1.286624e+003, 4.766095e+001
1.287106e+003, 4.781623e+001
1.287588e+003, 4.794083e+001
1.288070e+003, 4.801266e+001
1.288552e+003, 4.810374e+001
1.289034e+003, 4.836988e+001
1.289516e+003, 4.865281e+001
1.289998e+003, 4.845045e+001
1.290481e+003, 4.797742e+001
1.290963e+003, 4.778924e+001
1.291445e+003, 4.828933e+001
1.291927e+003, 4.868166e+001
1.292409e+003, 4.898558e+001
1.292891e+003, 4.909327e+001
1.293373e+003, 4.892031e+001
1.293855e+003, 4.851328e+001
1.294338e+003, 4.760571e+001
1.294820e+003, 4.660559e+001
1.295302e+003, 4.642149e+001
1.295784e+003, 4.744791e+001
1.296266e+003, 4.764524e+001
1.296748e+003, 4.695826e+001
1.297230e+003, 4.643481e+001
1.297712e+003, 4.693170e+001
1.298194e+003, 4.758566e+001
1.298677e+003, 4.778586e+001
1.299159e+003, 4.769293e+001
1.299641e+003, 4.745995e+001
1.300123e+003, 4.707383e+001
1.300605e+003, 4.716184e+001
1.301087e+003, 4.766124e+001
1.301569e+003, 4.801131e+001
1.302051e+003, 4.788258e+001
1.302533e+003, 4.760645e+001
1.303016e+003, 4.727232e+001
##END=



