##NAMES=Volborthite
##RRUFFID=R050216
##IDEAL CHEMISTRY=Cu^2+^_3_V^5+^_2_O_7_(OH)_2_&#183;2H_2_O
##LOCALITY=Monument Valley, White Canyon-Monument Valley District, Apache & Navajo Counties, Arizona, USA
##OWNER=RRUFF
##SOURCE=Marcus Origlieri
##DESCRIPTION=Green rosettelike aggregate of hexagonal scaly crystals
##STATUS=The identification of this mineral has been confirmed by X-ray diffraction and chemical analysis
##URL=rruff.info/R050216
##MEASURED CHEMISTRY=Cu_3.00_V_2.00_O_7_(OH)_2_Â·2H_2_O
92.35352, 31.14803
92.83563, 32.12489
93.31775, 32.45953
93.79987, 32.01274
94.28198, 30.90497
94.76410, 30.05742
95.24622, 29.64096
95.72833, 29.32014
96.21045, 28.72457
96.69257, 27.82045
97.17468, 26.84953
97.65680, 25.81606
98.13892, 24.80988
98.62103, 23.87619
99.10315, 22.98971
99.58527, 22.17399
100.0674, 21.64060
100.5495, 21.73365
101.0316, 21.68899
101.5137, 21.29877
101.9958, 20.70269
102.4780, 20.11902
102.9601, 19.70501
103.4422, 19.46474
103.9243, 19.21822
104.4064, 18.96876
104.8885, 18.70695
105.3707, 18.41546
105.8528, 18.09695
106.3349, 17.78135
106.8170, 17.50487
107.2991, 17.27490
107.7813, 16.99403
108.2634, 16.65488
108.7455, 16.26112
109.2276, 15.77705
109.7097, 15.15001
110.1918, 14.56384
110.6740, 14.25923
111.1561, 14.20176
111.6382, 14.17109
112.1203, 14.06461
112.6024, 13.88717
113.0845, 13.67244
113.5666, 13.35862
114.0488, 13.06819
114.5309, 12.90012
115.0130, 12.86215
115.4951, 12.86286
115.9772, 12.80107
116.4593, 12.67483
116.9415, 12.48281
117.4236, 12.17278
117.9057, 11.83793
118.3878, 11.51310
118.8699, 11.21675
119.3520, 10.98646
119.8342, 10.93299
120.3163, 11.38805
120.7984, 11.63598
121.2805, 11.55264
121.7626, 11.25037
122.2447, 10.83821
122.7269, 10.35800
123.2090, 9.845720
123.6911, 9.637896
124.1732, 9.938370
124.6553, 10.25412
125.1374, 10.43801
125.6196, 10.48730
126.1017, 10.42025
126.5838, 10.21504
127.0659, 9.888339
127.5480, 9.623569
128.0302, 9.443046
128.5123, 9.316637
128.9944, 9.234663
129.4765, 9.206445
129.9586, 9.168806
130.4407, 9.049127
130.9229, 8.881976
131.4050, 8.732300
131.8871, 8.619090
132.3692, 8.541891
132.8513, 8.509394
133.3334, 8.566031
133.8155, 8.606371
134.2977, 8.577579
134.7798, 8.490936
135.2619, 8.377555
135.7440, 8.245108
136.2261, 8.085512
136.7082, 7.982610
137.1904, 7.982049
137.6725, 8.003561
138.1546, 8.022268
138.6367, 8.034382
139.1188, 8.047271
139.6009, 8.073430
140.0831, 8.132669
140.5652, 8.153024
141.0473, 8.125527
141.5294, 8.073220
142.0115, 8.015562
142.4936, 7.956590
142.9758, 7.879507
143.4579, 7.747371
143.9400, 7.447136
144.4221, 7.298807
144.9042, 7.500279
145.3863, 7.812575
145.8685, 7.894331
146.3506, 7.590493
146.8327, 7.098987
147.3148, 6.862044
147.7969, 6.910580
148.2790, 7.033569
148.7612, 7.176518
149.2433, 7.334473
149.7254, 7.488256
150.2075, 7.627945
150.6896, 7.762398
151.1717, 7.925749
151.6539, 8.156958
152.1360, 8.323997
152.6181, 8.264942
153.1002, 7.955317
153.5823, 7.684480
154.0644, 7.580717
154.5466, 7.568983
155.0287, 7.616724
155.5108, 7.728859
155.9929, 7.855917
156.4750, 7.898005
156.9571, 7.793020
157.4393, 7.741699
157.9214, 7.845457
158.4035, 7.999961
158.8856, 8.093861
159.3677, 8.068229
159.8498, 7.963838
160.3320, 7.934634
160.8141, 8.094192
161.2962, 8.195691
161.7783, 8.172467
162.2604, 8.073772
162.7425, 7.952073
163.2247, 7.830766
163.7068, 7.721034
164.1889, 7.783590
164.6710, 8.293930
165.1531, 8.677720
165.6352, 8.696529
166.1174, 8.449727
166.5995, 8.185646
167.0816, 8.077753
167.5637, 8.130883
168.0458, 8.233370
168.5279, 8.478496
169.0101, 8.685854
169.4922, 8.754379
169.9743, 8.685306
170.4564, 8.534352
170.9385, 8.297351
171.4206, 7.999379
171.9028, 7.855134
172.3849, 7.965936
172.8670, 8.184349
173.3491, 8.408545
173.8312, 8.644100
174.3133, 8.794593
174.7955, 8.694495
175.2776, 8.438168
175.7597, 8.231253
176.2418, 8.189531
176.7239, 8.229218
177.2060, 8.167948
177.6882, 7.938255
178.1703, 7.738631
178.6524, 7.709499
179.1345, 7.798795
179.6166, 7.907533
180.0987, 7.998846
180.5809, 8.069253
181.0630, 8.094624
181.5451, 8.044107
182.0272, 7.981538
182.5093, 7.960935
182.9914, 7.954142
183.4736, 7.893366
183.9557, 7.697030
184.4378, 7.357119
184.9199, 7.127384
185.4020, 7.138988
185.8841, 7.153666
186.3663, 7.059420
186.8484, 6.894079
187.3305, 6.786662
187.8126, 6.879551
188.2947, 7.233553
188.7768, 7.420180
189.2590, 7.348912
189.7411, 7.215983
190.2232, 7.064456
190.7053, 6.921686
191.1874, 6.827652
191.6695, 6.830536
192.1517, 6.961440
192.6338, 7.072184
193.1159, 7.228009
193.5980, 7.320312
194.0801, 7.213969
194.5622, 6.920924
195.0444, 6.643147
195.5265, 6.627502
196.0086, 6.982482
196.4907, 7.167881
196.9728, 7.074249
197.4549, 6.873863
197.9371, 6.683183
198.4192, 6.521853
198.9013, 6.444579
199.3834, 6.568184
199.8655, 6.896770
200.3476, 7.128088
200.8298, 7.154493
201.3119, 7.076934
201.7940, 7.033514
202.2761, 7.052569
202.7582, 7.078215
203.2403, 7.034122
203.7225, 6.937225
204.2046, 6.865064
204.6867, 6.864476
205.1688, 6.906570
205.6509, 6.922692
206.1330, 6.896182
206.6152, 6.859456
207.0973, 6.825025
207.5794, 6.797710
208.0615, 6.800058
208.5436, 6.869628
209.0257, 6.987379
209.5079, 7.065063
209.9900, 7.107277
210.4721, 7.087334
210.9542, 6.910882
211.4363, 6.650422
211.9184, 6.510988
212.4006, 6.749692
212.8827, 7.338271
213.3648, 7.637343
213.8469, 7.350270
214.3290, 7.056225
214.8111, 6.983862
215.2933, 7.099139
215.7754, 7.278210
216.2575, 7.439139
216.7396, 7.583527
217.2217, 7.666972
217.7038, 7.673422
218.1859, 7.626747
218.6681, 7.462628
219.1502, 7.238165
219.6323, 7.084588
220.1144, 7.124199
220.5965, 7.374411
221.0786, 7.629124
221.5608, 7.948438
222.0429, 8.219570
222.5250, 8.408344
223.0071, 8.512942
223.4892, 8.535520
223.9713, 8.466471
224.4535, 8.287407
224.9356, 8.192561
225.4177, 8.216426
225.8998, 8.273549
226.3819, 8.332752
226.8640, 8.393154
227.3462, 8.467062
227.8283, 8.566153
228.3104, 8.692916
228.7925, 8.819742
229.2746, 8.942902
229.7567, 9.069277
230.2389, 9.226464
230.7210, 9.399150
231.2031, 9.524120
231.6852, 9.546724
232.1673, 9.463506
232.6494, 9.374324
233.1316, 9.248247
233.6137, 9.143291
234.0958, 9.083981
234.5779, 9.073381
235.0600, 9.122190
235.5421, 9.260599
236.0243, 9.473606
236.5064, 9.617496
236.9885, 9.670010
237.4706, 9.673313
237.9527, 9.623693
238.4348, 9.529604
238.9170, 9.474344
239.3991, 9.531387
239.8812, 9.668499
240.3633, 9.759391
240.8454, 9.835172
241.3275, 9.833791
241.8097, 9.661550
242.2918, 9.324101
242.7739, 9.007862
243.2560, 8.815173
243.7381, 8.712214
244.2202, 8.626802
244.7024, 8.556479
245.1845, 8.497176
245.6666, 8.449996
246.1487, 8.415567
246.6308, 8.374819
247.1129, 8.307322
247.5951, 8.235461
248.0772, 8.191341
248.5593, 8.189720
249.0414, 8.189604
249.5235, 8.153810
250.0056, 8.081803
250.4878, 7.980169
250.9699, 7.812157
251.4520, 7.638377
251.9341, 7.523114
252.4162, 7.482306
252.8983, 7.454044
253.3805, 7.349694
253.8626, 7.152635
254.3447, 7.029495
254.8268, 7.094675
255.3089, 7.206110
255.7910, 7.280500
256.2732, 7.304454
256.7553, 7.296113
257.2374, 7.256597
257.7195, 7.174969
258.2016, 7.141175
258.6837, 7.287596
259.1659, 7.400054
259.6480, 7.326631
260.1301, 7.071388
260.6122, 6.794354
261.0943, 6.656579
261.5764, 6.672098
262.0586, 6.735107
262.5407, 6.941138
263.0228, 7.114749
263.5049, 7.138628
263.9870, 7.037910
264.4691, 6.946533
264.9513, 7.026121
265.4334, 7.318633
265.9155, 7.454817
266.3976, 7.229409
266.8797, 7.019783
267.3618, 6.959931
267.8440, 7.034941
268.3261, 7.169416
268.8082, 7.317808
269.2903, 7.484155
269.7724, 7.555422
270.2545, 7.357298
270.7367, 7.227293
271.2188, 7.304978
271.7009, 7.527934
272.1830, 7.752047
272.6651, 7.873907
273.1472, 7.899133
273.6294, 7.927045
274.1115, 7.932159
274.5936, 7.967817
275.0757, 8.055913
275.5578, 8.181067
276.0399, 8.323472
276.5221, 8.473879
277.0042, 8.626126
277.4863, 8.741625
277.9684, 8.751768
278.4505, 8.798996
278.9326, 8.914241
279.4148, 9.073453
279.8969, 9.241456
280.3790, 9.401196
280.8611, 9.563607
281.3432, 9.764966
281.8253, 10.04396
282.3075, 10.32071
282.7896, 10.61979
283.2717, 10.90257
283.7538, 11.11889
284.2359, 11.25075
284.7180, 11.33445
285.2002, 11.44352
285.6823, 11.56474
286.1644, 11.73736
286.6465, 11.97986
287.1286, 12.26079
287.6107, 12.58332
288.0929, 12.93899
288.5750, 13.25987
289.0571, 13.43823
289.5392, 13.37272
290.0213, 13.38485
290.5034, 13.45623
290.9856, 13.61021
291.4677, 13.93610
291.9498, 14.40820
292.4319, 14.84124
292.9140, 15.00372
293.3961, 14.80314
293.8783, 14.72307
294.3604, 14.78974
294.8425, 14.93577
295.3246, 15.16651
295.8067, 15.45509
296.2888, 15.72357
296.7710, 15.90769
297.2531, 16.00369
297.7352, 16.04349
298.2173, 15.99183
298.6994, 15.93025
299.1815, 15.89628
299.6637, 15.88224
300.1458, 15.86088
300.6279, 15.81395
301.1100, 15.74417
301.5921, 15.67113
302.0742, 15.56079
302.5564, 15.48548
303.0385, 15.50492
303.5206, 15.56894
304.0027, 15.58965
304.4848, 15.52377
304.9669, 15.38833
305.4491, 15.22986
305.9312, 15.03261
306.4133, 14.83481
306.8954, 14.63861
307.3775, 14.44558
307.8596, 14.25654
308.3418, 14.07209
308.8239, 13.89477
309.3060, 13.73485
309.7881, 13.62412
310.2702, 13.45885
310.7523, 13.16310
311.2345, 12.85001
311.7166, 12.62543
312.1987, 12.51084
312.6808, 12.46630
313.1629, 12.46359
313.6451, 12.53492
314.1272, 12.48137
314.6093, 12.18511
315.0914, 11.86034
315.5735, 11.63926
316.0556, 11.53099
316.5378, 11.49238
317.0199, 11.50724
317.5020, 11.57623
317.9841, 11.52274
318.4662, 11.18457
318.9483, 10.90268
319.4305, 10.89717
319.9126, 11.08155
320.3947, 11.19567
320.8768, 11.07007
321.3589, 10.76540
321.8410, 10.60341
322.3232, 10.74570
322.8053, 10.81325
323.2874, 10.64399
323.7695, 10.35889
324.2516, 10.14290
324.7337, 10.07274
325.2159, 10.10860
325.6980, 10.17253
326.1801, 10.32057
326.6622, 10.39653
327.1443, 10.33741
327.6264, 10.22706
328.1086, 10.14198
328.5907, 10.10281
329.0728, 10.10280
329.5549, 10.14480
330.0370, 10.27021
330.5191, 10.28639
331.0013, 10.06925
331.4834, 9.842405
331.9655, 9.774683
332.4476, 9.862198
332.9297, 9.982928
333.4118, 10.03470
333.8940, 10.01370
334.3761, 9.986691
334.8582, 10.00649
335.3403, 9.969590
335.8224, 9.779565
336.3045, 9.498420
336.7867, 9.270433
337.2688, 9.186789
337.7509, 9.213874
338.2330, 9.193134
338.7151, 9.090986
339.1972, 8.984239
339.6793, 8.885143
340.1614, 8.786942
340.6436, 8.669919
341.1257, 8.526149
341.6078, 8.388429
342.0899, 8.322673
342.5720, 8.416168
343.0541, 8.430850
343.5363, 8.282637
344.0184, 8.114568
344.5005, 8.065508
344.9826, 8.142138
345.4647, 8.222873
345.9468, 8.166721
346.4290, 7.935852
346.9111, 7.743741
347.3932, 7.540348
347.8753, 7.413276
348.3574, 7.478331
348.8395, 7.663817
349.3217, 7.781842
349.8038, 7.688872
350.2859, 7.405694
350.7680, 7.166485
351.2501, 6.953674
351.7322, 6.805902
352.2144, 6.807059
352.6965, 6.855624
353.1786, 6.790523
353.6607, 6.539108
354.1428, 6.214689
354.6249, 6.095704
355.1071, 6.397274
355.5892, 6.560253
356.0713, 6.525651
356.5534, 6.384961
357.0355, 6.146733
357.5176, 5.844636
357.9998, 5.602800
358.4819, 5.612978
358.9640, 5.991739
359.4461, 6.133723
359.9282, 5.854731
360.4103, 5.525913
360.8925, 5.256415
361.3746, 5.065626
361.8567, 4.957562
362.3388, 4.945031
362.8209, 5.016320
363.3030, 5.066970
363.7852, 5.138686
364.2673, 5.127279
364.7494, 4.917519
365.2315, 4.648571
365.7136, 4.513236
366.1957, 4.599879
366.6779, 4.783345
367.1600, 4.779254
367.6421, 4.451837
368.1242, 4.282484
368.6063, 4.495259
369.0884, 4.769109
369.5706, 4.894639
370.0527, 4.841283
370.5348, 4.702233
371.0169, 4.546174
371.4990, 4.368912
371.9811, 4.249366
372.4633, 4.207668
372.9454, 4.211633
373.4275, 4.278642
373.9096, 4.378670
374.3917, 4.447796
374.8738, 4.450810
375.3560, 4.393768
375.8381, 4.265316
376.3202, 3.982999
376.8023, 3.825425
377.2844, 4.033744
377.7665, 4.363000
378.2487, 4.556203
378.7308, 4.536933
379.2129, 4.392902
379.6950, 4.165430
380.1771, 3.845057
380.6592, 3.681729
381.1414, 3.875874
381.6235, 4.124005
382.1056, 4.128895
382.5877, 3.898217
383.0698, 3.712607
383.5519, 3.808765
384.0341, 4.084926
384.5162, 4.205621
384.9983, 4.089045
385.4804, 3.954229
385.9625, 4.027779
386.4446, 4.207304
386.9268, 4.268435
387.4089, 4.059255
387.8910, 3.778175
388.3731, 3.639176
388.8552, 3.638564
389.3373, 3.673094
389.8195, 3.706720
390.3016, 3.740823
390.7837, 3.776066
391.2658, 3.808795
391.7479, 3.852665
392.2300, 3.971577
392.7122, 4.100913
393.1943, 4.070467
393.6764, 3.811883
394.1585, 3.501546
394.6406, 3.344181
395.1227, 3.341509
395.6049, 3.372318
396.0870, 3.446721
396.5691, 3.531129
397.0512, 3.599976
397.5333, 3.651766
398.0154, 3.688881
398.4976, 3.705891
398.9797, 3.711229
399.4618, 3.757680
399.9439, 3.965688
400.4260, 4.069849
400.9081, 3.887382
401.3903, 3.574776
401.8724, 3.393973
402.3545, 3.440747
402.8366, 3.595732
403.3187, 3.654864
403.8008, 3.535994
404.2830, 3.504815
404.7651, 3.641716
405.2472, 3.801187
405.7293, 3.883378
406.2114, 3.885543
406.6935, 3.858977
407.1757, 3.843627
407.6578, 3.839452
408.1399, 3.843620
408.6220, 3.894533
409.1041, 3.909966
409.5862, 3.835812
410.0684, 3.727776
410.5505, 3.668667
411.0326, 3.694095
411.5147, 3.751916
411.9968, 3.723583
412.4789, 3.517118
412.9611, 3.433659
413.4432, 3.629452
413.9253, 3.822886
414.4074, 3.790908
414.8895, 3.565520
415.3716, 3.378491
415.8538, 3.463317
416.3359, 3.798071
416.8180, 4.011130
417.3001, 4.064321
417.7822, 4.038159
418.2643, 3.883778
418.7465, 3.701511
419.2286, 3.641197
419.7107, 3.778297
420.1928, 3.994167
420.6749, 4.111598
421.1570, 4.119285
421.6392, 4.109432
422.1213, 4.079053
422.6034, 4.059801
423.0855, 4.087431
423.5676, 4.158885
424.0497, 4.219295
424.5319, 4.223834
425.0140, 4.191682
425.4961, 4.182542
425.9782, 4.211928
426.4603, 4.222891
426.9424, 4.118304
427.4246, 3.973057
427.9067, 3.953433
428.3888, 4.189054
428.8709, 4.430490
429.3530, 4.454482
429.8351, 4.302258
430.3173, 4.159202
430.7994, 4.084796
431.2815, 4.063101
431.7636, 4.074670
432.2457, 4.116399
432.7278, 4.185235
433.2100, 4.335052
433.6921, 4.480508
434.1742, 4.502828
434.6563, 4.401419
435.1384, 4.305823
435.6205, 4.325037
436.1027, 4.450699
436.5848, 4.535204
437.0669, 4.577623
437.5490, 4.588417
438.0311, 4.558601
438.5132, 4.502652
438.9954, 4.424336
439.4775, 4.326384
439.9596, 4.254338
440.4417, 4.301445
440.9238, 4.583260
441.4059, 4.710238
441.8881, 4.551921
442.3702, 4.375932
442.8523, 4.342178
443.3344, 4.433047
443.8165, 4.540527
444.2986, 4.584548
444.7808, 4.577060
445.2629, 4.592445
445.7450, 4.648423
446.2271, 4.701567
446.7092, 4.771452
447.1913, 4.820239
447.6735, 4.787606
448.1556, 4.663076
448.6377, 4.540490
449.1198, 4.569657
449.6019, 4.766553
450.0840, 4.817890
450.5662, 4.274978
451.0483, 4.641800
451.5304, 4.859661
452.0125, 4.936567
452.4946, 4.450339
452.9767, 4.691282
453.4589, 4.640812
453.9410, 4.578389
454.4231, 4.921677
454.9052, 4.517357
455.3873, 4.854210
455.8694, 4.895200
456.3516, 5.071606
456.8337, 4.954791
457.3158, 4.928539
457.7979, 5.195600
458.2800, 5.300250
458.7621, 5.149679
459.2443, 5.334692
459.7264, 4.920129
460.2085, 5.031697
460.6906, 5.370269
461.1727, 5.234441
461.6548, 5.424809
462.1370, 5.490950
462.6191, 5.273186
463.1012, 5.274987
463.5833, 5.257869
464.0654, 5.244930
464.5475, 5.226835
465.0297, 5.186143
465.5118, 5.107101
465.9939, 5.044774
466.4760, 4.998392
466.9581, 4.967896
467.4402, 4.970435
467.9224, 4.990812
468.4045, 4.988366
468.8866, 4.933093
469.3687, 4.837479
469.8508, 4.761394
470.3329, 4.737937
470.8151, 4.678792
471.2972, 4.545186
471.7793, 4.393263
472.2614, 4.258194
472.7435, 4.151228
473.2256, 4.079018
473.7078, 4.045280
474.1899, 4.050140
474.6720, 4.116655
475.1541, 4.318759
475.6362, 4.463716
476.1183, 4.417160
476.6005, 4.272276
477.0826, 4.172316
477.5647, 4.171788
478.0468, 4.207550
478.5289, 4.218879
479.0110, 4.206880
479.4932, 4.181212
479.9753, 4.141585
480.4574, 4.093414
480.9395, 4.030888
481.4216, 3.956420
481.9037, 3.916781
482.3859, 3.994709
482.8680, 4.063939
483.3501, 3.955872
483.8322, 3.699385
484.3143, 3.509691
484.7964, 3.514618
485.2786, 3.652564
485.7607, 3.737374
486.2428, 3.726923
486.7249, 3.742043
487.2070, 3.860090
487.6891, 3.971692
488.1713, 3.930037
488.6534, 3.745583
489.1355, 3.596722
489.6176, 3.665720
490.0997, 3.943700
490.5818, 4.042275
491.0640, 3.684193
491.5461, 3.460111
492.0282, 3.601129
492.5103, 3.862327
492.9924, 3.942579
493.4745, 3.759556
493.9567, 3.512245
494.4388, 3.494464
494.9209, 3.742110
495.4030, 3.798633
495.8851, 3.450141
496.3672, 3.151426
496.8494, 3.178236
497.3315, 3.403172
497.8136, 3.575984
498.2957, 3.592957
498.7778, 3.530220
499.2599, 3.470265
499.7421, 3.412988
500.2242, 3.358454
500.7063, 3.305503
501.1884, 3.256187
501.6705, 3.202775
502.1526, 3.144952
502.6348, 3.128294
503.1169, 3.197141
503.5990, 3.288975
504.0811, 3.343399
504.5632, 3.363044
505.0453, 3.388418
505.5274, 3.449290
506.0096, 3.517581
506.4917, 3.503362
506.9738, 3.258663
507.4559, 3.175732
507.9380, 3.455249
508.4201, 3.782105
508.9023, 3.902476
509.3844, 3.798499
509.8665, 3.572215
510.3486, 3.280829
510.8307, 2.949234
511.3128, 2.818116
511.7950, 3.090207
512.2771, 3.265589
512.7592, 3.203899
513.2413, 3.049424
513.7234, 2.915186
514.2056, 2.830242
514.6877, 2.793137
515.1698, 2.817688
515.6519, 2.896469
516.1340, 2.961353
516.6161, 2.998421
517.0983, 3.047254
517.5804, 3.183371
518.0625, 3.330609
518.5446, 3.362797
519.0267, 3.216096
519.5089, 3.046111
519.9910, 2.981781
520.4731, 2.982730
520.9552, 2.918252
521.4373, 2.744196
521.9194, 2.597237
522.4016, 2.653816
522.8837, 2.920461
523.3658, 2.983873
523.8479, 2.591263
524.3300, 2.264716
524.8121, 2.316797
525.2943, 2.581480
525.7764, 2.759664
526.2585, 2.742026
526.7406, 2.626874
527.2227, 2.552858
527.7048, 2.500391
528.1870, 2.563277
528.6691, 2.916488
529.1512, 3.198971
529.6333, 3.225890
530.1154, 3.090080
530.5975, 2.974059
531.0797, 2.968121
531.5618, 2.991683
532.0439, 2.877741
532.5260, 2.596075
533.0081, 2.419691
533.4902, 2.433710
533.9724, 2.522479
534.4545, 2.621736
534.9366, 2.723395
535.4187, 2.799515
535.9008, 2.842871
536.3829, 2.853466
536.8651, 2.814774
537.3472, 2.735099
537.8293, 2.672679
538.3114, 2.651372
538.7935, 2.652060
539.2756, 2.649605
539.7578, 2.647472
540.2399, 2.624696
540.7220, 2.523604
541.2041, 2.449356
541.6862, 2.493124
542.1683, 2.626057
542.6505, 2.765599
543.1326, 2.869529
543.6147, 2.937879
544.0968, 2.970496
544.5789, 2.966038
545.0610, 2.925929
545.5432, 2.782083
546.0253, 2.667693
546.5074, 2.683114
546.9895, 2.793577
547.4716, 2.895819
547.9537, 2.930911
548.4359, 2.914112
548.9180, 2.845729
549.4001, 2.701911
549.8822, 2.681876
550.3643, 2.952205
550.8464, 3.257948
551.3286, 3.318929
551.8107, 3.156093
552.2928, 3.036143
552.7749, 3.144464
553.2570, 3.287338
553.7391, 3.206063
554.2213, 2.939587
554.7034, 2.756922
555.1855, 2.795399
555.6676, 2.950452
556.1497, 3.013038
556.6318, 2.933366
557.1140, 2.871441
557.5961, 2.850171
558.0782, 2.829220
558.5603, 2.781974
559.0424, 2.712531
559.5245, 2.629740
560.0067, 2.534799
560.4888, 2.452404
560.9709, 2.460144
561.4530, 2.614368
561.9351, 2.699225
562.4172, 2.615000
562.8994, 2.518497
563.3815, 2.480117
563.8636, 2.497850
564.3457, 2.552396
564.8278, 2.666825
565.3099, 2.776422
565.7921, 2.749197
566.2742, 2.593746
566.7563, 2.512578
567.2384, 2.593421
567.7205, 2.733613
568.2026, 2.795583
568.6848, 2.781513
569.1669, 2.785983
569.6490, 2.837775
570.1311, 2.899099
570.6132, 2.968902
571.0953, 3.026942
571.5775, 3.018107
572.0596, 2.917303
572.5417, 2.781158
573.0238, 2.441776
573.5059, 2.780903
573.9880, 2.971071
574.4702, 3.020283
574.9523, 2.506362
575.4344, 2.719611
575.9165, 2.641443
576.3986, 2.551326
576.8807, 2.866920
577.3629, 2.434906
577.8450, 2.744066
578.3271, 2.757364
578.8092, 2.906070
579.2913, 2.761560
579.7734, 2.707616
580.2556, 2.946981
580.7377, 3.023939
581.2198, 2.845675
581.7019, 3.002989
582.1840, 2.560732
582.6661, 2.644607
583.1483, 2.955483
583.6304, 2.791963
584.1125, 2.954638
584.5946, 2.993079
585.0767, 2.466932
585.5588, 2.922661
586.0409, 2.953761
586.5230, 2.548859
587.0051, 2.970945
587.4872, 2.626151
587.9694, 2.555086
588.4515, 2.690020
588.9336, 2.610208
589.4157, 2.868968
589.8978, 2.801557
590.3799, 2.705004
590.8621, 2.735627
591.3442, 2.777963
591.8263, 2.851956
592.3084, 2.808505
592.7905, 2.721051
593.2726, 2.670714
593.7548, 2.668616
594.2369, 2.673276
594.7190, 2.641893
595.2011, 2.615909
595.6832, 2.683167
596.1653, 2.834441
596.6475, 2.934475
597.1296, 2.889421
597.6117, 2.757818
598.0938, 2.707255
598.5759, 2.809936
599.0580, 2.882224
599.5402, 2.945717
600.0223, 2.960162
600.5044, 2.857411
600.9865, 2.682482
601.4686, 2.552936
601.9507, 2.543016
602.4329, 2.597810
602.9150, 2.591332
603.3971, 2.507666
603.8792, 2.467167
604.3613, 2.506863
604.8434, 2.575865
605.3256, 2.641308
605.8077, 2.703807
606.2898, 2.768027
606.7719, 2.873920
607.2540, 2.937692
607.7361, 2.864243
608.2183, 2.698213
608.7004, 2.530444
609.1825, 2.382335
609.6646, 2.314814
610.1467, 2.414796
610.6288, 2.693409
611.1110, 2.874701
611.5931, 2.951047
612.0752, 2.948907
612.5573, 2.795792
613.0394, 2.609401
613.5215, 2.536159
614.0037, 2.590132
614.4858, 2.636397
614.9679, 2.498750
615.4500, 2.239119
615.9321, 2.259537
616.4142, 2.678368
616.8964, 2.974055
617.3785, 2.828850
617.8606, 2.536772
618.3427, 2.479440
618.8248, 2.686090
619.3069, 2.815134
619.7891, 2.665481
620.2712, 2.434648
620.7533, 2.313581
621.2354, 2.293521
621.7175, 2.283646
622.1996, 2.238414
622.6818, 2.206994
623.1639, 2.297110
623.6460, 2.605859
624.1281, 2.751065
624.6102, 2.581167
625.0923, 2.425601
625.5745, 2.436550
626.0566, 2.542333
626.5387, 2.622208
627.0208, 2.632652
627.5029, 2.604541
627.9850, 2.551792
628.4672, 2.484060
628.9493, 2.476253
629.4314, 2.550600
629.9135, 2.628414
630.3956, 2.647911
630.8777, 2.639331
631.3599, 2.700306
631.8420, 2.919727
632.3241, 3.010465
632.8062, 2.718461
633.2883, 2.363818
633.7704, 2.307977
634.2526, 2.527243
634.7347, 2.753036
635.2168, 2.814490
635.6989, 2.765037
636.1810, 2.759253
636.6631, 2.815343
637.1453, 2.868600
637.6274, 2.966079
638.1095, 3.010133
638.5916, 2.878486
639.0737, 2.660381
639.5558, 2.576695
640.0380, 2.759814
640.5201, 2.995193
641.0022, 3.078258
641.4843, 3.032723
641.9664, 2.912170
642.4485, 2.713300
642.9307, 2.563065
643.4128, 2.589639
643.8949, 2.767182
644.3770, 2.860345
644.8591, 2.806510
645.3412, 2.764318
645.8234, 2.787312
646.3055, 2.811982
646.7876, 2.746655
647.2697, 2.617232
647.7518, 2.556010
648.2339, 2.673597
648.7161, 2.892112
649.1982, 3.008095
649.6803, 3.009050
650.1624, 2.982622
650.6445, 2.934460
651.1266, 2.878765
651.6088, 2.816045
652.0909, 2.753356
652.5730, 2.723279
653.0551, 2.763410
653.5372, 2.803908
654.0193, 2.814525
654.5015, 2.793817
654.9836, 2.703075
655.4657, 2.548234
655.9478, 2.460961
656.4299, 2.581897
656.9120, 2.882182
657.3942, 3.074383
657.8763, 3.113519
658.3584, 3.113677
658.8405, 3.062747
659.3226, 3.006433
659.8047, 2.967658
660.2869, 2.953249
660.7690, 2.978477
661.2511, 3.088933
661.7332, 3.203033
662.2153, 3.215717
662.6974, 3.133904
663.1796, 2.962229
663.6617, 2.670203
664.1438, 2.440579
664.6259, 2.504296
665.1080, 2.866130
665.5901, 3.035673
666.0723, 2.851499
666.5544, 2.702466
667.0365, 2.715650
667.5186, 2.785863
668.0007, 2.801410
668.4828, 2.754047
668.9650, 2.710148
669.4471, 2.718813
669.9292, 2.770428
670.4113, 2.855483
670.8934, 2.984959
671.3755, 3.045117
671.8577, 2.955615
672.3398, 2.853283
672.8219, 2.911897
673.3040, 3.097399
673.7861, 3.213346
674.2682, 3.227604
674.7504, 3.169099
675.2325, 2.993287
675.7146, 2.777910
676.1967, 2.609819
676.6788, 2.518625
677.1609, 2.547783
677.6431, 2.765373
678.1252, 3.115787
678.6073, 3.269293
679.0894, 3.133159
679.5715, 3.025879
680.0536, 3.032490
680.5358, 3.072883
681.0179, 3.108691
681.5000, 3.133990
681.9821, 3.136116
682.4642, 3.101622
682.9464, 3.052871
683.4285, 2.997409
683.9106, 2.943045
684.3927, 2.910022
684.8748, 2.902251
685.3569, 2.899555
685.8391, 2.882300
686.3212, 2.854123
686.8033, 2.847649
687.2854, 2.891982
687.7675, 2.911093
688.2496, 2.848727
688.7318, 2.802198
689.2139, 2.853508
689.6960, 2.981754
690.1781, 3.109784
690.6602, 3.220605
691.1423, 3.278728
691.6245, 3.199762
692.1066, 3.025683
692.5887, 2.922859
693.0708, 2.927273
693.5529, 2.964321
694.0350, 2.974738
694.5172, 2.965327
694.9993, 2.979261
695.4814, 2.996338
695.9635, 3.065497
696.4456, 3.312687
696.9277, 3.508809
697.4099, 3.443944
697.8920, 3.186856
698.3741, 2.947214
698.8562, 2.820395
699.3383, 2.795667
699.8204, 2.915904
700.3026, 3.149947
700.7847, 3.248303
701.2668, 3.155317
701.7489, 3.020931
702.2310, 2.933367
702.7131, 2.889081
703.1953, 2.872490
703.6774, 2.858175
704.1595, 2.914918
704.6416, 3.134265
705.1237, 3.356285
705.6058, 3.458866
706.0880, 3.468346
706.5701, 3.471228
707.0522, 3.507838
707.5343, 3.543051
708.0164, 3.511293
708.4985, 3.419431
708.9807, 3.382739
709.4628, 3.432172
709.9449, 3.449169
710.4270, 3.305470
710.9091, 3.122801
711.3912, 3.182148
711.8734, 3.570311
712.3555, 3.849008
712.8376, 3.895204
713.3197, 3.843196
713.8018, 3.714118
714.2839, 3.572125
714.7661, 3.540776
715.2482, 3.660018
715.7303, 3.814249
716.2124, 3.850971
716.6945, 3.780132
717.1766, 3.773504
717.6588, 3.880971
718.1409, 3.874439
718.6230, 3.509593
719.1051, 3.113110
719.5872, 3.199003
720.0693, 3.785960
720.5515, 4.162063
721.0336, 4.006034
721.5157, 3.781123
721.9978, 3.747040
722.4799, 3.834438
722.9620, 3.912937
723.4442, 3.952486
723.9263, 4.022335
724.4084, 4.220246
724.8905, 4.491639
725.3726, 4.521476
725.8547, 4.231180
726.3369, 4.022602
726.8190, 4.027418
727.3011, 4.113024
727.7832, 4.142014
728.2653, 4.137124
728.7474, 4.212131
729.2296, 4.477509
729.7117, 4.718928
730.1938, 4.840523
730.6759, 4.885337
731.1580, 4.900672
731.6401, 4.894262
732.1223, 4.841812
732.6044, 4.714077
733.0865, 4.574283
733.5686, 4.601165
734.0507, 4.824173
734.5328, 5.004883
735.0150, 5.093879
735.4971, 5.172009
735.9792, 5.297610
736.4613, 5.448761
736.9434, 5.590502
737.4255, 5.739061
737.9077, 5.827225
738.3898, 5.782705
738.8719, 5.708500
739.3540, 5.690839
739.8361, 5.724586
740.3182, 5.786030
740.8004, 5.864121
741.2825, 5.913576
741.7646, 5.831991
742.2467, 5.617898
742.7288, 5.551031
743.2109, 5.681666
743.6931, 5.821597
744.1752, 5.680911
744.6573, 5.956286
745.1394, 6.082702
745.6215, 6.068162
746.1036, 5.490497
746.5858, 5.639977
747.0679, 5.498064
747.5500, 5.344193
748.0321, 5.596035
748.5142, 5.100267
748.9963, 5.345682
749.4785, 5.295209
749.9606, 5.380170
750.4427, 5.171906
750.9248, 5.054207
751.4069, 5.229818
751.8890, 5.243029
752.3712, 5.120714
752.8533, 5.406202
753.3354, 5.500159
753.8175, 5.428977
754.2996, 5.365323
754.7817, 5.358796
755.2639, 5.294595
755.7460, 5.029055
756.2281, 4.786059
756.7102, 4.820175
757.1923, 5.052958
757.6744, 5.202548
758.1566, 5.123663
758.6387, 4.954587
759.1208, 4.894459
759.6029, 4.927747
760.0850, 4.951829
760.5671, 4.970048
761.0493, 4.903121
761.5314, 4.659538
762.0135, 4.358103
762.4956, 4.235338
762.9777, 4.339583
763.4598, 4.458015
763.9420, 4.599385
764.4241, 4.739722
764.9062, 4.921962
765.3883, 5.069659
765.8704, 5.044967
766.3525, 4.848964
766.8347, 4.684274
767.3168, 4.755644
767.7989, 4.925872
768.2810, 4.892562
768.7631, 4.691924
769.2452, 4.635569
769.7274, 4.822926
770.2095, 5.036438
770.6916, 5.067530
771.1737, 4.940238
771.6558, 4.853803
772.1379, 4.779501
772.6201, 4.792834
773.1022, 4.992363
773.5843, 5.189192
774.0664, 5.263105
774.5485, 5.245517
775.0306, 5.219711
775.5128, 5.211997
775.9949, 5.213065
776.4770, 5.207724
776.9591, 5.209365
777.4412, 5.262234
777.9233, 5.355153
778.4055, 5.391843
778.8876, 5.322370
779.3697, 5.226950
779.8518, 5.234395
780.3339, 5.355984
780.8160, 5.480376
781.2982, 5.632188
781.7803, 5.744967
782.2624, 5.726564
782.7445, 5.714223
783.2266, 5.871445
783.7087, 6.176567
784.1909, 6.396753
784.6730, 6.361143
785.1551, 6.316142
785.6372, 6.478325
786.1193, 6.706171
786.6014, 6.723888
787.0836, 6.548253
787.5657, 6.497636
788.0478, 6.806823
788.5299, 7.312288
789.0120, 7.673966
789.4941, 7.896304
789.9763, 7.874635
790.4584, 7.453713
790.9405, 7.134677
791.4226, 7.234436
791.9047, 7.609700
792.3868, 7.974307
792.8690, 8.337262
793.3511, 8.655504
793.8332, 8.910740
794.3153, 9.134145
794.7974, 9.340464
795.2795, 9.528104
795.7617, 9.661883
796.2438, 9.752126
796.7259, 9.907228
797.2080, 10.23479
797.6901, 10.66772
798.1722, 11.09036
798.6544, 11.49898
799.1365, 11.85936
799.6186, 12.16389
800.1007, 12.41694
800.5828, 12.59020
801.0649, 12.72822
801.5471, 13.05428
802.0292, 13.72289
802.5113, 14.31930
802.9934, 14.88022
803.4755, 15.32295
803.9576, 15.50940
804.4398, 15.58272
804.9219, 15.78569
805.4040, 16.18494
805.8861, 16.58400
806.3682, 16.84604
806.8503, 17.05580
807.3325, 17.30696
807.8146, 17.59046
808.2967, 17.87402
808.7788, 18.14571
809.2609, 18.38713
809.7430, 18.56688
810.2252, 18.70643
810.7073, 18.97014
811.1894, 19.42236
811.6715, 19.73727
812.1536, 19.83984
812.6357, 19.80797
813.1179, 19.60834
813.6000, 19.32348
814.0821, 19.21659
814.5642, 19.42142
815.0463, 19.55595
815.5284, 19.48772
816.0106, 19.35885
816.4927, 19.23770
816.9748, 19.14253
817.4569, 19.14112
817.9390, 19.24125
818.4211, 19.21958
818.9033, 18.74338
819.3854, 18.02164
819.8675, 17.57701
820.3496, 17.38715
820.8317, 17.19090
821.3138, 16.91425
821.7960, 16.58372
822.2781, 16.21548
822.7602, 15.81738
823.2423, 15.45886
823.7244, 15.15399
824.2065, 14.86614
824.6887, 14.61494
825.1708, 14.35650
825.6529, 14.05227
826.1350, 13.72988
826.6171, 13.44789
827.0992, 13.22795
827.5814, 12.99688
828.0635, 12.68519
828.5456, 12.37505
829.0277, 12.13610
829.5098, 11.96157
829.9919, 11.85115
830.4741, 11.79327
830.9562, 11.70093
831.4383, 11.46251
831.9204, 11.14213
832.4025, 10.97515
832.8846, 10.97041
833.3668, 10.96508
833.8489, 10.92259
834.3310, 10.87958
834.8131, 10.84891
835.2952, 10.84486
835.7773, 10.92695
836.2595, 11.17317
836.7416, 11.36871
837.2237, 11.46071
837.7058, 11.55624
838.1879, 11.64988
838.6700, 11.80471
839.1522, 12.15545
839.6343, 12.71468
840.1164, 13.20682
840.5985, 13.40642
841.0806, 13.51082
841.5627, 13.71139
842.0449, 13.98374
842.5270, 14.29034
843.0091, 14.61081
843.4912, 14.87171
843.9733, 14.99960
844.4554, 15.08336
844.9376, 15.39159
845.4197, 15.95402
845.9018, 16.40243
846.3839, 16.68119
846.8660, 16.90620
847.3481, 17.12798
847.8303, 17.33692
848.3124, 17.51387
848.7945, 17.65329
849.2766, 17.78862
849.7587, 18.01947
850.2408, 18.12521
850.7230, 17.88543
851.2051, 17.58802
851.6872, 17.54249
852.1693, 17.73327
852.6514, 17.93522
853.1335, 18.08650
853.6157, 18.10583
854.0978, 17.85941
854.5799, 17.45037
855.0620, 17.02040
855.5441, 16.60889
856.0262, 16.32937
856.5084, 16.24507
856.9905, 16.15139
857.4726, 15.71280
857.9547, 14.93833
858.4368, 14.24869
858.9189, 13.63633
859.4011, 13.14689
859.8832, 12.82208
860.3653, 12.58463
860.8474, 12.38019
861.3295, 12.20341
861.8116, 12.00119
862.2938, 11.72512
862.7759, 11.49522
863.2580, 11.31484
863.7401, 11.19614
864.2222, 11.17314
864.7043, 11.20839
865.1865, 11.23642
865.6686, 11.23974
866.1507, 11.25570
866.6328, 11.37402
867.1149, 11.46818
867.5970, 11.28089
868.0792, 10.96408
868.5613, 10.91777
869.0434, 11.21435
869.5255, 11.62936
870.0076, 12.00104
870.4897, 12.31968
870.9719, 12.53597
871.4540, 12.64210
871.9361, 12.81972
872.4182, 13.08807
872.9003, 13.41944
873.3824, 13.80898
873.8646, 14.24425
874.3467, 14.73832
874.8288, 15.34022
875.3109, 15.71401
875.7930, 15.57266
876.2751, 15.59599
876.7573, 16.11344
877.2394, 16.71103
877.7215, 17.04164
878.2036, 17.13772
878.6857, 17.21994
879.1678, 17.37077
879.6500, 17.49091
880.1321, 17.47559
880.6142, 17.43082
881.0963, 17.48639
881.5784, 17.61614
882.0605, 17.75458
882.5427, 17.86958
883.0248, 17.89182
883.5069, 17.73452
883.9890, 17.44139
884.4711, 17.16110
884.9532, 16.88505
885.4354, 16.45534
885.9175, 15.82539
886.3996, 15.14958
886.8817, 14.53697
887.3638, 13.97683
887.8459, 13.44009
888.3281, 12.89205
888.8102, 12.47641
889.2923, 12.32791
889.7744, 12.12047
890.2565, 11.71750
890.7386, 11.21859
891.2208, 10.68926
891.7029, 10.14178
892.1850, 9.655897
892.6671, 9.314269
893.1492, 8.951720
893.6313, 8.487585
894.1135, 7.991875
894.5956, 7.463482
895.0777, 6.968244
895.5598, 6.664159
896.0419, 6.612768
896.5240, 6.592556
897.0062, 6.397355
897.4883, 6.110486
897.9704, 5.830905
898.4525, 5.579992
898.9346, 5.431509
899.4167, 5.398499
899.8989, 5.377109
900.3810, 5.281899
900.8631, 5.135232
901.3452, 4.984910
901.8273, 4.825356
902.3094, 4.745881
902.7916, 4.788073
903.2737, 4.777200
903.7558, 4.576695
904.2379, 4.350073
904.7200, 4.385447
905.2021, 4.734141
905.6843, 4.839494
906.1664, 4.516971
906.6485, 4.206912
907.1306, 3.860158
907.6127, 3.649182
908.0948, 3.827908
908.5770, 4.214253
909.0591, 4.350340
909.5412, 4.072152
910.0233, 3.817936
910.5054, 3.799342
910.9875, 3.858409
911.4697, 3.923858
911.9518, 3.958626
912.4339, 3.879515
912.9160, 3.701320
913.3981, 3.586959
913.8802, 3.676062
914.3624, 3.820172
914.8445, 3.778675
915.3265, 3.626690
915.8087, 3.604009
916.2908, 3.714274
916.7729, 3.746490
917.2550, 3.598560
917.7371, 3.404863
918.2192, 3.355470
918.7014, 3.435417
919.1835, 3.463611
919.6656, 3.425897
920.1477, 3.415638
920.6298, 3.467396
921.1119, 3.515368
921.5941, 3.507556
922.0762, 3.460542
922.5583, 3.425723
923.0404, 3.418078
923.5225, 3.384199
924.0046, 3.281776
924.4868, 3.206906
924.9689, 3.239575
925.4510, 3.276608
925.9331, 3.164979
926.4152, 2.941395
926.8973, 2.864480
927.3795, 3.137528
927.8616, 3.338751
928.3437, 3.207626
928.8258, 2.995287
929.3079, 2.898804
929.7900, 2.901738
930.2722, 2.959102
930.7543, 3.045765
931.2364, 3.065174
931.7185, 2.847542
932.2006, 2.609043
932.6827, 2.731210
933.1649, 3.047544
933.6470, 3.123444
934.1291, 2.926538
934.6112, 2.725006
935.0933, 2.670919
935.5754, 2.700395
936.0576, 2.688090
936.5397, 2.652369
937.0218, 2.854014
937.5039, 3.321298
937.9860, 3.519070
938.4681, 3.237953
938.9503, 2.892275
939.4324, 2.866766
939.9145, 3.062885
940.3966, 3.067799
940.8787, 2.737907
941.3608, 2.619822
941.8430, 2.879515
942.3251, 3.101441
942.8072, 3.091113
943.2893, 2.981207
943.7714, 2.934537
944.2535, 2.945773
944.7357, 2.910556
945.2178, 2.805234
945.6999, 2.674493
946.1820, 2.438080
946.6641, 2.267092
947.1462, 2.346781
947.6284, 2.544998
948.1105, 2.602458
948.5926, 2.465597
949.0747, 2.385242
949.5568, 2.561757
950.0389, 2.755824
950.5211, 2.840230
951.0032, 2.807006
951.4853, 2.566399
951.9674, 2.199065
952.4495, 1.955146
952.9316, 1.952958
953.4138, 2.092936
953.8959, 2.348296
954.3780, 2.632688
954.8601, 2.774133
955.3422, 2.794408
955.8243, 2.786618
956.3065, 2.774741
956.7886, 2.741393
957.2707, 2.667502
957.7528, 2.587893
958.2349, 2.591874
958.7170, 2.672908
959.1992, 2.702593
959.6813, 2.671520
960.1634, 2.625081
960.6455, 2.573441
961.1276, 2.539326
961.6097, 2.552613
962.0919, 2.604183
962.5740, 2.624634
963.0561, 2.580508
963.5382, 2.621247
964.0203, 2.875653
964.5024, 2.999359
964.9846, 2.691456
965.4667, 2.263204
965.9488, 2.207966
966.4309, 2.561443
966.9130, 2.743447
967.3951, 2.646981
967.8773, 2.529477
968.3594, 2.373372
968.8415, 2.261737
969.3236, 2.276056
969.8057, 2.358698
970.2878, 2.402864
970.7700, 2.389352
971.2521, 2.381896
971.7342, 2.455256
972.2163, 2.474665
972.6984, 2.280282
973.1805, 2.065859
973.6627, 2.058850
974.1448, 2.211441
974.6269, 2.330939
975.1090, 2.346334
975.5911, 2.334170
976.0732, 2.315784
976.5554, 2.327137
977.0375, 2.458187
977.5196, 2.628465
978.0017, 2.668533
978.4838, 2.575174
978.9659, 2.494618
979.4481, 2.518440
979.9302, 2.543241
980.4123, 2.378475
980.8944, 2.133013
981.3765, 2.091378
981.8586, 2.226842
982.3408, 2.386261
982.8229, 2.520177
983.3050, 2.568852
983.7871, 2.469472
984.2692, 2.301923
984.7513, 2.257765
985.2335, 2.327763
985.7156, 2.396642
986.1977, 2.463152
986.6798, 2.405062
987.1619, 2.148367
987.6440, 1.916682
988.1262, 1.961213
988.6083, 2.213950
989.0904, 2.343176
989.5725, 2.323438
990.0546, 2.287901
990.5367, 2.233296
991.0189, 2.191863
991.5010, 2.164713
991.9831, 2.178433
992.4652, 2.297914
992.9473, 2.513612
993.4294, 2.573410
993.9116, 2.404759
994.3937, 2.207605
994.8758, 1.851290
995.3579, 1.643336
995.8400, 1.857703
996.3221, 2.232704
996.8043, 2.423172
997.2864, 2.418539
997.7685, 2.353723
998.2506, 2.161345
998.7327, 2.021235
999.2148, 1.953807
999.6970, 1.965998
1000.179, 2.104816
1000.661, 2.308271
1001.143, 2.496354
1001.625, 2.656065
1002.108, 2.731494
1002.590, 2.667012
1003.072, 2.560861
1003.554, 2.418074
1004.036, 2.287322
1004.518, 2.203032
1005.000, 2.168208
1005.482, 2.203679
1005.964, 2.314018
1006.447, 2.363267
1006.929, 2.171997
1007.411, 1.996853
1007.893, 2.109956
1008.375, 2.314947
1008.857, 2.315343
1009.339, 2.161122
1009.821, 2.110841
1010.304, 2.262377
1010.786, 2.432553
1011.268, 2.513621
1011.750, 2.485277
1012.232, 2.194095
1012.714, 1.822415
1013.196, 1.791025
1013.678, 2.077502
1014.160, 2.313001
1014.643, 2.320685
1015.125, 2.242421
1015.607, 2.250326
1016.089, 2.286766
1016.571, 2.181998
1017.053, 1.993665
1017.535, 1.955681
1018.017, 2.085450
1018.500, 2.166593
1018.982, 2.072978
1019.464, 1.932553
1019.946, 1.940663
1020.428, 2.058923
1020.910, 2.113773
1021.392, 2.112977
1021.874, 2.137388
1022.356, 2.202964
1022.839, 2.260298
1023.321, 2.276749
1023.803, 2.275584
1024.285, 2.289483
1024.767, 2.320680
1025.249, 2.428316
1025.731, 2.623068
1026.213, 2.696578
1026.696, 2.590798
1027.178, 2.449456
1027.660, 2.365757
1028.142, 2.312698
1028.624, 2.225479
1029.106, 2.098857
1029.588, 2.080263
1030.070, 2.193275
1030.552, 2.313170
1031.035, 2.429772
1031.517, 2.492568
1031.999, 2.450650
1032.481, 2.352971
1032.963, 2.310735
1033.445, 2.335569
1033.927, 2.312222
1034.409, 2.205390
1034.891, 2.141352
1035.374, 2.144962
1035.856, 2.207070
1036.338, 2.368048
1036.820, 2.548913
1037.302, 2.556123
1037.784, 2.345219
1038.266, 2.212929
1038.748, 2.213044
1039.231, 2.192430
1039.713, 2.088014
1040.195, 1.997744
1040.677, 1.993317
1041.159, 2.046602
1041.641, 2.101711
1042.123, 2.161855
1042.605, 2.208476
1043.088, 2.288260
1043.570, 2.287886
1044.052, 2.075525
1044.534, 1.892612
1045.016, 1.902721
1045.498, 2.042531
1045.980, 2.211037
1046.462, 2.426435
1046.944, 2.529719
1047.427, 2.382864
1047.909, 2.301361
1048.391, 2.472378
1048.873, 2.606522
1049.355, 2.425695
1049.837, 2.110198
1050.319, 2.014766
1050.801, 2.189696
1051.283, 2.326607
1051.766, 2.382583
1052.248, 2.388842
1052.730, 2.313143
1053.212, 2.231165
1053.694, 2.213323
1054.176, 2.215063
1054.658, 2.115754
1055.140, 1.899812
1055.623, 1.847084
1056.105, 2.233114
1056.587, 2.497888
1057.069, 2.395303
1057.551, 2.193238
1058.033, 2.000698
1058.515, 1.871713
1058.997, 1.908390
1059.479, 2.110372
1059.962, 2.243932
1060.444, 2.204807
1060.926, 2.136511
1061.408, 2.027138
1061.890, 1.966284
1062.372, 2.066503
1062.854, 2.230315
1063.336, 2.320872
1063.818, 2.320166
1064.301, 2.268894
1064.783, 2.126356
1065.265, 2.027779
1065.747, 2.054523
1066.229, 2.111189
1066.711, 2.116461
1067.193, 2.116830
1067.675, 2.234200
1068.158, 2.438037
1068.640, 2.475552
1069.122, 2.167355
1069.604, 1.892877
1070.086, 1.789125
1070.568, 1.800498
1071.050, 2.020721
1071.532, 2.250287
1072.015, 2.183271
1072.497, 1.867630
1072.979, 1.645374
1073.461, 1.626502
1073.943, 1.716252
1074.425, 1.971195
1074.907, 2.209473
1075.389, 2.315491
1075.871, 2.331995
1076.354, 2.289486
1076.836, 2.212979
1077.318, 2.154347
1077.800, 2.134845
1078.282, 2.103623
1078.764, 2.038437
1079.246, 1.953333
1079.728, 1.797183
1080.210, 1.671492
1080.693, 1.733702
1081.175, 1.910511
1081.657, 1.987140
1082.139, 1.902798
1082.621, 1.791759
1083.103, 1.630978
1083.585, 1.562311
1084.067, 1.721444
1084.549, 1.958803
1085.032, 2.185633
1085.514, 2.357470
1085.996, 2.412357
1086.478, 2.338844
1086.960, 2.210012
1087.442, 1.960037
1087.924, 1.788574
1088.406, 1.834500
1088.889, 1.956559
1089.371, 2.108713
1089.853, 2.221723
1090.335, 2.166910
1090.817, 1.947232
1091.299, 1.774270
1091.781, 1.684338
1092.263, 1.721112
1092.745, 2.080821
1093.228, 2.385612
1093.710, 2.306185
1094.192, 2.049306
1094.674, 1.870425
1095.156, 1.805330
1095.638, 1.825156
1096.120, 1.960970
1096.602, 2.079548
1097.084, 2.125885
1097.567, 2.150829
1098.049, 2.191103
1098.531, 2.218383
1099.013, 2.187025
1099.495, 2.114733
1099.977, 2.072206
1100.459, 2.088914
1100.941, 2.070497
1101.424, 1.932141
1101.906, 1.828447
1102.388, 1.861135
1102.870, 1.921017
1103.352, 1.895735
1103.834, 1.830218
1104.316, 1.839364
1104.798, 1.945330
1105.281, 2.047083
1105.763, 2.155861
1106.245, 2.212661
1106.727, 2.184819
1107.209, 2.116900
1107.691, 2.023320
1108.173, 1.915743
1108.655, 1.792431
1109.137, 1.656733
1109.620, 1.585054
1110.102, 1.533377
1110.584, 1.629184
1111.066, 2.152973
1111.548, 2.514041
1112.030, 2.316052
1112.512, 1.917087
1112.994, 1.671368
1113.476, 1.579063
1113.959, 1.568438
1114.441, 1.664903
1114.923, 1.783315
1115.405, 1.995148
1115.887, 2.130311
1116.369, 2.105263
1116.851, 2.026556
1117.333, 1.953466
1117.816, 1.896667
1118.298, 1.896162
1118.780, 1.979599
1119.262, 1.981033
1119.744, 1.843287
1120.226, 1.734975
1120.708, 1.703878
1121.190, 1.673957
1121.672, 1.578293
1122.155, 1.482865
1122.637, 1.506043
1123.119, 1.644508
1123.601, 1.716608
1124.083, 1.694072
1124.565, 1.695205
1125.047, 1.750942
1125.529, 1.771290
1126.011, 1.702290
1126.494, 1.614622
1126.976, 1.572027
1127.458, 1.583675
1127.940, 1.726212
1128.422, 2.055496
1128.904, 2.107874
1129.386, 1.802950
1129.868, 1.638163
1130.351, 1.779683
1130.833, 1.964077
1131.315, 1.990408
1131.797, 1.947151
1132.279, 2.040195
1132.761, 2.250392
1133.243, 2.226571
1133.725, 1.966062
1134.208, 1.827706
1134.690, 1.872670
1135.172, 2.001686
1135.654, 2.172558
1136.136, 2.298422
1136.618, 2.253478
1137.100, 2.105737
1137.582, 2.083789
1138.064, 2.157607
1138.547, 2.164549
1139.029, 2.093028
1139.511, 1.938056
1139.993, 1.711566
1140.475, 1.608836
1140.957, 1.815260
1141.439, 2.089349
1141.921, 1.997689
1142.403, 1.700771
1142.886, 1.577667
1143.368, 1.590338
1143.850, 1.573400
1144.332, 1.512298
1144.814, 1.527935
1145.296, 1.681286
1145.778, 1.827284
1146.260, 1.779276
1146.743, 1.681200
1147.225, 1.736291
1147.707, 1.859497
1148.189, 1.918742
1148.671, 1.921267
1149.153, 1.933183
1149.635, 1.969625
1150.117, 1.988692
1150.599, 1.968086
1151.082, 1.917138
1151.564, 1.781570
1152.046, 1.678388
1152.528, 1.768389
1153.010, 1.932822
1153.492, 1.998180
1153.974, 1.957546
1154.456, 1.891346
1154.938, 1.819398
1155.421, 1.748904
1155.903, 1.619447
1156.385, 1.573317
1156.867, 1.778422
1157.349, 2.003856
1157.831, 2.034855
1158.313, 1.948935
1158.795, 1.934090
1159.278, 2.011888
1159.760, 1.993073
1160.242, 1.714604
1160.724, 1.543207
1161.206, 1.633688
1161.688, 1.717961
1162.170, 1.634519
1162.652, 1.524052
1163.135, 1.531414
1163.617, 1.634030
1164.099, 1.756392
1164.581, 1.959662
1165.063, 1.948427
1165.545, 1.553124
1166.027, 1.347405
1166.509, 1.537012
1166.991, 1.751022
1167.474, 1.742407
1167.956, 1.660189
1168.438, 1.770985
1168.920, 2.040856
1169.402, 2.068564
1169.884, 1.819838
1170.366, 1.636742
1170.848, 1.543705
1171.330, 1.597263
1171.813, 1.830937
1172.295, 2.084671
1172.777, 2.224876
1173.259, 2.261621
1173.741, 2.198033
1174.223, 2.050765
1174.705, 1.882385
1175.187, 1.704167
1175.670, 1.566327
1176.152, 1.477347
1176.634, 1.412200
1177.116, 1.359616
1177.598, 1.386946
1178.080, 1.616432
1178.562, 1.890741
1179.044, 1.952276
1179.526, 1.896913
1180.009, 1.873994
1180.491, 1.892757
1180.973, 1.954956
1181.455, 2.042831
1181.937, 2.075339
1182.419, 2.003967
1182.901, 1.901854
1183.383, 1.777061
1183.865, 1.692576
1184.348, 1.738544
1184.830, 1.822791
1185.312, 1.826255
1185.794, 1.782274
1186.276, 1.803976
1186.758, 1.912524
1187.240, 1.977453
1187.722, 1.929631
1188.205, 1.877711
1188.687, 1.804051
1189.169, 1.787381
1189.651, 1.992335
1190.133, 2.180972
1190.615, 1.989908
1191.097, 1.545732
1191.579, 1.431729
1192.062, 1.765256
1192.544, 2.001363
1193.026, 2.149072
1193.508, 2.168631
1193.990, 1.993631
1194.472, 1.816494
1194.954, 1.731167
1195.436, 1.725741
1195.918, 1.804072
1196.401, 1.936999
1196.883, 1.952320
1197.365, 1.844550
1197.847, 1.752155
1198.329, 1.681612
1198.811, 1.693007
1199.293, 1.803384
1199.775, 1.878638
1200.257, 1.825182
1200.740, 1.725108
1201.222, 1.708023
1201.704, 1.731509
1202.186, 1.664469
1202.668, 1.552278
1203.150, 1.531398
1203.632, 1.590916
1204.114, 1.628453
1204.597, 1.619129
1205.079, 1.640031
1205.561, 1.763834
1206.043, 1.859633
1206.525, 1.698760
1207.007, 1.567863
1207.489, 1.897521
1207.971, 2.329040
1208.453, 2.312029
1208.936, 1.969609
1209.418, 1.788069
1209.900, 1.884909
1210.382, 1.912522
1210.864, 1.628112
1211.346, 1.450968
1211.828, 1.547331
1212.310, 1.719286
1212.792, 1.941800
1213.275, 2.121785
1213.757, 2.132587
1214.239, 2.020180
1214.721, 1.943803
1215.203, 1.910457
1215.685, 1.877944
1216.167, 1.833345
1216.649, 1.836471
1217.132, 1.924193
1217.614, 1.967522
1218.096, 1.888927
1218.578, 1.784873
1219.060, 1.774831
1219.542, 1.816999
1220.024, 1.753942
1220.506, 1.605219
1220.989, 1.563153
1221.471, 1.619714
1221.953, 1.650049
1222.435, 1.632072
1222.917, 1.621639
1223.399, 1.647768
1223.881, 1.699950
1224.363, 1.786164
1224.845, 1.867059
1225.328, 1.896482
1225.810, 1.880538
1226.292, 1.808627
1226.774, 1.707458
1227.256, 1.599594
1227.738, 1.510190
1228.220, 1.529374
1228.702, 1.721426
1229.184, 1.847532
1229.667, 1.688687
1230.149, 1.589130
1230.631, 1.792369
1231.113, 2.025703
1231.595, 2.103966
1232.077, 2.067379
1232.559, 1.968640
1233.041, 1.817194
1233.524, 1.683994
1234.006, 1.565941
1234.488, 1.474970
1234.970, 1.415830
1235.452, 1.363523
1235.934, 1.290327
1236.416, 1.300009
1236.898, 1.476816
1237.380, 1.698665
1237.863, 1.783324
1238.345, 1.768605
1238.827, 1.837767
1239.309, 1.959979
1239.791, 1.844921
1240.273, 1.533125
1240.755, 1.408867
1241.237, 1.544308
1241.719, 1.737937
1242.202, 1.881705
1242.684, 1.967689
1243.166, 1.968880
1243.648, 1.928305
1244.130, 1.920971
1244.612, 1.879766
1245.094, 1.603987
1245.576, 1.285844
1246.059, 1.355549
1246.541, 1.770376
1247.023, 2.005125
1247.505, 1.860665
1247.987, 1.715122
1248.469, 1.590123
1248.951, 1.597769
1249.433, 1.956221
1249.916, 2.251888
1250.398, 2.157344
1250.880, 1.930056
1251.362, 1.894181
1251.844, 2.009061
1252.326, 2.049541
1252.808, 2.008595
1253.290, 1.913408
1253.772, 1.746733
1254.255, 1.671218
1254.737, 1.725138
1255.219, 1.782812
1255.701, 1.777401
1256.183, 1.788450
1256.665, 1.929036
1257.147, 2.089228
1257.629, 2.015050
1258.111, 1.817870
1258.594, 1.693504
1259.076, 1.669808
1259.558, 1.837585
1260.040, 2.135686
1260.522, 2.321568
1261.004, 2.308906
1261.486, 2.232194
1261.968, 2.147709
1262.451, 2.047087
1262.933, 1.876859
1263.415, 1.745859
1263.897, 1.787646
1264.379, 1.857745
1264.861, 1.762752
1265.343, 1.561552
1265.825, 1.463306
1266.307, 1.476209
1266.790, 1.551131
1267.272, 1.756120
1267.754, 1.793332
1268.236, 1.568070
1268.718, 1.442799
1269.200, 1.560482
1269.682, 1.755222
1270.164, 1.895378
1270.646, 1.993311
1271.129, 2.071171
1271.611, 2.125290
1272.093, 2.180249
1272.575, 2.191794
1273.057, 1.927908
1273.539, 1.505805
1274.021, 1.399165
1274.503, 1.673393
1274.986, 1.890799
1275.468, 1.817119
1275.950, 1.679881
1276.432, 1.580491
1276.914, 1.518879
1277.396, 1.474444
1277.878, 1.488668
1278.360, 1.644197
1278.843, 1.854543
1279.325, 2.004273
1279.807, 2.080903
1280.289, 2.067050
1280.771, 1.948631
1281.253, 1.763178
1281.735, 1.417897
1282.217, 1.353141
1282.699, 1.715605
1283.182, 2.039530
1283.664, 2.097827
1284.146, 2.031508
1284.628, 1.972777
1285.110, 1.944524
1285.592, 1.987702
1286.074, 2.102792
##END=



