##NAMES=Wadeite
##RRUFFID=R060036
##IDEAL CHEMISTRY=K_2_Zr^4+^Si_3_O_9_
##LOCALITY=Walgidee, Western Australia, Austrailia
##OWNER=RRUFF
##SOURCE=University of Arizona Mineral Museum
##DESCRIPTION=Tan colored water worn prismatic crystals, associated with fluorapatite
##STATUS=The identification of this mineral is confirmed by single-crystal X-ray diffraction and chemical analysis.
##URL=rruff.info/R060036
##MEASURED CHEMISTRY=K_2.00_Zr_1.00_(Si_2.95_Ti_0.05_)_Î£=3_O_9_
8.936163e+001, 0.000000e+000
8.984375e+001, 7.999082e+001
9.032587e+001, 8.059342e+001
9.080798e+001, 8.072487e+001
9.129010e+001, 8.024980e+001
9.177222e+001, 7.945884e+001
9.225433e+001, 7.865756e+001
9.273645e+001, 7.784283e+001
9.321857e+001, 7.701413e+001
9.370068e+001, 7.622872e+001
9.418280e+001, 7.544638e+001
9.466492e+001, 7.453254e+001
9.514703e+001, 7.329581e+001
9.562915e+001, 7.192623e+001
9.611127e+001, 7.095217e+001
9.659338e+001, 7.041544e+001
9.707550e+001, 7.009940e+001
9.755762e+001, 6.978907e+001
9.803973e+001, 6.948362e+001
9.852185e+001, 6.914812e+001
9.900397e+001, 6.882499e+001
9.948608e+001, 6.851747e+001
9.996820e+001, 6.792697e+001
1.004503e+002, 6.698882e+001
1.009324e+002, 6.583142e+001
1.014146e+002, 6.465332e+001
1.018967e+002, 6.336707e+001
1.023788e+002, 6.228035e+001
1.028609e+002, 6.159053e+001
1.033430e+002, 6.143922e+001
1.038251e+002, 6.126030e+001
1.043073e+002, 6.106041e+001
1.047894e+002, 6.081152e+001
1.052715e+002, 6.035346e+001
1.057536e+002, 5.956769e+001
1.062357e+002, 5.869926e+001
1.067178e+002, 5.788522e+001
1.072000e+002, 5.697787e+001
1.076821e+002, 5.635937e+001
1.081642e+002, 5.627608e+001
1.086463e+002, 5.680322e+001
1.091284e+002, 5.681786e+001
1.096105e+002, 5.590543e+001
1.100927e+002, 5.465771e+001
1.105748e+002, 5.363513e+001
1.110569e+002, 5.291539e+001
1.115390e+002, 5.235619e+001
1.120211e+002, 5.200427e+001
1.125032e+002, 5.196497e+001
1.129854e+002, 5.173654e+001
1.134675e+002, 5.102422e+001
1.139496e+002, 5.012686e+001
1.144317e+002, 4.946753e+001
1.149138e+002, 4.941148e+001
1.153959e+002, 4.942342e+001
1.158781e+002, 4.924974e+001
1.163602e+002, 4.875897e+001
1.168423e+002, 4.827147e+001
1.173244e+002, 4.792903e+001
1.178065e+002, 4.767625e+001
1.182886e+002, 4.737209e+001
1.187708e+002, 4.698599e+001
1.192529e+002, 4.650965e+001
1.197350e+002, 4.592363e+001
1.202171e+002, 4.508424e+001
1.206992e+002, 4.429797e+001
1.211813e+002, 4.379937e+001
1.216635e+002, 4.354946e+001
1.221456e+002, 4.334895e+001
1.226277e+002, 4.308565e+001
1.231098e+002, 4.279492e+001
1.235919e+002, 4.252663e+001
1.240740e+002, 4.242918e+001
1.245562e+002, 4.228135e+001
1.250383e+002, 4.173882e+001
1.255204e+002, 4.080235e+001
1.260025e+002, 3.993613e+001
1.264846e+002, 3.963797e+001
1.269667e+002, 3.973485e+001
1.274489e+002, 3.979421e+001
1.279310e+002, 3.961343e+001
1.284131e+002, 3.927155e+001
1.288952e+002, 3.891480e+001
1.293773e+002, 3.854543e+001
1.298594e+002, 3.816256e+001
1.303416e+002, 3.767706e+001
1.308237e+002, 3.712540e+001
1.313058e+002, 3.674070e+001
1.317879e+002, 3.679983e+001
1.322700e+002, 3.718486e+001
1.327521e+002, 3.730177e+001
1.332343e+002, 3.706262e+001
1.337164e+002, 3.661402e+001
1.341985e+002, 3.616410e+001
1.346806e+002, 3.570618e+001
1.351627e+002, 3.533427e+001
1.356448e+002, 3.517327e+001
1.361270e+002, 3.522699e+001
1.366091e+002, 3.515461e+001
1.370912e+002, 3.486294e+001
1.375733e+002, 3.444298e+001
1.380554e+002, 3.423198e+001
1.385375e+002, 3.431460e+001
1.390197e+002, 3.435725e+001
1.395018e+002, 3.401625e+001
1.399839e+002, 3.315354e+001
1.404660e+002, 3.253924e+001
1.409481e+002, 3.238023e+001
1.414302e+002, 3.263327e+001
1.419124e+002, 3.271910e+001
1.423945e+002, 3.262003e+001
1.428766e+002, 3.238030e+001
1.433587e+002, 3.200776e+001
1.438408e+002, 3.138867e+001
1.443229e+002, 3.087792e+001
1.448051e+002, 3.057694e+001
1.452872e+002, 3.051300e+001
1.457693e+002, 3.043487e+001
1.462514e+002, 3.036036e+001
1.467335e+002, 3.026005e+001
1.472156e+002, 3.008826e+001
1.476978e+002, 2.976621e+001
1.481799e+002, 2.947306e+001
1.486620e+002, 2.927208e+001
1.491441e+002, 2.924279e+001
1.496262e+002, 2.909142e+001
1.501083e+002, 2.871311e+001
1.505905e+002, 2.823211e+001
1.510726e+002, 2.786443e+001
1.515547e+002, 2.766362e+001
1.520368e+002, 2.753256e+001
1.525189e+002, 2.744964e+001
1.530010e+002, 2.746489e+001
1.534832e+002, 2.744053e+001
1.539653e+002, 2.737090e+001
1.544474e+002, 2.725601e+001
1.549295e+002, 2.709584e+001
1.554116e+002, 2.684252e+001
1.558937e+002, 2.657837e+001
1.563759e+002, 2.634442e+001
1.568580e+002, 2.618744e+001
1.573401e+002, 2.600524e+001
1.578222e+002, 2.571932e+001
1.583043e+002, 2.537571e+001
1.587864e+002, 2.514410e+001
1.592686e+002, 2.513319e+001
1.597507e+002, 2.521213e+001
1.602328e+002, 2.529859e+001
1.607149e+002, 2.544541e+001
1.611970e+002, 2.552448e+001
1.616791e+002, 2.549744e+001
1.621613e+002, 2.536789e+001
1.626434e+002, 2.515520e+001
1.631255e+002, 2.469913e+001
1.636076e+002, 2.423568e+001
1.640897e+002, 2.397512e+001
1.645718e+002, 2.425191e+001
1.650540e+002, 2.452688e+001
1.655361e+002, 2.443773e+001
1.660182e+002, 2.400169e+001
1.665003e+002, 2.369817e+001
1.669824e+002, 2.396716e+001
1.674645e+002, 2.446762e+001
1.679467e+002, 2.477506e+001
1.684288e+002, 2.433930e+001
1.689109e+002, 2.392199e+001
1.693930e+002, 2.414700e+001
1.698751e+002, 2.505892e+001
1.703572e+002, 2.606259e+001
1.708394e+002, 2.676497e+001
1.713215e+002, 2.729072e+001
1.718036e+002, 2.783995e+001
1.722857e+002, 2.849893e+001
1.727678e+002, 2.922992e+001
1.732499e+002, 2.989587e+001
1.737321e+002, 3.044813e+001
1.742142e+002, 3.130267e+001
1.746963e+002, 3.290475e+001
1.751784e+002, 3.510022e+001
1.756605e+002, 3.753462e+001
1.761426e+002, 3.987971e+001
1.766248e+002, 4.238432e+001
1.771069e+002, 4.539252e+001
1.775890e+002, 4.897742e+001
1.780711e+002, 5.295171e+001
1.785532e+002, 5.709890e+001
1.790353e+002, 6.148923e+001
1.795175e+002, 6.620882e+001
1.799996e+002, 7.140057e+001
1.804817e+002, 7.696201e+001
1.809638e+002, 8.284721e+001
1.814459e+002, 8.912804e+001
1.819280e+002, 9.556160e+001
1.824102e+002, 1.020474e+002
1.828923e+002, 1.084642e+002
1.833744e+002, 1.148261e+002
1.838565e+002, 1.207924e+002
1.843386e+002, 1.266455e+002
1.848207e+002, 1.330836e+002
1.853029e+002, 1.404310e+002
1.857850e+002, 1.480891e+002
1.862671e+002, 1.552179e+002
1.867492e+002, 1.618071e+002
1.872313e+002, 1.683011e+002
1.877134e+002, 1.749893e+002
1.881956e+002, 1.818800e+002
1.886777e+002, 1.887327e+002
1.891598e+002, 1.956853e+002
1.896419e+002, 2.024849e+002
1.901240e+002, 2.085987e+002
1.906061e+002, 2.140889e+002
1.910883e+002, 2.191808e+002
1.915704e+002, 2.241960e+002
1.920525e+002, 2.291287e+002
1.925346e+002, 2.334462e+002
1.930167e+002, 2.369557e+002
1.934988e+002, 2.396961e+002
1.939810e+002, 2.414477e+002
1.944631e+002, 2.420372e+002
1.949452e+002, 2.422066e+002
1.954273e+002, 2.414555e+002
1.959094e+002, 2.398122e+002
1.963915e+002, 2.381006e+002
1.968737e+002, 2.365021e+002
1.973558e+002, 2.349553e+002
1.978379e+002, 2.332182e+002
1.983200e+002, 2.313144e+002
1.988021e+002, 2.291958e+002
1.992842e+002, 2.268528e+002
1.997664e+002, 2.242859e+002
2.002485e+002, 2.214979e+002
2.007306e+002, 2.183795e+002
2.012127e+002, 2.150322e+002
2.016948e+002, 2.119668e+002
2.021769e+002, 2.092424e+002
2.026591e+002, 2.065989e+002
2.031412e+002, 2.038455e+002
2.036233e+002, 2.009694e+002
2.041054e+002, 1.979771e+002
2.045875e+002, 1.947629e+002
2.050696e+002, 1.913866e+002
2.055518e+002, 1.885135e+002
2.060339e+002, 1.862930e+002
2.065160e+002, 1.842122e+002
2.069981e+002, 1.816581e+002
2.074802e+002, 1.785104e+002
2.079623e+002, 1.755453e+002
2.084445e+002, 1.729363e+002
2.089266e+002, 1.706620e+002
2.094087e+002, 1.686312e+002
2.098908e+002, 1.669152e+002
2.103729e+002, 1.652764e+002
2.108550e+002, 1.634632e+002
2.113372e+002, 1.614827e+002
2.118193e+002, 1.593549e+002
2.123014e+002, 1.569750e+002
2.127835e+002, 1.543599e+002
2.132656e+002, 1.521457e+002
2.137477e+002, 1.503872e+002
2.142299e+002, 1.489328e+002
2.147120e+002, 1.476822e+002
2.151941e+002, 1.467299e+002
2.156762e+002, 1.456699e+002
2.161583e+002, 1.443078e+002
2.166404e+002, 1.426212e+002
2.171226e+002, 1.412850e+002
2.176047e+002, 1.404360e+002
2.180868e+002, 1.397688e+002
2.185689e+002, 1.388649e+002
2.190510e+002, 1.375439e+002
2.195331e+002, 1.364043e+002
2.200153e+002, 1.356115e+002
2.204974e+002, 1.351952e+002
2.209795e+002, 1.347807e+002
2.214616e+002, 1.343768e+002
2.219437e+002, 1.339667e+002
2.224258e+002, 1.335256e+002
2.229080e+002, 1.330681e+002
2.233901e+002, 1.325556e+002
2.238722e+002, 1.319637e+002
2.243543e+002, 1.312660e+002
2.248364e+002, 1.306525e+002
2.253185e+002, 1.300973e+002
2.258007e+002, 1.296511e+002
2.262828e+002, 1.294037e+002
2.267649e+002, 1.294895e+002
2.272470e+002, 1.295057e+002
2.277291e+002, 1.293615e+002
2.282112e+002, 1.290549e+002
2.286934e+002, 1.285563e+002
2.291755e+002, 1.277457e+002
2.296576e+002, 1.268461e+002
2.301397e+002, 1.261883e+002
2.306218e+002, 1.259543e+002
2.311039e+002, 1.256065e+002
2.315861e+002, 1.249335e+002
2.320682e+002, 1.238256e+002
2.325503e+002, 1.231346e+002
2.330324e+002, 1.230603e+002
2.335145e+002, 1.232379e+002
2.339966e+002, 1.231972e+002
2.344788e+002, 1.227965e+002
2.349609e+002, 1.224387e+002
2.354430e+002, 1.222510e+002
2.359251e+002, 1.222711e+002
2.364072e+002, 1.222007e+002
2.368893e+002, 1.220303e+002
2.373715e+002, 1.217760e+002
2.378536e+002, 1.214313e+002
2.383357e+002, 1.208507e+002
2.388178e+002, 1.204280e+002
2.392999e+002, 1.203262e+002
2.397820e+002, 1.206159e+002
2.402642e+002, 1.206678e+002
2.407463e+002, 1.203624e+002
2.412284e+002, 1.199151e+002
2.417105e+002, 1.196030e+002
2.421926e+002, 1.195564e+002
2.426747e+002, 1.193995e+002
2.431569e+002, 1.189872e+002
2.436390e+002, 1.182621e+002
2.441211e+002, 1.177440e+002
2.446032e+002, 1.174943e+002
2.450853e+002, 1.173904e+002
2.455674e+002, 1.173079e+002
2.460496e+002, 1.172998e+002
2.465317e+002, 1.172159e+002
2.470138e+002, 1.170029e+002
2.474959e+002, 1.166463e+002
2.479780e+002, 1.163351e+002
2.484601e+002, 1.160813e+002
2.489423e+002, 1.158625e+002
2.494244e+002, 1.156683e+002
2.499065e+002, 1.155583e+002
2.503886e+002, 1.153529e+002
2.508707e+002, 1.149343e+002
2.513528e+002, 1.142831e+002
2.518350e+002, 1.139776e+002
2.523171e+002, 1.141879e+002
2.527992e+002, 1.145604e+002
2.532813e+002, 1.147342e+002
2.537634e+002, 1.146305e+002
2.542455e+002, 1.144942e+002
2.547277e+002, 1.143869e+002
2.552098e+002, 1.143085e+002
2.556919e+002, 1.140842e+002
2.561740e+002, 1.135732e+002
2.566561e+002, 1.130873e+002
2.571382e+002, 1.129971e+002
2.576204e+002, 1.135804e+002
2.581025e+002, 1.138632e+002
2.585846e+002, 1.135379e+002
2.590667e+002, 1.126460e+002
2.595488e+002, 1.121211e+002
2.600309e+002, 1.120575e+002
2.605131e+002, 1.122370e+002
2.609952e+002, 1.125471e+002
2.614773e+002, 1.131537e+002
2.619594e+002, 1.134129e+002
2.624415e+002, 1.130734e+002
2.629236e+002, 1.122228e+002
2.634058e+002, 1.118021e+002
2.638879e+002, 1.119210e+002
2.643700e+002, 1.122780e+002
2.648521e+002, 1.127098e+002
2.653342e+002, 1.133157e+002
2.658163e+002, 1.136360e+002
2.662985e+002, 1.135225e+002
2.667806e+002, 1.130593e+002
2.672627e+002, 1.127263e+002
2.677448e+002, 1.125674e+002
2.682269e+002, 1.124491e+002
2.687090e+002, 1.122235e+002
2.691912e+002, 1.118004e+002
2.696733e+002, 1.116626e+002
2.701554e+002, 1.119426e+002
2.706375e+002, 1.125311e+002
2.711196e+002, 1.129912e+002
2.716017e+002, 1.133025e+002
2.720839e+002, 1.135384e+002
2.725660e+002, 1.137365e+002
2.730481e+002, 1.138970e+002
2.735302e+002, 1.140254e+002
2.740123e+002, 1.141233e+002
2.744944e+002, 1.141913e+002
2.749766e+002, 1.142152e+002
2.754587e+002, 1.141772e+002
2.759408e+002, 1.141681e+002
2.764229e+002, 1.142531e+002
2.769050e+002, 1.144401e+002
2.773871e+002, 1.146126e+002
2.778693e+002, 1.147232e+002
2.783514e+002, 1.148607e+002
2.788335e+002, 1.153032e+002
2.793156e+002, 1.161247e+002
2.797977e+002, 1.168379e+002
2.802798e+002, 1.171547e+002
2.807620e+002, 1.170711e+002
2.812441e+002, 1.169218e+002
2.817262e+002, 1.167379e+002
2.822083e+002, 1.164649e+002
2.826904e+002, 1.159298e+002
2.831725e+002, 1.151076e+002
2.836547e+002, 1.143701e+002
2.841368e+002, 1.139690e+002
2.846189e+002, 1.138702e+002
2.851010e+002, 1.135894e+002
2.855831e+002, 1.130652e+002
2.860652e+002, 1.125015e+002
2.865474e+002, 1.122594e+002
2.870295e+002, 1.123310e+002
2.875116e+002, 1.123193e+002
2.879937e+002, 1.119137e+002
2.884758e+002, 1.112243e+002
2.889579e+002, 1.109719e+002
2.894401e+002, 1.112091e+002
2.899222e+002, 1.115883e+002
2.904043e+002, 1.117104e+002
2.908864e+002, 1.115963e+002
2.913685e+002, 1.114045e+002
2.918506e+002, 1.111246e+002
2.923328e+002, 1.108197e+002
2.928149e+002, 1.107243e+002
2.932970e+002, 1.108519e+002
2.937791e+002, 1.110089e+002
2.942612e+002, 1.109728e+002
2.947433e+002, 1.107889e+002
2.952255e+002, 1.106302e+002
2.957076e+002, 1.105216e+002
2.961897e+002, 1.104927e+002
2.966718e+002, 1.106904e+002
2.971539e+002, 1.111062e+002
2.976360e+002, 1.114412e+002
2.981182e+002, 1.112781e+002
2.986003e+002, 1.108294e+002
2.990824e+002, 1.106488e+002
2.995645e+002, 1.110188e+002
3.000466e+002, 1.115812e+002
3.005287e+002, 1.118373e+002
3.010109e+002, 1.118138e+002
3.014930e+002, 1.117023e+002
3.019751e+002, 1.115927e+002
3.024572e+002, 1.114968e+002
3.029393e+002, 1.114352e+002
3.034214e+002, 1.114085e+002
3.039036e+002, 1.114249e+002
3.043857e+002, 1.115183e+002
3.048678e+002, 1.116705e+002
3.053499e+002, 1.118158e+002
3.058320e+002, 1.120176e+002
3.063141e+002, 1.121500e+002
3.067963e+002, 1.119842e+002
3.072784e+002, 1.113561e+002
3.077605e+002, 1.107993e+002
3.082426e+002, 1.108277e+002
3.087247e+002, 1.112744e+002
3.092068e+002, 1.117407e+002
3.096890e+002, 1.120697e+002
3.101711e+002, 1.122999e+002
3.106532e+002, 1.124820e+002
3.111353e+002, 1.126402e+002
3.116174e+002, 1.126403e+002
3.120995e+002, 1.121341e+002
3.125817e+002, 1.114474e+002
3.130638e+002, 1.110985e+002
3.135459e+002, 1.116937e+002
3.140280e+002, 1.123940e+002
3.145101e+002, 1.126606e+002
3.149922e+002, 1.124370e+002
3.154744e+002, 1.121509e+002
3.159565e+002, 1.118623e+002
3.164386e+002, 1.116716e+002
3.169207e+002, 1.116948e+002
3.174028e+002, 1.121805e+002
3.178849e+002, 1.126941e+002
3.183671e+002, 1.131199e+002
3.188492e+002, 1.134526e+002
3.193313e+002, 1.135930e+002
3.198134e+002, 1.132516e+002
3.202955e+002, 1.128375e+002
3.207776e+002, 1.126792e+002
3.212598e+002, 1.129377e+002
3.217419e+002, 1.133567e+002
3.222240e+002, 1.139740e+002
3.227061e+002, 1.147398e+002
3.231882e+002, 1.154032e+002
3.236703e+002, 1.157940e+002
3.241525e+002, 1.161532e+002
3.246346e+002, 1.166032e+002
3.251167e+002, 1.171005e+002
3.255988e+002, 1.177695e+002
3.260809e+002, 1.187023e+002
3.265630e+002, 1.198229e+002
3.270452e+002, 1.209269e+002
3.275273e+002, 1.220343e+002
3.280094e+002, 1.230847e+002
3.284915e+002, 1.240365e+002
3.289736e+002, 1.247555e+002
3.294557e+002, 1.256596e+002
3.299379e+002, 1.269621e+002
3.304200e+002, 1.283866e+002
3.309021e+002, 1.294601e+002
3.313842e+002, 1.299115e+002
3.318663e+002, 1.303734e+002
3.323484e+002, 1.309405e+002
3.328306e+002, 1.315434e+002
3.333127e+002, 1.326437e+002
3.337948e+002, 1.344634e+002
3.342769e+002, 1.365873e+002
3.347590e+002, 1.384931e+002
3.352411e+002, 1.399500e+002
3.357233e+002, 1.417251e+002
3.362054e+002, 1.438791e+002
3.366875e+002, 1.464493e+002
3.371696e+002, 1.496997e+002
3.376517e+002, 1.536276e+002
3.381339e+002, 1.582260e+002
3.386160e+002, 1.635040e+002
3.390981e+002, 1.695787e+002
3.395802e+002, 1.759265e+002
3.400623e+002, 1.824721e+002
3.405444e+002, 1.892419e+002
3.410266e+002, 1.959863e+002
3.415087e+002, 2.028268e+002
3.419908e+002, 2.094871e+002
3.424729e+002, 2.170040e+002
3.429550e+002, 2.252873e+002
3.434371e+002, 2.290773e+002
3.439193e+002, 2.277411e+002
3.444014e+002, 2.220732e+002
3.448835e+002, 2.122296e+002
3.453656e+002, 1.982450e+002
3.458477e+002, 1.843561e+002
3.463298e+002, 1.721037e+002
3.468120e+002, 1.615161e+002
3.472941e+002, 1.534621e+002
3.477762e+002, 1.480435e+002
3.482583e+002, 1.443047e+002
3.487404e+002, 1.414109e+002
3.492225e+002, 1.392883e+002
3.497047e+002, 1.376221e+002
3.501868e+002, 1.363119e+002
3.506689e+002, 1.353760e+002
3.511510e+002, 1.349197e+002
3.516331e+002, 1.349394e+002
3.521152e+002, 1.351399e+002
3.525974e+002, 1.352874e+002
3.530795e+002, 1.354391e+002
3.535616e+002, 1.357048e+002
3.540437e+002, 1.361320e+002
3.545258e+002, 1.366590e+002
3.550079e+002, 1.371716e+002
3.554901e+002, 1.377103e+002
3.559722e+002, 1.384599e+002
3.564543e+002, 1.396696e+002
3.569364e+002, 1.410838e+002
3.574185e+002, 1.424579e+002
3.579006e+002, 1.437352e+002
3.583828e+002, 1.449987e+002
3.588649e+002, 1.461994e+002
3.593470e+002, 1.474353e+002
3.598291e+002, 1.489121e+002
3.603112e+002, 1.505651e+002
3.607933e+002, 1.526003e+002
3.612755e+002, 1.552925e+002
3.617576e+002, 1.587607e+002
3.622397e+002, 1.621619e+002
3.627218e+002, 1.649824e+002
3.632039e+002, 1.676339e+002
3.636860e+002, 1.705766e+002
3.641682e+002, 1.737842e+002
3.646503e+002, 1.774716e+002
3.651324e+002, 1.817838e+002
3.656145e+002, 1.867258e+002
3.660966e+002, 1.916616e+002
3.665787e+002, 1.966657e+002
3.670609e+002, 2.015202e+002
3.675430e+002, 2.060854e+002
3.680251e+002, 2.100642e+002
3.685072e+002, 2.141307e+002
3.689893e+002, 2.188442e+002
3.694714e+002, 2.237402e+002
3.699536e+002, 2.271375e+002
3.704357e+002, 2.288853e+002
3.709178e+002, 2.292924e+002
3.713999e+002, 2.284069e+002
3.718820e+002, 2.259563e+002
3.723641e+002, 2.228677e+002
3.728463e+002, 2.189579e+002
3.733284e+002, 2.145658e+002
3.738105e+002, 2.100779e+002
3.742926e+002, 2.052366e+002
3.747747e+002, 2.008470e+002
3.752568e+002, 1.970650e+002
3.757390e+002, 1.938774e+002
3.762211e+002, 1.913680e+002
3.767032e+002, 1.895212e+002
3.771853e+002, 1.883294e+002
3.776674e+002, 1.878846e+002
3.781495e+002, 1.882664e+002
3.786317e+002, 1.887134e+002
3.791138e+002, 1.891877e+002
3.795959e+002, 1.895694e+002
3.800780e+002, 1.896199e+002
3.805601e+002, 1.893701e+002
3.810422e+002, 1.884255e+002
3.815244e+002, 1.864046e+002
3.820065e+002, 1.834029e+002
3.824886e+002, 1.799596e+002
3.829707e+002, 1.760008e+002
3.834528e+002, 1.719103e+002
3.839349e+002, 1.681497e+002
3.844171e+002, 1.646776e+002
3.848992e+002, 1.613008e+002
3.853813e+002, 1.578196e+002
3.858634e+002, 1.543549e+002
3.863455e+002, 1.509913e+002
3.868276e+002, 1.477413e+002
3.873098e+002, 1.447323e+002
3.877919e+002, 1.419592e+002
3.882740e+002, 1.394830e+002
3.887561e+002, 1.374339e+002
3.892382e+002, 1.359716e+002
3.897203e+002, 1.348029e+002
3.902025e+002, 1.337850e+002
3.906846e+002, 1.328981e+002
3.911667e+002, 1.320261e+002
3.916488e+002, 1.310934e+002
3.921309e+002, 1.301629e+002
3.926130e+002, 1.292784e+002
3.930952e+002, 1.284480e+002
3.935773e+002, 1.276926e+002
3.940594e+002, 1.269864e+002
3.945415e+002, 1.263733e+002
3.950236e+002, 1.259342e+002
3.955057e+002, 1.259676e+002
3.959879e+002, 1.259426e+002
3.964700e+002, 1.255918e+002
3.969521e+002, 1.248323e+002
3.974342e+002, 1.241819e+002
3.979163e+002, 1.237832e+002
3.983984e+002, 1.234996e+002
3.988806e+002, 1.232064e+002
3.993627e+002, 1.227845e+002
3.998448e+002, 1.224815e+002
4.003269e+002, 1.223660e+002
4.008090e+002, 1.224123e+002
4.012911e+002, 1.224398e+002
4.017733e+002, 1.225060e+002
4.022554e+002, 1.224858e+002
4.027375e+002, 1.222729e+002
4.032196e+002, 1.216772e+002
4.037017e+002, 1.213977e+002
4.041838e+002, 1.216009e+002
4.046660e+002, 1.220037e+002
4.051481e+002, 1.220250e+002
4.056302e+002, 1.215548e+002
4.061123e+002, 1.211076e+002
4.065944e+002, 1.208273e+002
4.070765e+002, 1.207165e+002
4.075587e+002, 1.208764e+002
4.080408e+002, 1.213567e+002
4.085229e+002, 1.219166e+002
4.090050e+002, 1.223017e+002
4.094871e+002, 1.225215e+002
4.099692e+002, 1.227691e+002
4.104514e+002, 1.231383e+002
4.109335e+002, 1.235015e+002
4.114156e+002, 1.235001e+002
4.118977e+002, 1.231691e+002
4.123798e+002, 1.229212e+002
4.128619e+002, 1.230931e+002
4.133441e+002, 1.235317e+002
4.138262e+002, 1.239212e+002
4.143083e+002, 1.242043e+002
4.147904e+002, 1.245621e+002
4.152725e+002, 1.253456e+002
4.157546e+002, 1.263332e+002
4.162368e+002, 1.270844e+002
4.167189e+002, 1.271175e+002
4.172010e+002, 1.270285e+002
4.176831e+002, 1.272959e+002
4.181652e+002, 1.279120e+002
4.186473e+002, 1.286185e+002
4.191295e+002, 1.293860e+002
4.196116e+002, 1.301202e+002
4.200937e+002, 1.307092e+002
4.205758e+002, 1.309411e+002
4.210579e+002, 1.313036e+002
4.215400e+002, 1.317106e+002
4.220222e+002, 1.323553e+002
4.225043e+002, 1.337264e+002
4.229864e+002, 1.373818e+002
4.234685e+002, 1.405098e+002
4.239506e+002, 1.417677e+002
4.244327e+002, 1.402284e+002
4.249149e+002, 1.396825e+002
4.253970e+002, 1.407169e+002
4.258791e+002, 1.425414e+002
4.263612e+002, 1.443902e+002
4.268433e+002, 1.459613e+002
4.273254e+002, 1.480384e+002
4.278076e+002, 1.508928e+002
4.282897e+002, 1.544173e+002
4.287718e+002, 1.576615e+002
4.292539e+002, 1.604500e+002
4.297360e+002, 1.632263e+002
4.302181e+002, 1.663713e+002
4.307003e+002, 1.700494e+002
4.311824e+002, 1.729770e+002
4.316645e+002, 1.750435e+002
4.321466e+002, 1.764367e+002
4.326287e+002, 1.776299e+002
4.331108e+002, 1.786345e+002
4.335930e+002, 1.784795e+002
4.340751e+002, 1.765660e+002
4.345572e+002, 1.732427e+002
4.350393e+002, 1.694906e+002
4.355214e+002, 1.653201e+002
4.360035e+002, 1.610146e+002
4.364857e+002, 1.566883e+002
4.369678e+002, 1.524797e+002
4.374499e+002, 1.485900e+002
4.379320e+002, 1.450072e+002
4.384141e+002, 1.418780e+002
4.388962e+002, 1.394951e+002
4.393784e+002, 1.377202e+002
4.398605e+002, 1.361503e+002
4.403426e+002, 1.344778e+002
4.408247e+002, 1.329761e+002
4.413068e+002, 1.319227e+002
4.417889e+002, 1.313812e+002
4.422711e+002, 1.308921e+002
4.427532e+002, 1.301249e+002
4.432353e+002, 1.293322e+002
4.437174e+002, 1.287762e+002
4.441995e+002, 1.289263e+002
4.446816e+002, 1.289050e+002
4.451638e+002, 1.282229e+002
4.456459e+002, 1.270844e+002
4.461280e+002, 1.264025e+002
4.466101e+002, 1.268550e+002
4.470922e+002, 1.273409e+002
4.475743e+002, 1.273316e+002
4.480565e+002, 1.264818e+002
4.485386e+002, 1.260074e+002
4.490207e+002, 1.261239e+002
4.495028e+002, 1.264836e+002
4.499849e+002, 1.266431e+002
4.504670e+002, 1.265465e+002
4.509492e+002, 1.263718e+002
4.514313e+002, 1.261148e+002
4.519134e+002, 1.258031e+002
4.523955e+002, 1.256432e+002
4.528776e+002, 1.256535e+002
4.533597e+002, 1.257656e+002
4.538419e+002, 1.260129e+002
4.543240e+002, 1.263860e+002
4.548061e+002, 1.265094e+002
4.552882e+002, 1.262934e+002
4.557703e+002, 1.259709e+002
4.562524e+002, 1.258577e+002
4.567346e+002, 1.259452e+002
4.572167e+002, 1.261860e+002
4.576988e+002, 1.266991e+002
4.581809e+002, 1.272906e+002
4.586630e+002, 1.276454e+002
4.591451e+002, 1.277646e+002
4.596273e+002, 1.277341e+002
4.601094e+002, 1.274142e+002
4.605915e+002, 1.270531e+002
4.610736e+002, 1.270059e+002
4.615557e+002, 1.274710e+002
4.620378e+002, 1.279938e+002
4.625200e+002, 1.282589e+002
4.630021e+002, 1.283752e+002
4.634842e+002, 1.285478e+002
4.639663e+002, 1.289187e+002
4.644484e+002, 1.293145e+002
4.649305e+002, 1.296770e+002
4.654127e+002, 1.300070e+002
4.658948e+002, 1.302313e+002
4.663769e+002, 1.300701e+002
4.668590e+002, 1.299558e+002
4.673411e+002, 1.301999e+002
4.678232e+002, 1.309089e+002
4.683054e+002, 1.318810e+002
4.687875e+002, 1.332647e+002
4.692696e+002, 1.348678e+002
4.697517e+002, 1.362032e+002
4.702338e+002, 1.370901e+002
4.707159e+002, 1.380176e+002
4.711981e+002, 1.390845e+002
4.716802e+002, 1.402779e+002
4.721623e+002, 1.420189e+002
4.726444e+002, 1.444086e+002
4.731265e+002, 1.470063e+002
4.736086e+002, 1.492050e+002
4.740908e+002, 1.510190e+002
4.745729e+002, 1.533723e+002
4.750550e+002, 1.564975e+002
4.755371e+002, 1.601366e+002
4.760192e+002, 1.639410e+002
4.765013e+002, 1.678973e+002
4.769835e+002, 1.717579e+002
4.774656e+002, 1.753088e+002
4.779477e+002, 1.787394e+002
4.784298e+002, 1.823257e+002
4.789119e+002, 1.860782e+002
4.793940e+002, 1.900150e+002
4.798762e+002, 1.940945e+002
4.803583e+002, 1.983908e+002
4.808404e+002, 2.029909e+002
4.813225e+002, 2.078380e+002
4.818046e+002, 2.131554e+002
4.822867e+002, 2.189315e+002
4.827689e+002, 2.252592e+002
4.832510e+002, 2.323756e+002
4.837331e+002, 2.403745e+002
4.842152e+002, 2.492057e+002
4.846973e+002, 2.586865e+002
4.851794e+002, 2.686871e+002
4.856616e+002, 2.801782e+002
4.861437e+002, 2.942489e+002
4.866258e+002, 3.092296e+002
4.871079e+002, 3.239539e+002
4.875900e+002, 3.378460e+002
4.880721e+002, 3.526685e+002
4.885543e+002, 3.689194e+002
4.890364e+002, 3.860695e+002
4.895185e+002, 4.029886e+002
4.900006e+002, 4.203084e+002
4.904827e+002, 4.349698e+002
4.909648e+002, 4.461535e+002
4.914470e+002, 4.538098e+002
4.919291e+002, 4.554810e+002
4.924112e+002, 4.511085e+002
4.928933e+002, 4.408405e+002
4.933754e+002, 4.230815e+002
4.938575e+002, 3.990702e+002
4.943397e+002, 3.740642e+002
4.948218e+002, 3.488295e+002
4.953039e+002, 3.242665e+002
4.957860e+002, 3.014695e+002
4.962681e+002, 2.806120e+002
4.967502e+002, 2.623614e+002
4.972324e+002, 2.473384e+002
4.977145e+002, 2.347052e+002
4.981966e+002, 2.238714e+002
4.986787e+002, 2.147008e+002
4.991608e+002, 2.067991e+002
4.996429e+002, 1.999407e+002
5.001251e+002, 1.941912e+002
5.006072e+002, 1.894518e+002
5.010893e+002, 1.862250e+002
5.015714e+002, 1.833690e+002
5.020535e+002, 1.806378e+002
5.025356e+002, 1.780888e+002
5.030178e+002, 1.758388e+002
5.034999e+002, 1.740695e+002
5.039820e+002, 1.723659e+002
5.044641e+002, 1.705255e+002
5.049462e+002, 1.685155e+002
5.054283e+002, 1.672153e+002
5.059105e+002, 1.669200e+002
5.063926e+002, 1.668997e+002
5.068747e+002, 1.665868e+002
5.073568e+002, 1.659181e+002
5.078389e+002, 1.653910e+002
5.083210e+002, 1.650355e+002
5.088032e+002, 1.648813e+002
5.092853e+002, 1.649888e+002
5.097674e+002, 1.653543e+002
5.102495e+002, 1.659372e+002
5.107316e+002, 1.668155e+002
5.112137e+002, 1.678612e+002
5.116959e+002, 1.688496e+002
5.121780e+002, 1.697674e+002
5.126601e+002, 1.705800e+002
5.131422e+002, 1.711795e+002
5.136243e+002, 1.716862e+002
5.141064e+002, 1.722988e+002
5.145886e+002, 1.731222e+002
5.150707e+002, 1.737946e+002
5.155528e+002, 1.742493e+002
5.160349e+002, 1.743738e+002
5.165170e+002, 1.740136e+002
5.169991e+002, 1.725183e+002
5.174813e+002, 1.711459e+002
5.179634e+002, 1.705031e+002
5.184455e+002, 1.704735e+002
5.189276e+002, 1.700325e+002
5.194097e+002, 1.687827e+002
5.198918e+002, 1.673415e+002
5.203740e+002, 1.659352e+002
5.208561e+002, 1.645243e+002
5.213382e+002, 1.632769e+002
5.218203e+002, 1.623317e+002
5.223024e+002, 1.613822e+002
5.227845e+002, 1.599596e+002
5.232667e+002, 1.579248e+002
5.237488e+002, 1.561965e+002
5.242309e+002, 1.550350e+002
5.247130e+002, 1.542337e+002
5.251951e+002, 1.532057e+002
5.256772e+002, 1.519561e+002
5.261594e+002, 1.508944e+002
5.266415e+002, 1.502941e+002
5.271236e+002, 1.500300e+002
5.276057e+002, 1.498964e+002
5.280878e+002, 1.498908e+002
5.285699e+002, 1.498314e+002
5.290521e+002, 1.494225e+002
5.295342e+002, 1.489220e+002
5.300163e+002, 1.486908e+002
5.304984e+002, 1.489476e+002
5.309805e+002, 1.492673e+002
5.314626e+002, 1.491723e+002
5.319448e+002, 1.489954e+002
5.324269e+002, 1.493794e+002
5.329090e+002, 1.516746e+002
5.333911e+002, 1.534268e+002
5.338732e+002, 1.534163e+002
5.343553e+002, 1.515254e+002
5.348375e+002, 1.505557e+002
5.353196e+002, 1.511522e+002
5.358017e+002, 1.521034e+002
5.362838e+002, 1.527411e+002
5.367659e+002, 1.529017e+002
5.372480e+002, 1.532023e+002
5.377302e+002, 1.536248e+002
5.382123e+002, 1.542149e+002
5.386944e+002, 1.551274e+002
5.391765e+002, 1.564059e+002
5.396586e+002, 1.574606e+002
5.401407e+002, 1.579585e+002
5.406229e+002, 1.582757e+002
5.411050e+002, 1.593227e+002
5.415871e+002, 1.610551e+002
5.420692e+002, 1.630055e+002
5.425513e+002, 1.649378e+002
5.430334e+002, 1.669131e+002
5.435156e+002, 1.689597e+002
5.439977e+002, 1.710755e+002
5.444798e+002, 1.734374e+002
5.449619e+002, 1.760217e+002
5.454440e+002, 1.789583e+002
5.459261e+002, 1.824022e+002
5.464083e+002, 1.865631e+002
5.468904e+002, 1.909804e+002
5.473725e+002, 1.955722e+002
5.478546e+002, 2.002610e+002
5.483367e+002, 2.049822e+002
5.488188e+002, 2.093420e+002
5.493010e+002, 2.141396e+002
5.497831e+002, 2.196471e+002
5.502652e+002, 2.258529e+002
5.507473e+002, 2.320710e+002
5.512294e+002, 2.382649e+002
5.517115e+002, 2.445488e+002
5.521937e+002, 2.508996e+002
5.526758e+002, 2.572278e+002
5.531579e+002, 2.645584e+002
5.536400e+002, 2.730411e+002
5.541221e+002, 2.822461e+002
5.546042e+002, 2.913011e+002
5.550864e+002, 3.004190e+002
5.555685e+002, 3.110101e+002
5.560506e+002, 3.236181e+002
5.565327e+002, 3.375605e+002
5.570148e+002, 3.521059e+002
5.574969e+002, 3.671696e+002
5.579791e+002, 3.825034e+002
5.584612e+002, 3.978770e+002
5.589433e+002, 4.133891e+002
5.594254e+002, 4.292760e+002
5.599075e+002, 4.456437e+002
5.603896e+002, 4.608442e+002
5.608718e+002, 4.748285e+002
5.613539e+002, 4.868436e+002
5.618360e+002, 4.963943e+002
5.623181e+002, 5.053214e+002
5.628002e+002, 5.087751e+002
5.632823e+002, 5.063029e+002
5.637645e+002, 4.985872e+002
5.642466e+002, 4.862951e+002
5.647287e+002, 4.686540e+002
5.652108e+002, 4.483593e+002
5.656929e+002, 4.252046e+002
5.661750e+002, 4.000548e+002
5.666572e+002, 3.753955e+002
5.671393e+002, 3.512010e+002
5.676214e+002, 3.286080e+002
5.681035e+002, 3.078530e+002
5.685856e+002, 2.891676e+002
5.690677e+002, 2.728260e+002
5.695499e+002, 2.590147e+002
5.700320e+002, 2.468884e+002
5.705141e+002, 2.360574e+002
5.709962e+002, 2.264588e+002
5.714783e+002, 2.180709e+002
5.719604e+002, 2.109618e+002
5.724426e+002, 2.047317e+002
5.729247e+002, 1.991257e+002
5.734068e+002, 1.941746e+002
5.738889e+002, 1.898063e+002
5.743710e+002, 1.863568e+002
5.748531e+002, 1.831888e+002
5.753353e+002, 1.800256e+002
5.758174e+002, 1.769121e+002
5.762995e+002, 1.742853e+002
5.767816e+002, 1.723537e+002
5.772637e+002, 1.707045e+002
5.777458e+002, 1.691805e+002
5.782280e+002, 1.678192e+002
5.787101e+002, 1.663997e+002
5.791922e+002, 1.648710e+002
5.796743e+002, 1.633947e+002
5.801564e+002, 1.621715e+002
5.806385e+002, 1.611926e+002
5.811207e+002, 1.601924e+002
5.816028e+002, 1.590841e+002
5.820849e+002, 1.580450e+002
5.825670e+002, 1.574312e+002
5.830491e+002, 1.571345e+002
5.835313e+002, 1.567742e+002
5.840134e+002, 1.562476e+002
5.844955e+002, 1.555268e+002
5.849776e+002, 1.543443e+002
5.854597e+002, 1.528368e+002
5.859418e+002, 1.517620e+002
5.864240e+002, 1.520053e+002
5.869061e+002, 1.523817e+002
5.873882e+002, 1.521996e+002
5.878703e+002, 1.512928e+002
5.883524e+002, 1.501728e+002
5.888345e+002, 1.484991e+002
5.893167e+002, 1.468963e+002
5.897988e+002, 1.458901e+002
5.902809e+002, 1.457991e+002
5.907630e+002, 1.455819e+002
5.912451e+002, 1.451685e+002
5.917272e+002, 1.445865e+002
5.922094e+002, 1.438048e+002
5.926915e+002, 1.428078e+002
5.931736e+002, 1.419767e+002
5.936557e+002, 1.414896e+002
5.941378e+002, 1.412217e+002
5.946199e+002, 1.409182e+002
5.951021e+002, 1.405777e+002
5.955842e+002, 1.401632e+002
5.960663e+002, 1.395243e+002
5.965484e+002, 1.388667e+002
5.970305e+002, 1.384276e+002
5.975126e+002, 1.382294e+002
5.979948e+002, 1.381367e+002
5.984769e+002, 1.383092e+002
5.989590e+002, 1.384231e+002
5.994411e+002, 1.381726e+002
5.999232e+002, 1.371441e+002
6.004053e+002, 1.363345e+002
6.008875e+002, 1.359450e+002
6.013696e+002, 1.358433e+002
6.018517e+002, 1.358802e+002
6.023338e+002, 1.361651e+002
6.028159e+002, 1.363667e+002
6.032980e+002, 1.363895e+002
6.037802e+002, 1.362971e+002
6.042623e+002, 1.363167e+002
6.047444e+002, 1.364530e+002
6.052265e+002, 1.366546e+002
6.057086e+002, 1.369120e+002
6.061907e+002, 1.372126e+002
6.066729e+002, 1.375348e+002
6.071550e+002, 1.378750e+002
6.076371e+002, 1.381858e+002
6.081192e+002, 1.384064e+002
6.086013e+002, 1.385796e+002
6.090834e+002, 1.387390e+002
6.095656e+002, 1.388724e+002
6.100477e+002, 1.390806e+002
6.105298e+002, 1.394054e+002
6.110119e+002, 1.398412e+002
6.114940e+002, 1.403868e+002
6.119761e+002, 1.409367e+002
6.124583e+002, 1.417226e+002
6.129404e+002, 1.429253e+002
6.134225e+002, 1.443695e+002
6.139046e+002, 1.456928e+002
6.143867e+002, 1.467557e+002
6.148688e+002, 1.479543e+002
6.153510e+002, 1.494677e+002
6.158331e+002, 1.512246e+002
6.163152e+002, 1.527516e+002
6.167973e+002, 1.540048e+002
6.172794e+002, 1.553797e+002
6.177615e+002, 1.571477e+002
6.182437e+002, 1.592191e+002
6.187258e+002, 1.614008e+002
6.192079e+002, 1.636985e+002
6.196900e+002, 1.660918e+002
6.201721e+002, 1.685779e+002
6.206542e+002, 1.711475e+002
6.211364e+002, 1.737615e+002
6.216185e+002, 1.763828e+002
6.221006e+002, 1.791910e+002
6.225827e+002, 1.823403e+002
6.230648e+002, 1.857294e+002
6.235469e+002, 1.892163e+002
6.240291e+002, 1.924899e+002
6.245112e+002, 1.962341e+002
6.249933e+002, 2.006914e+002
6.254754e+002, 2.056968e+002
6.259575e+002, 2.106243e+002
6.264396e+002, 2.155480e+002
6.269218e+002, 2.202875e+002
6.274039e+002, 2.248596e+002
6.278860e+002, 2.292049e+002
6.283681e+002, 2.330639e+002
6.288502e+002, 2.364507e+002
6.293323e+002, 2.389981e+002
6.298145e+002, 2.405385e+002
6.302966e+002, 2.410111e+002
6.307787e+002, 2.404356e+002
6.312608e+002, 2.388420e+002
6.317429e+002, 2.357796e+002
6.322250e+002, 2.302629e+002
6.327072e+002, 2.233997e+002
6.331893e+002, 2.162310e+002
6.336714e+002, 2.087523e+002
6.341535e+002, 2.015696e+002
6.346356e+002, 1.947510e+002
6.351177e+002, 1.883854e+002
6.355999e+002, 1.824543e+002
6.360820e+002, 1.767396e+002
6.365641e+002, 1.718161e+002
6.370462e+002, 1.678874e+002
6.375283e+002, 1.647840e+002
6.380104e+002, 1.619793e+002
6.384926e+002, 1.594961e+002
6.389747e+002, 1.570196e+002
6.394568e+002, 1.542336e+002
6.399389e+002, 1.513442e+002
6.404210e+002, 1.491893e+002
6.409031e+002, 1.477209e+002
6.413853e+002, 1.464012e+002
6.418674e+002, 1.446979e+002
6.423495e+002, 1.429842e+002
6.428316e+002, 1.417688e+002
6.433137e+002, 1.411255e+002
6.437958e+002, 1.406600e+002
6.442780e+002, 1.399272e+002
6.447601e+002, 1.394084e+002
6.452422e+002, 1.395673e+002
6.457243e+002, 1.413575e+002
6.462064e+002, 1.424629e+002
6.466885e+002, 1.427169e+002
6.471707e+002, 1.422754e+002
6.476528e+002, 1.412058e+002
6.481349e+002, 1.391758e+002
6.486170e+002, 1.375633e+002
6.490991e+002, 1.366402e+002
6.495812e+002, 1.362382e+002
6.500634e+002, 1.360373e+002
6.505455e+002, 1.360190e+002
6.510276e+002, 1.359223e+002
6.515097e+002, 1.351381e+002
6.519918e+002, 1.344970e+002
6.524739e+002, 1.359524e+002
6.529561e+002, 1.390091e+002
6.534382e+002, 1.411665e+002
6.539203e+002, 1.399952e+002
6.544024e+002, 1.381156e+002
6.548845e+002, 1.374556e+002
6.553666e+002, 1.383396e+002
6.558488e+002, 1.387403e+002
6.563309e+002, 1.378620e+002
6.568130e+002, 1.366174e+002
6.572951e+002, 1.355314e+002
6.577772e+002, 1.345800e+002
6.582593e+002, 1.338518e+002
6.587415e+002, 1.333480e+002
6.592236e+002, 1.330659e+002
6.597057e+002, 1.331031e+002
6.601878e+002, 1.334495e+002
6.606699e+002, 1.335934e+002
6.611520e+002, 1.333827e+002
6.616342e+002, 1.330866e+002
6.621163e+002, 1.331627e+002
6.625984e+002, 1.334643e+002
6.630805e+002, 1.335972e+002
6.635626e+002, 1.331783e+002
6.640447e+002, 1.327653e+002
6.645269e+002, 1.328609e+002
6.650090e+002, 1.332898e+002
6.654911e+002, 1.335413e+002
6.659732e+002, 1.331065e+002
6.664553e+002, 1.328147e+002
6.669374e+002, 1.331232e+002
6.674196e+002, 1.339737e+002
6.679017e+002, 1.344135e+002
6.683838e+002, 1.342573e+002
6.688659e+002, 1.340511e+002
6.693480e+002, 1.341393e+002
6.698301e+002, 1.345140e+002
6.703123e+002, 1.344488e+002
6.707944e+002, 1.338868e+002
6.712765e+002, 1.333163e+002
6.717586e+002, 1.332036e+002
6.722407e+002, 1.333932e+002
6.727228e+002, 1.335542e+002
6.732050e+002, 1.336444e+002
6.736871e+002, 1.336833e+002
6.741692e+002, 1.336891e+002
6.746513e+002, 1.336479e+002
6.751334e+002, 1.335323e+002
6.756155e+002, 1.331671e+002
6.760977e+002, 1.329764e+002
6.765798e+002, 1.331360e+002
6.770619e+002, 1.335032e+002
6.775440e+002, 1.338902e+002
6.780261e+002, 1.344026e+002
6.785082e+002, 1.346947e+002
6.789904e+002, 1.346509e+002
6.794725e+002, 1.343943e+002
6.799546e+002, 1.342078e+002
6.804367e+002, 1.340954e+002
6.809188e+002, 1.340917e+002
6.814009e+002, 1.342926e+002
6.818831e+002, 1.345620e+002
6.823652e+002, 1.346629e+002
6.828473e+002, 1.346070e+002
6.833294e+002, 1.344423e+002
6.838115e+002, 1.339201e+002
6.842936e+002, 1.335130e+002
6.847758e+002, 1.337093e+002
6.852579e+002, 1.345279e+002
6.857400e+002, 1.350694e+002
6.862221e+002, 1.347743e+002
6.867042e+002, 1.344100e+002
6.871863e+002, 1.343829e+002
6.876685e+002, 1.347869e+002
6.881506e+002, 1.351390e+002
6.886327e+002, 1.354685e+002
6.891148e+002, 1.356943e+002
6.895969e+002, 1.356774e+002
6.900790e+002, 1.354393e+002
6.905612e+002, 1.353349e+002
6.910433e+002, 1.354041e+002
6.915254e+002, 1.355752e+002
6.920075e+002, 1.358979e+002
6.924896e+002, 1.362356e+002
6.929717e+002, 1.362912e+002
6.934539e+002, 1.357863e+002
6.939360e+002, 1.353771e+002
6.944181e+002, 1.355966e+002
6.949002e+002, 1.361197e+002
6.953823e+002, 1.364426e+002
6.958644e+002, 1.363179e+002
6.963466e+002, 1.361528e+002
6.968287e+002, 1.360225e+002
6.973108e+002, 1.358928e+002
6.977929e+002, 1.355340e+002
6.982750e+002, 1.346946e+002
6.987571e+002, 1.346767e+002
6.992393e+002, 1.363768e+002
6.997214e+002, 1.389247e+002
7.002035e+002, 1.393765e+002
7.006856e+002, 1.379517e+002
7.011677e+002, 1.365195e+002
7.016498e+002, 1.362327e+002
7.021320e+002, 1.364840e+002
7.026141e+002, 1.366601e+002
7.030962e+002, 1.367451e+002
7.035783e+002, 1.367998e+002
7.040604e+002, 1.366779e+002
7.045425e+002, 1.366716e+002
7.050247e+002, 1.370205e+002
7.055068e+002, 1.378477e+002
7.059889e+002, 1.384146e+002
7.064710e+002, 1.386911e+002
7.069531e+002, 1.387366e+002
7.074352e+002, 1.385083e+002
7.079174e+002, 1.379643e+002
7.083995e+002, 1.376298e+002
7.088816e+002, 1.375172e+002
7.093637e+002, 1.376024e+002
7.098458e+002, 1.379687e+002
7.103279e+002, 1.385065e+002
7.108101e+002, 1.389805e+002
7.112922e+002, 1.393740e+002
7.117743e+002, 1.395820e+002
7.122564e+002, 1.392580e+002
7.127385e+002, 1.388165e+002
7.132206e+002, 1.387678e+002
7.137028e+002, 1.397265e+002
7.141849e+002, 1.404233e+002
7.146670e+002, 1.403672e+002
7.151491e+002, 1.400231e+002
7.156312e+002, 1.400362e+002
7.161133e+002, 1.405771e+002
7.165955e+002, 1.409711e+002
7.170776e+002, 1.410169e+002
7.175597e+002, 1.409530e+002
7.180418e+002, 1.413930e+002
7.185239e+002, 1.422759e+002
7.190060e+002, 1.429627e+002
7.194882e+002, 1.430490e+002
7.199703e+002, 1.429776e+002
7.204524e+002, 1.433354e+002
7.209345e+002, 1.439966e+002
7.214166e+002, 1.446039e+002
7.218987e+002, 1.449030e+002
7.223809e+002, 1.451871e+002
7.228630e+002, 1.455376e+002
7.233451e+002, 1.459709e+002
7.238272e+002, 1.466053e+002
7.243093e+002, 1.476830e+002
7.247914e+002, 1.485711e+002
7.252736e+002, 1.487928e+002
7.257557e+002, 1.484840e+002
7.262378e+002, 1.495397e+002
7.267199e+002, 1.521258e+002
7.272020e+002, 1.548038e+002
7.276841e+002, 1.568757e+002
7.281663e+002, 1.583246e+002
7.286484e+002, 1.588228e+002
7.291305e+002, 1.584035e+002
7.296126e+002, 1.580098e+002
7.300947e+002, 1.584840e+002
7.305768e+002, 1.591112e+002
7.310590e+002, 1.592566e+002
7.315411e+002, 1.587245e+002
7.320232e+002, 1.583235e+002
7.325053e+002, 1.577554e+002
7.329874e+002, 1.577267e+002
7.334695e+002, 1.589583e+002
7.339517e+002, 1.622827e+002
7.344338e+002, 1.637747e+002
7.349159e+002, 1.631412e+002
7.353980e+002, 1.615378e+002
7.358801e+002, 1.600215e+002
7.363622e+002, 1.585683e+002
7.368444e+002, 1.570175e+002
7.373265e+002, 1.552918e+002
7.378086e+002, 1.537453e+002
7.382907e+002, 1.529101e+002
7.387728e+002, 1.523985e+002
7.392549e+002, 1.517051e+002
7.397371e+002, 1.505940e+002
7.402192e+002, 1.494696e+002
7.407013e+002, 1.483419e+002
7.411834e+002, 1.473118e+002
7.416655e+002, 1.464957e+002
7.421476e+002, 1.459856e+002
7.426298e+002, 1.454702e+002
7.431119e+002, 1.448618e+002
7.435940e+002, 1.442955e+002
7.440761e+002, 1.440779e+002
7.445582e+002, 1.441736e+002
7.450403e+002, 1.442263e+002
7.455225e+002, 1.441245e+002
7.460046e+002, 1.439351e+002
7.464867e+002, 1.437405e+002
7.469688e+002, 1.435207e+002
7.474509e+002, 1.432351e+002
7.479330e+002, 1.427170e+002
7.484152e+002, 1.422886e+002
7.488973e+002, 1.421122e+002
7.493794e+002, 1.421283e+002
7.498615e+002, 1.421413e+002
7.503436e+002, 1.421936e+002
7.508257e+002, 1.421544e+002
7.513079e+002, 1.419647e+002
7.517900e+002, 1.416744e+002
7.522721e+002, 1.414582e+002
7.527542e+002, 1.413165e+002
7.532363e+002, 1.412202e+002
7.537184e+002, 1.412058e+002
7.542006e+002, 1.411983e+002
7.546827e+002, 1.410034e+002
7.551648e+002, 1.406855e+002
7.556469e+002, 1.405190e+002
7.561290e+002, 1.407602e+002
7.566111e+002, 1.410836e+002
7.570933e+002, 1.413790e+002
7.575754e+002, 1.416234e+002
7.580575e+002, 1.416812e+002
7.585396e+002, 1.414904e+002
7.590217e+002, 1.411932e+002
7.595038e+002, 1.407631e+002
7.599860e+002, 1.402378e+002
7.604681e+002, 1.400871e+002
7.609502e+002, 1.403402e+002
7.614323e+002, 1.406228e+002
7.619144e+002, 1.405886e+002
7.623965e+002, 1.404506e+002
7.628787e+002, 1.406721e+002
7.633608e+002, 1.412304e+002
7.638429e+002, 1.417215e+002
7.643250e+002, 1.419162e+002
7.648071e+002, 1.419459e+002
7.652892e+002, 1.418506e+002
7.657714e+002, 1.416079e+002
7.662535e+002, 1.414758e+002
7.667356e+002, 1.414792e+002
7.672177e+002, 1.415803e+002
7.676998e+002, 1.418200e+002
7.681819e+002, 1.422247e+002
7.686641e+002, 1.422960e+002
7.691462e+002, 1.419940e+002
7.696283e+002, 1.416651e+002
7.701104e+002, 1.416022e+002
7.705925e+002, 1.417180e+002
7.710746e+002, 1.418865e+002
7.715568e+002, 1.420995e+002
7.720389e+002, 1.422265e+002
7.725210e+002, 1.420487e+002
7.730031e+002, 1.418429e+002
7.734852e+002, 1.418726e+002
7.739673e+002, 1.423355e+002
7.744495e+002, 1.424631e+002
7.749316e+002, 1.419563e+002
7.754137e+002, 1.414408e+002
7.758958e+002, 1.414451e+002
7.763779e+002, 1.420237e+002
7.768600e+002, 1.423955e+002
7.773422e+002, 1.425153e+002
7.778243e+002, 1.425579e+002
7.783064e+002, 1.427664e+002
7.787885e+002, 1.430079e+002
7.792706e+002, 1.429812e+002
7.797527e+002, 1.425931e+002
7.802349e+002, 1.422406e+002
7.807170e+002, 1.422071e+002
7.811991e+002, 1.422924e+002
7.816812e+002, 1.423113e+002
7.821633e+002, 1.421066e+002
7.826454e+002, 1.421203e+002
7.831276e+002, 1.425007e+002
7.836097e+002, 1.429236e+002
7.840918e+002, 1.429924e+002
7.845739e+002, 1.426963e+002
7.850560e+002, 1.427329e+002
7.855381e+002, 1.432352e+002
7.860203e+002, 1.437150e+002
7.865024e+002, 1.434489e+002
7.869845e+002, 1.428340e+002
7.874666e+002, 1.425834e+002
7.879487e+002, 1.429500e+002
7.884308e+002, 1.433740e+002
7.889130e+002, 1.435258e+002
7.893951e+002, 1.436263e+002
7.898772e+002, 1.439251e+002
7.903593e+002, 1.447816e+002
7.908414e+002, 1.451567e+002
7.913235e+002, 1.447832e+002
7.918057e+002, 1.442811e+002
7.922878e+002, 1.444684e+002
7.927699e+002, 1.452964e+002
7.932520e+002, 1.460044e+002
7.937341e+002, 1.464964e+002
7.942162e+002, 1.468066e+002
7.946984e+002, 1.469589e+002
7.951805e+002, 1.469641e+002
7.956626e+002, 1.468062e+002
7.961447e+002, 1.463421e+002
7.966268e+002, 1.460421e+002
7.971089e+002, 1.461788e+002
7.975911e+002, 1.465151e+002
7.980732e+002, 1.467755e+002
7.985553e+002, 1.468924e+002
7.990374e+002, 1.471160e+002
7.995195e+002, 1.475256e+002
8.000016e+002, 1.479261e+002
8.004838e+002, 1.480308e+002
8.009659e+002, 1.478913e+002
8.014480e+002, 1.477828e+002
8.019301e+002, 1.477398e+002
8.024122e+002, 1.478135e+002
8.028943e+002, 1.480687e+002
8.033765e+002, 1.484662e+002
8.038586e+002, 1.489888e+002
8.043407e+002, 1.498784e+002
8.048228e+002, 1.504388e+002
8.053049e+002, 1.502099e+002
8.057870e+002, 1.497708e+002
8.062692e+002, 1.496877e+002
8.067513e+002, 1.500335e+002
8.072334e+002, 1.505042e+002
8.077155e+002, 1.511580e+002
8.081976e+002, 1.516745e+002
8.086797e+002, 1.514850e+002
8.091619e+002, 1.508138e+002
8.096440e+002, 1.503036e+002
8.101261e+002, 1.500898e+002
8.106082e+002, 1.500575e+002
8.110903e+002, 1.503779e+002
8.115724e+002, 1.507142e+002
8.120546e+002, 1.506695e+002
8.125367e+002, 1.495770e+002
8.130188e+002, 1.491143e+002
8.135009e+002, 1.496688e+002
8.139830e+002, 1.505585e+002
8.144651e+002, 1.510547e+002
8.149473e+002, 1.511432e+002
8.154294e+002, 1.511512e+002
8.159115e+002, 1.510960e+002
8.163936e+002, 1.510526e+002
8.168757e+002, 1.510286e+002
8.173578e+002, 1.510981e+002
8.178400e+002, 1.514385e+002
8.183221e+002, 1.521870e+002
8.188042e+002, 1.528567e+002
8.192863e+002, 1.531729e+002
8.197684e+002, 1.533195e+002
8.202505e+002, 1.534642e+002
8.207327e+002, 1.536216e+002
8.212148e+002, 1.537726e+002
8.216969e+002, 1.539636e+002
8.221790e+002, 1.540538e+002
8.226611e+002, 1.538073e+002
8.231432e+002, 1.532884e+002
8.236254e+002, 1.529211e+002
8.241075e+002, 1.527461e+002
8.245896e+002, 1.527384e+002
8.250717e+002, 1.531610e+002
8.255538e+002, 1.535951e+002
8.260359e+002, 1.534693e+002
8.265181e+002, 1.524551e+002
8.270002e+002, 1.517119e+002
8.274823e+002, 1.517886e+002
8.279644e+002, 1.520000e+002
8.284465e+002, 1.518656e+002
8.289286e+002, 1.512581e+002
8.294108e+002, 1.509755e+002
8.298929e+002, 1.510638e+002
8.303750e+002, 1.513059e+002
8.308571e+002, 1.515699e+002
8.313392e+002, 1.518232e+002
8.318214e+002, 1.520350e+002
8.323035e+002, 1.522048e+002
8.327856e+002, 1.521826e+002
8.332677e+002, 1.514832e+002
8.337498e+002, 1.508286e+002
8.342319e+002, 1.508643e+002
8.347141e+002, 1.519318e+002
8.351962e+002, 1.524875e+002
8.356783e+002, 1.522521e+002
8.361604e+002, 1.519672e+002
8.366425e+002, 1.522698e+002
8.371246e+002, 1.530825e+002
8.376068e+002, 1.530557e+002
8.380889e+002, 1.521760e+002
8.385710e+002, 1.514373e+002
8.390531e+002, 1.518648e+002
8.395352e+002, 1.526766e+002
8.400173e+002, 1.529970e+002
8.404995e+002, 1.527747e+002
8.409816e+002, 1.525926e+002
8.414637e+002, 1.528791e+002
8.419458e+002, 1.530049e+002
8.424279e+002, 1.525692e+002
8.429100e+002, 1.515905e+002
8.433922e+002, 1.512473e+002
8.438743e+002, 1.516683e+002
8.443564e+002, 1.520122e+002
8.448385e+002, 1.515466e+002
8.453206e+002, 1.507046e+002
8.458027e+002, 1.506461e+002
8.462849e+002, 1.512245e+002
8.467670e+002, 1.516244e+002
8.472491e+002, 1.511425e+002
8.477312e+002, 1.505797e+002
8.482133e+002, 1.504165e+002
8.486954e+002, 1.506287e+002
8.491776e+002, 1.507566e+002
8.496597e+002, 1.507625e+002
8.501418e+002, 1.507412e+002
8.506239e+002, 1.507101e+002
8.511060e+002, 1.506856e+002
8.515881e+002, 1.507649e+002
8.520703e+002, 1.509273e+002
8.525524e+002, 1.509910e+002
8.530345e+002, 1.508194e+002
8.535166e+002, 1.505502e+002
8.539987e+002, 1.501956e+002
8.544808e+002, 1.498397e+002
8.549630e+002, 1.496971e+002
8.554451e+002, 1.498891e+002
8.559272e+002, 1.502522e+002
8.564093e+002, 1.509196e+002
8.568914e+002, 1.516455e+002
8.573735e+002, 1.518190e+002
8.578557e+002, 1.513863e+002
8.583378e+002, 1.510288e+002
8.588199e+002, 1.509209e+002
8.593020e+002, 1.509796e+002
8.597841e+002, 1.511088e+002
8.602662e+002, 1.513103e+002
8.607484e+002, 1.515990e+002
8.612305e+002, 1.521679e+002
8.617126e+002, 1.525458e+002
8.621947e+002, 1.525211e+002
8.626768e+002, 1.522082e+002
8.631589e+002, 1.517483e+002
8.636411e+002, 1.509712e+002
8.641232e+002, 1.505309e+002
8.646053e+002, 1.505103e+002
8.650874e+002, 1.507788e+002
8.655695e+002, 1.513443e+002
8.660516e+002, 1.520629e+002
8.665338e+002, 1.524772e+002
8.670159e+002, 1.524823e+002
8.674980e+002, 1.522981e+002
8.679801e+002, 1.518069e+002
8.684622e+002, 1.513608e+002
8.689443e+002, 1.513463e+002
8.694265e+002, 1.521660e+002
8.699086e+002, 1.525708e+002
8.703907e+002, 1.524405e+002
8.708728e+002, 1.520790e+002
8.713549e+002, 1.515452e+002
8.718370e+002, 1.509030e+002
8.723192e+002, 1.511459e+002
8.728013e+002, 1.523347e+002
8.732834e+002, 1.533209e+002
8.737655e+002, 1.529150e+002
8.742476e+002, 1.519984e+002
8.747297e+002, 1.513761e+002
8.752119e+002, 1.511227e+002
8.756940e+002, 1.511241e+002
8.761761e+002, 1.516518e+002
8.766582e+002, 1.521090e+002
8.771403e+002, 1.521959e+002
8.776224e+002, 1.519570e+002
8.781046e+002, 1.520523e+002
8.785867e+002, 1.524968e+002
8.790688e+002, 1.529433e+002
8.795509e+002, 1.531798e+002
8.800330e+002, 1.532915e+002
8.805151e+002, 1.533825e+002
8.809973e+002, 1.534525e+002
8.814794e+002, 1.534933e+002
8.819615e+002, 1.534785e+002
8.824436e+002, 1.534627e+002
8.829257e+002, 1.534994e+002
8.834078e+002, 1.535484e+002
8.838900e+002, 1.534296e+002
8.843721e+002, 1.530614e+002
8.848542e+002, 1.529742e+002
8.853363e+002, 1.533842e+002
8.858184e+002, 1.540474e+002
8.863005e+002, 1.546760e+002
8.867827e+002, 1.552103e+002
8.872648e+002, 1.554768e+002
8.877469e+002, 1.552024e+002
8.882290e+002, 1.549647e+002
8.887111e+002, 1.550077e+002
8.891932e+002, 1.552442e+002
8.896754e+002, 1.555574e+002
8.901575e+002, 1.560069e+002
8.906396e+002, 1.563390e+002
8.911217e+002, 1.564959e+002
8.916038e+002, 1.566176e+002
8.920859e+002, 1.569133e+002
8.925681e+002, 1.573194e+002
8.930502e+002, 1.576167e+002
8.935323e+002, 1.577495e+002
8.940144e+002, 1.579151e+002
8.944965e+002, 1.583386e+002
8.949786e+002, 1.587921e+002
8.954608e+002, 1.590441e+002
8.959429e+002, 1.589501e+002
8.964250e+002, 1.591251e+002
8.969071e+002, 1.596528e+002
8.973892e+002, 1.602756e+002
8.978713e+002, 1.607760e+002
8.983535e+002, 1.612051e+002
8.988356e+002, 1.619078e+002
8.993177e+002, 1.628639e+002
8.997998e+002, 1.637433e+002
9.002819e+002, 1.641792e+002
9.007640e+002, 1.645807e+002
9.012462e+002, 1.653583e+002
9.017283e+002, 1.664641e+002
9.022104e+002, 1.673008e+002
9.026925e+002, 1.675101e+002
9.031746e+002, 1.679421e+002
9.036567e+002, 1.689338e+002
9.041389e+002, 1.702787e+002
9.046210e+002, 1.713038e+002
9.051031e+002, 1.720488e+002
9.055852e+002, 1.729123e+002
9.060673e+002, 1.741404e+002
9.065494e+002, 1.754369e+002
9.070316e+002, 1.764175e+002
9.075137e+002, 1.772955e+002
9.079958e+002, 1.784641e+002
9.084779e+002, 1.804220e+002
9.089600e+002, 1.821004e+002
9.094421e+002, 1.832904e+002
9.099243e+002, 1.842839e+002
9.104064e+002, 1.854315e+002
9.108885e+002, 1.867393e+002
9.113706e+002, 1.885228e+002
9.118527e+002, 1.909357e+002
9.123348e+002, 1.931352e+002
9.128170e+002, 1.940235e+002
9.132991e+002, 1.944015e+002
9.137812e+002, 1.952089e+002
9.142633e+002, 1.967375e+002
9.147454e+002, 1.981243e+002
9.152275e+002, 1.993194e+002
9.157097e+002, 2.002497e+002
9.161918e+002, 2.007368e+002
9.166739e+002, 2.007948e+002
9.171560e+002, 2.013711e+002
9.176381e+002, 2.024637e+002
9.181202e+002, 2.037315e+002
9.186024e+002, 2.049947e+002
9.190845e+002, 2.062665e+002
9.195666e+002, 2.076301e+002
9.200487e+002, 2.090336e+002
9.205308e+002, 2.102591e+002
9.210129e+002, 2.108112e+002
9.214951e+002, 2.116911e+002
9.219772e+002, 2.131212e+002
9.224593e+002, 2.150639e+002
9.229414e+002, 2.174862e+002
9.234235e+002, 2.203617e+002
9.239056e+002, 2.234226e+002
9.243878e+002, 2.265907e+002
9.248699e+002, 2.298907e+002
9.253520e+002, 2.333486e+002
9.258341e+002, 2.369918e+002
9.263162e+002, 2.409226e+002
9.267983e+002, 2.452790e+002
9.272805e+002, 2.497944e+002
9.277626e+002, 2.547000e+002
9.282447e+002, 2.595476e+002
9.287268e+002, 2.638662e+002
9.292089e+002, 2.676449e+002
9.296910e+002, 2.711685e+002
9.301732e+002, 2.744617e+002
9.306553e+002, 2.771523e+002
9.311374e+002, 2.790994e+002
9.316195e+002, 2.801230e+002
9.321016e+002, 2.800341e+002
9.325837e+002, 2.788022e+002
9.330659e+002, 2.765709e+002
9.335480e+002, 2.732561e+002
9.340301e+002, 2.690476e+002
9.345122e+002, 2.640211e+002
9.349943e+002, 2.581367e+002
9.354764e+002, 2.511008e+002
9.359586e+002, 2.428712e+002
9.364407e+002, 2.352244e+002
9.369228e+002, 2.291797e+002
9.374049e+002, 2.238074e+002
9.378870e+002, 2.180406e+002
9.383691e+002, 2.121576e+002
9.388513e+002, 2.069499e+002
9.393334e+002, 2.027247e+002
9.398155e+002, 1.990283e+002
9.402976e+002, 1.958767e+002
9.407797e+002, 1.931707e+002
9.412618e+002, 1.909087e+002
9.417440e+002, 1.890693e+002
9.422261e+002, 1.873131e+002
9.427082e+002, 1.855494e+002
9.431903e+002, 1.839659e+002
9.436724e+002, 1.828302e+002
9.441545e+002, 1.819317e+002
9.446367e+002, 1.810481e+002
9.451188e+002, 1.801348e+002
9.456009e+002, 1.792875e+002
9.460830e+002, 1.785025e+002
9.465651e+002, 1.777807e+002
9.470472e+002, 1.771157e+002
9.475294e+002, 1.765021e+002
9.480115e+002, 1.759718e+002
9.484936e+002, 1.755237e+002
9.489757e+002, 1.751950e+002
9.494578e+002, 1.750787e+002
9.499399e+002, 1.750324e+002
9.504221e+002, 1.749650e+002
9.509042e+002, 1.748808e+002
9.513863e+002, 1.748192e+002
9.518684e+002, 1.749963e+002
9.523505e+002, 1.747500e+002
9.528326e+002, 1.736988e+002
9.533148e+002, 1.725345e+002
9.537969e+002, 1.727377e+002
9.542790e+002, 1.740203e+002
9.547611e+002, 1.751604e+002
9.552432e+002, 1.758577e+002
9.557253e+002, 1.763204e+002
9.562075e+002, 1.763729e+002
9.566896e+002, 1.764469e+002
9.571717e+002, 1.770278e+002
9.576538e+002, 1.783574e+002
9.581359e+002, 1.794433e+002
9.586180e+002, 1.800806e+002
9.591002e+002, 1.809898e+002
9.595823e+002, 1.830446e+002
9.600644e+002, 1.857461e+002
9.605465e+002, 1.873167e+002
9.610286e+002, 1.879028e+002
9.615107e+002, 1.888128e+002
9.619929e+002, 1.911160e+002
9.624750e+002, 1.936293e+002
9.629571e+002, 1.957681e+002
9.634392e+002, 1.976054e+002
9.639213e+002, 1.995155e+002
9.644034e+002, 2.014476e+002
9.648856e+002, 2.036300e+002
9.653677e+002, 2.062200e+002
9.658498e+002, 2.088886e+002
9.663319e+002, 2.108310e+002
9.668140e+002, 2.125272e+002
9.672961e+002, 2.150516e+002
9.677783e+002, 2.191669e+002
9.682604e+002, 2.228931e+002
9.687425e+002, 2.252901e+002
9.692246e+002, 2.271602e+002
9.697067e+002, 2.291311e+002
9.701888e+002, 2.311648e+002
9.706710e+002, 2.334322e+002
9.711531e+002, 2.359602e+002
9.716352e+002, 2.382787e+002
9.721173e+002, 2.400985e+002
9.725994e+002, 2.414111e+002
9.730815e+002, 2.419894e+002
9.735637e+002, 2.419699e+002
9.740458e+002, 2.421459e+002
9.745279e+002, 2.428765e+002
9.750100e+002, 2.437127e+002
9.754921e+002, 2.444575e+002
9.759742e+002, 2.452879e+002
9.764564e+002, 2.466109e+002
9.769385e+002, 2.484369e+002
9.774206e+002, 2.507710e+002
9.779027e+002, 2.536828e+002
9.783848e+002, 2.568215e+002
9.788669e+002, 2.597735e+002
9.793491e+002, 2.628290e+002
9.798312e+002, 2.663875e+002
9.803133e+002, 2.707676e+002
9.807954e+002, 2.749635e+002
9.812775e+002, 2.786294e+002
9.817596e+002, 2.827312e+002
9.822418e+002, 2.883175e+002
9.827239e+002, 2.950345e+002
9.832060e+002, 3.010043e+002
9.836881e+002, 3.062679e+002
9.841702e+002, 3.113227e+002
9.846523e+002, 3.160346e+002
9.851345e+002, 3.210460e+002
9.856166e+002, 3.273058e+002
9.860987e+002, 3.342385e+002
9.865808e+002, 3.398338e+002
9.870629e+002, 3.438087e+002
9.875450e+002, 3.473018e+002
9.880272e+002, 3.505236e+002
9.885093e+002, 3.533911e+002
9.889914e+002, 3.558970e+002
9.894735e+002, 3.579034e+002
9.899556e+002, 3.591734e+002
9.904377e+002, 3.597580e+002
9.909199e+002, 3.591772e+002
9.914020e+002, 3.568712e+002
9.918841e+002, 3.535852e+002
9.923662e+002, 3.498823e+002
9.928483e+002, 3.458427e+002
9.933304e+002, 3.407219e+002
9.938126e+002, 3.344950e+002
9.942947e+002, 3.276073e+002
9.947768e+002, 3.200135e+002
9.952589e+002, 3.121474e+002
9.957410e+002, 3.042150e+002
9.962231e+002, 2.963783e+002
9.967053e+002, 2.888563e+002
9.971874e+002, 2.821699e+002
9.976695e+002, 2.752681e+002
9.981516e+002, 2.676749e+002
9.986337e+002, 2.601993e+002
9.991158e+002, 2.540953e+002
9.995980e+002, 2.491573e+002
1.000080e+003, 2.443197e+002
1.000562e+003, 2.393391e+002
1.001044e+003, 2.345555e+002
1.001526e+003, 2.299613e+002
1.002009e+003, 2.257909e+002
1.002491e+003, 2.223979e+002
1.002973e+003, 2.198526e+002
1.003455e+003, 2.172619e+002
1.003937e+003, 2.145547e+002
1.004419e+003, 2.120373e+002
1.004901e+003, 2.097925e+002
1.005383e+003, 2.078547e+002
1.005865e+003, 2.064128e+002
1.006348e+003, 2.053131e+002
1.006830e+003, 2.040739e+002
1.007312e+003, 2.023209e+002
1.007794e+003, 2.006212e+002
1.008276e+003, 1.989461e+002
1.008758e+003, 1.975174e+002
1.009240e+003, 1.966185e+002
1.009722e+003, 1.963006e+002
1.010205e+003, 1.960754e+002
1.010687e+003, 1.959300e+002
1.011169e+003, 1.956683e+002
1.011651e+003, 1.949293e+002
1.012133e+003, 1.941066e+002
1.012615e+003, 1.936815e+002
1.013097e+003, 1.936625e+002
1.013579e+003, 1.934928e+002
1.014061e+003, 1.931142e+002
1.014544e+003, 1.925343e+002
1.015026e+003, 1.917457e+002
1.015508e+003, 1.907684e+002
1.015990e+003, 1.895945e+002
1.016472e+003, 1.882509e+002
1.016954e+003, 1.868492e+002
1.017436e+003, 1.854077e+002
1.017918e+003, 1.839189e+002
1.018401e+003, 1.822265e+002
1.018883e+003, 1.805825e+002
1.019365e+003, 1.792070e+002
1.019847e+003, 1.781062e+002
1.020329e+003, 1.773113e+002
1.020811e+003, 1.768933e+002
1.021293e+003, 1.763997e+002
1.021775e+003, 1.753056e+002
1.022257e+003, 1.740448e+002
1.022740e+003, 1.733376e+002
1.023222e+003, 1.730717e+002
1.023704e+003, 1.727789e+002
1.024186e+003, 1.722268e+002
1.024668e+003, 1.717146e+002
1.025150e+003, 1.713172e+002
1.025632e+003, 1.709756e+002
1.026114e+003, 1.705624e+002
1.026596e+003, 1.701007e+002
1.027079e+003, 1.697490e+002
1.027561e+003, 1.695331e+002
1.028043e+003, 1.694198e+002
1.028525e+003, 1.694115e+002
1.029007e+003, 1.694731e+002
1.029489e+003, 1.695901e+002
1.029971e+003, 1.697649e+002
1.030453e+003, 1.699435e+002
1.030936e+003, 1.701650e+002
1.031418e+003, 1.702471e+002
1.031900e+003, 1.700133e+002
1.032382e+003, 1.697054e+002
1.032864e+003, 1.699036e+002
1.033346e+003, 1.704051e+002
1.033828e+003, 1.707188e+002
1.034310e+003, 1.704839e+002
1.034792e+003, 1.703277e+002
1.035275e+003, 1.704166e+002
1.035757e+003, 1.706315e+002
1.036239e+003, 1.708633e+002
1.036721e+003, 1.711108e+002
1.037203e+003, 1.716403e+002
1.037685e+003, 1.724500e+002
1.038167e+003, 1.730246e+002
1.038649e+003, 1.725849e+002
1.039132e+003, 1.720954e+002
1.039614e+003, 1.724638e+002
1.040096e+003, 1.735267e+002
1.040578e+003, 1.742726e+002
1.041060e+003, 1.745748e+002
1.041542e+003, 1.747539e+002
1.042024e+003, 1.748212e+002
1.042506e+003, 1.749096e+002
1.042989e+003, 1.752051e+002
1.043471e+003, 1.756764e+002
1.043953e+003, 1.762924e+002
1.044435e+003, 1.770833e+002
1.044917e+003, 1.778247e+002
1.045399e+003, 1.785737e+002
1.045881e+003, 1.790858e+002
1.046363e+003, 1.790717e+002
1.046845e+003, 1.786692e+002
1.047328e+003, 1.790402e+002
1.047810e+003, 1.801592e+002
1.048292e+003, 1.814789e+002
1.048774e+003, 1.830440e+002
1.049256e+003, 1.843187e+002
1.049738e+003, 1.845555e+002
1.050220e+003, 1.843371e+002
1.050702e+003, 1.846282e+002
1.051184e+003, 1.857486e+002
1.051667e+003, 1.867644e+002
1.052149e+003, 1.876136e+002
1.052631e+003, 1.885008e+002
1.053113e+003, 1.897465e+002
1.053595e+003, 1.911212e+002
1.054077e+003, 1.920992e+002
1.054559e+003, 1.927331e+002
1.055041e+003, 1.935210e+002
1.055523e+003, 1.950296e+002
1.056006e+003, 1.962704e+002
1.056488e+003, 1.970128e+002
1.056970e+003, 1.973356e+002
1.057452e+003, 1.973591e+002
1.057934e+003, 1.970954e+002
1.058416e+003, 1.966388e+002
1.058898e+003, 1.960079e+002
1.059380e+003, 1.951862e+002
1.059863e+003, 1.939152e+002
1.060345e+003, 1.926519e+002
1.060827e+003, 1.919413e+002
1.061309e+003, 1.918287e+002
1.061791e+003, 1.910032e+002
1.062273e+003, 1.892607e+002
1.062755e+003, 1.877963e+002
1.063237e+003, 1.873831e+002
1.063719e+003, 1.872165e+002
1.064202e+003, 1.858332e+002
1.064684e+003, 1.838027e+002
1.065166e+003, 1.822255e+002
1.065648e+003, 1.818587e+002
1.066130e+003, 1.812177e+002
1.066612e+003, 1.799569e+002
1.067094e+003, 1.786741e+002
1.067576e+003, 1.779620e+002
1.068059e+003, 1.776767e+002
1.068541e+003, 1.769942e+002
1.069023e+003, 1.759408e+002
1.069505e+003, 1.748501e+002
1.069987e+003, 1.736965e+002
1.070469e+003, 1.727994e+002
1.070951e+003, 1.725565e+002
1.071433e+003, 1.726289e+002
1.071916e+003, 1.723640e+002
1.072398e+003, 1.717035e+002
1.072880e+003, 1.712658e+002
1.073362e+003, 1.711619e+002
1.073844e+003, 1.711264e+002
1.074326e+003, 1.708943e+002
1.074808e+003, 1.705923e+002
1.075290e+003, 1.703404e+002
1.075772e+003, 1.701540e+002
1.076255e+003, 1.700300e+002
1.076737e+003, 1.699982e+002
1.077219e+003, 1.699539e+002
1.077701e+003, 1.698547e+002
1.078183e+003, 1.697379e+002
1.078665e+003, 1.697415e+002
1.079147e+003, 1.697750e+002
1.079629e+003, 1.695606e+002
1.080111e+003, 1.688167e+002
1.080594e+003, 1.684431e+002
1.081076e+003, 1.691418e+002
1.081558e+003, 1.699362e+002
1.082040e+003, 1.702645e+002
1.082522e+003, 1.701700e+002
1.083004e+003, 1.700189e+002
1.083486e+003, 1.698289e+002
1.083968e+003, 1.697919e+002
1.084450e+003, 1.703058e+002
1.084933e+003, 1.706838e+002
1.085415e+003, 1.703663e+002
1.085897e+003, 1.696769e+002
1.086379e+003, 1.690972e+002
1.086861e+003, 1.685708e+002
1.087343e+003, 1.685874e+002
1.087825e+003, 1.692874e+002
1.088307e+003, 1.697512e+002
1.088790e+003, 1.685635e+002
1.089272e+003, 1.670991e+002
1.089754e+003, 1.673381e+002
1.090236e+003, 1.689801e+002
1.090718e+003, 1.699258e+002
1.091200e+003, 1.693938e+002
1.091682e+003, 1.688713e+002
1.092164e+003, 1.686002e+002
1.092646e+003, 1.684547e+002
1.093129e+003, 1.682139e+002
1.093611e+003, 1.679511e+002
1.094093e+003, 1.678811e+002
1.094575e+003, 1.680507e+002
1.095057e+003, 1.681656e+002
1.095539e+003, 1.679478e+002
1.096021e+003, 1.678083e+002
1.096503e+003, 1.679469e+002
1.096986e+003, 1.682888e+002
1.097468e+003, 1.685502e+002
1.097950e+003, 1.687460e+002
1.098432e+003, 1.690133e+002
1.098914e+003, 1.694706e+002
1.099396e+003, 1.698160e+002
1.099878e+003, 1.697165e+002
1.100360e+003, 1.694734e+002
1.100843e+003, 1.693754e+002
1.101325e+003, 1.694350e+002
1.101807e+003, 1.695737e+002
1.102289e+003, 1.697912e+002
1.102771e+003, 1.701047e+002
1.103253e+003, 1.706590e+002
1.103735e+003, 1.711784e+002
1.104217e+003, 1.711260e+002
1.104699e+003, 1.708417e+002
1.105182e+003, 1.709906e+002
1.105664e+003, 1.721303e+002
1.106146e+003, 1.728520e+002
1.106628e+003, 1.729719e+002
1.107110e+003, 1.730787e+002
1.107592e+003, 1.739382e+002
1.108074e+003, 1.750726e+002
1.108556e+003, 1.753408e+002
1.109038e+003, 1.748929e+002
1.109521e+003, 1.747388e+002
1.110003e+003, 1.755257e+002
1.110485e+003, 1.763332e+002
1.110967e+003, 1.770780e+002
1.111449e+003, 1.776197e+002
1.111931e+003, 1.775878e+002
1.112413e+003, 1.771450e+002
1.112895e+003, 1.771186e+002
1.113377e+003, 1.776141e+002
1.113860e+003, 1.779715e+002
1.114342e+003, 1.777996e+002
1.114824e+003, 1.773543e+002
1.115306e+003, 1.766182e+002
1.115788e+003, 1.757654e+002
1.116270e+003, 1.754518e+002
1.116752e+003, 1.756633e+002
1.117234e+003, 1.757066e+002
1.117717e+003, 1.753752e+002
1.118199e+003, 1.749636e+002
1.118681e+003, 1.746643e+002
1.119163e+003, 1.744558e+002
1.119645e+003, 1.743657e+002
1.120127e+003, 1.743981e+002
1.120609e+003, 1.742101e+002
1.121091e+003, 1.737383e+002
1.121573e+003, 1.734574e+002
1.122056e+003, 1.736886e+002
1.122538e+003, 1.740129e+002
1.123020e+003, 1.738467e+002
1.123502e+003, 1.734234e+002
1.123984e+003, 1.731205e+002
1.124466e+003, 1.731574e+002
1.124948e+003, 1.729367e+002
1.125430e+003, 1.723053e+002
1.125913e+003, 1.718054e+002
1.126395e+003, 1.719678e+002
1.126877e+003, 1.724391e+002
1.127359e+003, 1.723626e+002
1.127841e+003, 1.719154e+002
1.128323e+003, 1.715857e+002
1.128805e+003, 1.715942e+002
1.129287e+003, 1.716926e+002
1.129770e+003, 1.718752e+002
1.130252e+003, 1.720804e+002
1.130734e+003, 1.722827e+002
1.131216e+003, 1.724559e+002
1.131698e+003, 1.724588e+002
1.132180e+003, 1.723107e+002
1.132662e+003, 1.722063e+002
1.133144e+003, 1.723502e+002
1.133626e+003, 1.724275e+002
1.134109e+003, 1.723122e+002
1.134591e+003, 1.720753e+002
1.135073e+003, 1.717274e+002
1.135555e+003, 1.713044e+002
1.136037e+003, 1.713061e+002
1.136519e+003, 1.718008e+002
1.137001e+003, 1.722675e+002
1.137483e+003, 1.724475e+002
1.137965e+003, 1.723734e+002
1.138448e+003, 1.719024e+002
1.138930e+003, 1.712090e+002
1.139412e+003, 1.707825e+002
1.139894e+003, 1.706259e+002
1.140376e+003, 1.707483e+002
1.140858e+003, 1.712303e+002
1.141340e+003, 1.715759e+002
1.141822e+003, 1.711577e+002
1.142304e+003, 1.705100e+002
1.142787e+003, 1.701116e+002
1.143269e+003, 1.700010e+002
1.143751e+003, 1.698666e+002
1.144233e+003, 1.696617e+002
1.144715e+003, 1.697204e+002
1.145197e+003, 1.702578e+002
1.145679e+003, 1.708563e+002
1.146161e+003, 1.708499e+002
1.146644e+003, 1.706277e+002
1.147126e+003, 1.707838e+002
1.147608e+003, 1.716484e+002
1.148090e+003, 1.718209e+002
1.148572e+003, 1.710292e+002
1.149054e+003, 1.703426e+002
1.149536e+003, 1.703418e+002
1.150018e+003, 1.706946e+002
1.150500e+003, 1.708565e+002
1.150983e+003, 1.709229e+002
1.151465e+003, 1.711080e+002
1.151947e+003, 1.717295e+002
1.152429e+003, 1.718774e+002
1.152911e+003, 1.713351e+002
1.153393e+003, 1.706780e+002
1.153875e+003, 1.702571e+002
1.154357e+003, 1.700377e+002
1.154840e+003, 1.699979e+002
1.155322e+003, 1.700819e+002
1.155804e+003, 1.701139e+002
1.156286e+003, 1.698682e+002
1.156768e+003, 1.698111e+002
1.157250e+003, 1.701468e+002
1.157732e+003, 1.704694e+002
1.158214e+003, 1.702817e+002
1.158697e+003, 1.697531e+002
1.159179e+003, 1.696859e+002
1.159661e+003, 1.700190e+002
1.160143e+003, 1.702801e+002
1.160625e+003, 1.702452e+002
1.161107e+003, 1.700680e+002
1.161589e+003, 1.696295e+002
1.162071e+003, 1.692399e+002
1.162553e+003, 1.693644e+002
1.163036e+003, 1.699272e+002
1.163518e+003, 1.704287e+002
1.164000e+003, 1.708306e+002
1.164482e+003, 1.711053e+002
1.164964e+003, 1.711771e+002
1.165446e+003, 1.711814e+002
1.165928e+003, 1.711114e+002
1.166410e+003, 1.710611e+002
1.166892e+003, 1.713308e+002
1.167375e+003, 1.718730e+002
1.167857e+003, 1.718403e+002
1.168339e+003, 1.710983e+002
1.168821e+003, 1.703837e+002
1.169303e+003, 1.701518e+002
1.169785e+003, 1.701952e+002
1.170267e+003, 1.704742e+002
1.170749e+003, 1.709003e+002
1.171231e+003, 1.712762e+002
1.171714e+003, 1.716019e+002
1.172196e+003, 1.719450e+002
1.172678e+003, 1.723615e+002
1.173160e+003, 1.724909e+002
1.173642e+003, 1.714844e+002
1.174124e+003, 1.705053e+002
1.174606e+003, 1.707333e+002
1.175088e+003, 1.719288e+002
1.175571e+003, 1.726437e+002
1.176053e+003, 1.728644e+002
1.176535e+003, 1.729664e+002
1.177017e+003, 1.730042e+002
1.177499e+003, 1.731492e+002
1.177981e+003, 1.737472e+002
1.178463e+003, 1.744054e+002
1.178945e+003, 1.747082e+002
1.179427e+003, 1.746383e+002
1.179910e+003, 1.745535e+002
1.180392e+003, 1.744273e+002
1.180874e+003, 1.745764e+002
1.181356e+003, 1.752477e+002
1.181838e+003, 1.759380e+002
1.182320e+003, 1.760457e+002
1.182802e+003, 1.759052e+002
1.183284e+003, 1.759106e+002
1.183767e+003, 1.761192e+002
1.184249e+003, 1.763399e+002
1.184731e+003, 1.765986e+002
1.185213e+003, 1.766927e+002
1.185695e+003, 1.764064e+002
1.186177e+003, 1.760992e+002
1.186659e+003, 1.763673e+002
1.187141e+003, 1.768103e+002
1.187624e+003, 1.768061e+002
1.188106e+003, 1.761292e+002
1.188588e+003, 1.755985e+002
1.189070e+003, 1.752258e+002
1.189552e+003, 1.749682e+002
1.190034e+003, 1.748260e+002
1.190516e+003, 1.747627e+002
1.190998e+003, 1.748592e+002
1.191480e+003, 1.749612e+002
1.191963e+003, 1.747649e+002
1.192445e+003, 1.739719e+002
1.192927e+003, 1.735792e+002
1.193409e+003, 1.736516e+002
1.193891e+003, 1.738127e+002
1.194373e+003, 1.737559e+002
1.194855e+003, 1.736678e+002
1.195337e+003, 1.738243e+002
1.195819e+003, 1.741339e+002
1.196302e+003, 1.744088e+002
1.196784e+003, 1.747579e+002
1.197266e+003, 1.746844e+002
1.197748e+003, 1.740761e+002
1.198230e+003, 1.734800e+002
1.198712e+003, 1.733584e+002
1.199194e+003, 1.734964e+002
1.199676e+003, 1.736684e+002
1.200158e+003, 1.738595e+002
1.200641e+003, 1.740551e+002
1.201123e+003, 1.743719e+002
1.201605e+003, 1.743614e+002
1.202087e+003, 1.739093e+002
1.202569e+003, 1.735074e+002
1.203051e+003, 1.737205e+002
1.203533e+003, 1.741697e+002
1.204015e+003, 1.743516e+002
1.204498e+003, 1.743245e+002
1.204980e+003, 1.743578e+002
1.205462e+003, 1.744957e+002
1.205944e+003, 1.747012e+002
1.206426e+003, 1.750065e+002
1.206908e+003, 1.752423e+002
1.207390e+003, 1.751209e+002
1.207872e+003, 1.749130e+002
1.208354e+003, 1.750568e+002
1.208837e+003, 1.754579e+002
1.209319e+003, 1.755662e+002
1.209801e+003, 1.750391e+002
1.210283e+003, 1.750189e+002
1.210765e+003, 1.757492e+002
1.211247e+003, 1.765872e+002
1.211729e+003, 1.768705e+002
1.212211e+003, 1.768686e+002
1.212694e+003, 1.768561e+002
1.213176e+003, 1.768631e+002
1.213658e+003, 1.769296e+002
1.214140e+003, 1.770127e+002
1.214622e+003, 1.773522e+002
1.215104e+003, 1.780838e+002
1.215586e+003, 1.786570e+002
1.216068e+003, 1.782533e+002
1.216551e+003, 1.775080e+002
1.217033e+003, 1.771053e+002
1.217515e+003, 1.770946e+002
1.217997e+003, 1.774420e+002
1.218479e+003, 1.783217e+002
1.218961e+003, 1.788269e+002
1.219443e+003, 1.787254e+002
1.219925e+003, 1.785655e+002
1.220407e+003, 1.790769e+002
1.220890e+003, 1.797895e+002
1.221372e+003, 1.801540e+002
1.221854e+003, 1.801571e+002
1.222336e+003, 1.802279e+002
1.222818e+003, 1.804163e+002
1.223300e+003, 1.805329e+002
1.223782e+003, 1.805454e+002
1.224264e+003, 1.804543e+002
1.224746e+003, 1.800814e+002
1.225229e+003, 1.797361e+002
1.225711e+003, 1.798168e+002
1.226193e+003, 1.803067e+002
1.226675e+003, 1.806032e+002
1.227157e+003, 1.806720e+002
1.227639e+003, 1.806882e+002
1.228121e+003, 1.806600e+002
1.228603e+003, 1.807356e+002
1.229085e+003, 1.812271e+002
1.229568e+003, 1.817782e+002
1.230050e+003, 1.820975e+002
1.230532e+003, 1.821414e+002
1.231014e+003, 1.818335e+002
1.231496e+003, 1.811250e+002
1.231978e+003, 1.804593e+002
1.232460e+003, 1.799197e+002
1.232942e+003, 1.795309e+002
1.233425e+003, 1.793708e+002
1.233907e+003, 1.793211e+002
1.234389e+003, 1.792596e+002
1.234871e+003, 1.792049e+002
1.235353e+003, 1.793786e+002
1.235835e+003, 1.798006e+002
1.236317e+003, 1.799226e+002
1.236799e+003, 1.795491e+002
1.237281e+003, 1.792081e+002
1.237764e+003, 1.794369e+002
1.238246e+003, 1.798048e+002
1.238728e+003, 1.799546e+002
1.239210e+003, 1.799398e+002
1.239692e+003, 1.799996e+002
1.240174e+003, 1.801313e+002
1.240656e+003, 1.803252e+002
1.241138e+003, 1.806049e+002
1.241621e+003, 1.807739e+002
1.242103e+003, 1.806320e+002
1.242585e+003, 1.803635e+002
1.243067e+003, 1.799632e+002
1.243549e+003, 1.795710e+002
1.244031e+003, 1.798770e+002
1.244513e+003, 1.807597e+002
1.244995e+003, 1.811545e+002
1.245478e+003, 1.807189e+002
1.245960e+003, 1.803971e+002
1.246442e+003, 1.810371e+002
1.246924e+003, 1.816516e+002
1.247406e+003, 1.816196e+002
1.247888e+003, 1.812163e+002
1.248370e+003, 1.814116e+002
1.248852e+003, 1.820126e+002
1.249334e+003, 1.821288e+002
1.249817e+003, 1.814816e+002
1.250299e+003, 1.808922e+002
1.250781e+003, 1.808755e+002
1.251263e+003, 1.808474e+002
1.251745e+003, 1.804838e+002
1.252227e+003, 1.800450e+002
1.252709e+003, 1.803026e+002
1.253191e+003, 1.810090e+002
1.253673e+003, 1.814326e+002
1.254156e+003, 1.813959e+002
1.254638e+003, 1.813213e+002
1.255120e+003, 1.812987e+002
1.255602e+003, 1.813400e+002
1.256084e+003, 1.815110e+002
1.256566e+003, 1.816576e+002
1.257048e+003, 1.812756e+002
1.257530e+003, 1.806920e+002
1.258012e+003, 1.806241e+002
1.258495e+003, 1.812379e+002
1.258977e+003, 1.818813e+002
1.259459e+003, 1.825004e+002
1.259941e+003, 1.830395e+002
1.260423e+003, 1.835451e+002
1.260905e+003, 1.838192e+002
1.261387e+003, 1.833814e+002
1.261869e+003, 1.825889e+002
1.262352e+003, 1.818864e+002
1.262834e+003, 1.813378e+002
1.263316e+003, 1.812319e+002
1.263798e+003, 1.817506e+002
1.264280e+003, 1.820236e+002
1.264762e+003, 1.817176e+002
1.265244e+003, 1.813147e+002
1.265726e+003, 1.813273e+002
1.266208e+003, 1.816163e+002
1.266691e+003, 1.821409e+002
1.267173e+003, 1.828726e+002
1.267655e+003, 1.832596e+002
1.268137e+003, 1.832897e+002
1.268619e+003, 1.830173e+002
1.269101e+003, 1.823544e+002
1.269583e+003, 1.818528e+002
1.270065e+003, 1.822359e+002
1.270548e+003, 1.828482e+002
1.271030e+003, 1.830323e+002
1.271512e+003, 1.829119e+002
1.271994e+003, 1.832419e+002
1.272476e+003, 1.839997e+002
1.272958e+003, 1.840607e+002
1.273440e+003, 1.830678e+002
1.273922e+003, 1.821953e+002
1.274405e+003, 1.826165e+002
1.274887e+003, 1.830847e+002
1.275369e+003, 1.828140e+002
1.275851e+003, 1.820626e+002
1.276333e+003, 1.813817e+002
1.276815e+003, 1.808488e+002
1.277297e+003, 1.809736e+002
1.277779e+003, 1.818927e+002
1.278261e+003, 1.827694e+002
1.278744e+003, 1.831063e+002
1.279226e+003, 1.833792e+002
1.279708e+003, 1.837796e+002
1.280190e+003, 1.841978e+002
1.280672e+003, 1.844336e+002
1.281154e+003, 1.845262e+002
1.281636e+003, 1.846134e+002
1.282118e+003, 1.847132e+002
1.282600e+003, 1.845915e+002
1.283083e+003, 1.838291e+002
1.283565e+003, 1.834836e+002
1.284047e+003, 1.838966e+002
1.284529e+003, 1.845822e+002
1.285011e+003, 1.848522e+002
1.285493e+003, 1.849351e+002
1.285975e+003, 1.852661e+002
1.286457e+003, 1.858419e+002
1.286939e+003, 1.859328e+002
1.287422e+003, 1.852101e+002
1.287904e+003, 1.850672e+002
1.288386e+003, 1.858717e+002
1.288868e+003, 1.868351e+002
1.289350e+003, 1.871588e+002
1.289832e+003, 1.871684e+002
1.290314e+003, 1.871745e+002
1.290796e+003, 1.871572e+002
1.291279e+003, 1.869234e+002
1.291761e+003, 1.864342e+002
1.292243e+003, 1.860744e+002
1.292725e+003, 1.858913e+002
1.293207e+003, 1.858983e+002
1.293689e+003, 1.862794e+002
1.294171e+003, 1.866753e+002
1.294653e+003, 1.868481e+002
1.295135e+003, 1.868601e+002
1.295618e+003, 1.867253e+002
1.296100e+003, 1.864811e+002
1.296582e+003, 1.865567e+002
1.297064e+003, 1.869925e+002
1.297546e+003, 1.874256e+002
1.298028e+003, 1.877450e+002
1.298510e+003, 1.877771e+002
1.298992e+003, 1.873645e+002
1.299475e+003, 1.868814e+002
1.299957e+003, 1.868419e+002
1.300439e+003, 1.871279e+002
1.300921e+003, 1.873651e+002
1.301403e+003, 1.875639e+002
1.301885e+003, 1.878909e+002
##END=



