##NAMES=Wadeite
##RRUFFID=R130537
##IDEAL CHEMISTRY=K_2_Zr^4+^Si_3_O_9_
##LOCALITY=Potash Corporation of Saskatchewan mine, Penobsquis, Kings County, New Brunswick, Canada
##OWNER=RRUFF
##SOURCE=Donald M Doell and Brian Roulston
##DESCRIPTION=Colorless grains, associated with anhydrite and boracite, embedded in halite. Halite is dissolved in water.
##STATUS=The identification of this mineral has been confirmed by single-crystal X-ray diffraction.
##URL=rruff.info/R130537
8.936163e+001, 0.000000e+000
8.984375e+001, 8.459490e+001
9.032587e+001, 8.566708e+001
9.080798e+001, 8.588206e+001
9.129010e+001, 8.493594e+001
9.177222e+001, 8.348415e+001
9.225433e+001, 8.225904e+001
9.273645e+001, 8.124305e+001
9.321857e+001, 8.030654e+001
9.370068e+001, 7.939448e+001
9.418280e+001, 7.849039e+001
9.466492e+001, 7.755293e+001
9.514703e+001, 7.655716e+001
9.562915e+001, 7.552415e+001
9.611127e+001, 7.442943e+001
9.659338e+001, 7.324920e+001
9.707550e+001, 7.216293e+001
9.755762e+001, 7.142574e+001
9.803973e+001, 7.104095e+001
9.852185e+001, 7.070303e+001
9.900397e+001, 7.031653e+001
9.948608e+001, 6.988023e+001
9.996820e+001, 6.933274e+001
1.004503e+002, 6.863564e+001
1.009324e+002, 6.786330e+001
1.014146e+002, 6.719894e+001
1.018967e+002, 6.670353e+001
1.023788e+002, 6.612569e+001
1.028609e+002, 6.526019e+001
1.033430e+002, 6.394976e+001
1.038251e+002, 6.286794e+001
1.043073e+002, 6.201626e+001
1.047894e+002, 6.142626e+001
1.052715e+002, 6.133998e+001
1.057536e+002, 6.223673e+001
1.062357e+002, 6.310909e+001
1.067178e+002, 6.323680e+001
1.072000e+002, 6.206811e+001
1.076821e+002, 6.095314e+001
1.081642e+002, 6.010636e+001
1.086463e+002, 5.955622e+001
1.091284e+002, 5.887783e+001
1.096105e+002, 5.789863e+001
1.100927e+002, 5.686424e+001
1.105748e+002, 5.601348e+001
1.110569e+002, 5.543032e+001
1.115390e+002, 5.495502e+001
1.120211e+002, 5.462793e+001
1.125032e+002, 5.455114e+001
1.129854e+002, 5.423747e+001
1.134675e+002, 5.347809e+001
1.139496e+002, 5.247298e+001
1.144317e+002, 5.149941e+001
1.149138e+002, 5.033699e+001
1.153959e+002, 4.943922e+001
1.158781e+002, 4.911500e+001
1.163602e+002, 4.979417e+001
1.168423e+002, 5.023167e+001
1.173244e+002, 4.982299e+001
1.178065e+002, 4.882253e+001
1.182886e+002, 4.787780e+001
1.187708e+002, 4.717369e+001
1.192529e+002, 4.667650e+001
1.197350e+002, 4.639241e+001
1.202171e+002, 4.651197e+001
1.206992e+002, 4.661536e+001
1.211813e+002, 4.645683e+001
1.216635e+002, 4.605450e+001
1.221456e+002, 4.550541e+001
1.226277e+002, 4.472337e+001
1.231098e+002, 4.386399e+001
1.235919e+002, 4.313328e+001
1.240740e+002, 4.265356e+001
1.245562e+002, 4.230331e+001
1.250383e+002, 4.195016e+001
1.255204e+002, 4.159267e+001
1.260025e+002, 4.131352e+001
1.264846e+002, 4.130312e+001
1.269667e+002, 4.144203e+001
1.274489e+002, 4.143167e+001
1.279310e+002, 4.098664e+001
1.284131e+002, 4.033042e+001
1.288952e+002, 3.994029e+001
1.293773e+002, 3.986876e+001
1.298594e+002, 3.986470e+001
1.303416e+002, 3.965155e+001
1.308237e+002, 3.923943e+001
1.313058e+002, 3.868789e+001
1.317879e+002, 3.780992e+001
1.322700e+002, 3.674391e+001
1.327521e+002, 3.627385e+001
1.332343e+002, 3.663866e+001
1.337164e+002, 3.730143e+001
1.341985e+002, 3.717844e+001
1.346806e+002, 3.621296e+001
1.351627e+002, 3.520829e+001
1.356448e+002, 3.470233e+001
1.361270e+002, 3.469803e+001
1.366091e+002, 3.477100e+001
1.370912e+002, 3.493481e+001
1.375733e+002, 3.511096e+001
1.380554e+002, 3.499097e+001
1.385375e+002, 3.448518e+001
1.390197e+002, 3.394246e+001
1.395018e+002, 3.364487e+001
1.399839e+002, 3.365312e+001
1.404660e+002, 3.365670e+001
1.409481e+002, 3.361768e+001
1.414302e+002, 3.353434e+001
1.419124e+002, 3.339751e+001
1.423945e+002, 3.324249e+001
1.428766e+002, 3.298805e+001
1.433587e+002, 3.251627e+001
1.438408e+002, 3.167920e+001
1.443229e+002, 3.093208e+001
1.448051e+002, 3.035524e+001
1.452872e+002, 2.993778e+001
1.457693e+002, 2.975812e+001
1.462514e+002, 3.001097e+001
1.467335e+002, 3.037732e+001
1.472156e+002, 3.044123e+001
1.476978e+002, 2.995923e+001
1.481799e+002, 2.947451e+001
1.486620e+002, 2.912795e+001
1.491441e+002, 2.899281e+001
1.496262e+002, 2.880218e+001
1.501083e+002, 2.845966e+001
1.505905e+002, 2.807959e+001
1.510726e+002, 2.786322e+001
1.515547e+002, 2.811444e+001
1.520368e+002, 2.826941e+001
1.525189e+002, 2.811538e+001
1.530010e+002, 2.728209e+001
1.534832e+002, 2.678217e+001
1.539653e+002, 2.697653e+001
1.544474e+002, 2.756506e+001
1.549295e+002, 2.782733e+001
1.554116e+002, 2.736966e+001
1.558937e+002, 2.678704e+001
1.563759e+002, 2.634600e+001
1.568580e+002, 2.612005e+001
1.573401e+002, 2.598786e+001
1.578222e+002, 2.600765e+001
1.583043e+002, 2.612669e+001
1.587864e+002, 2.615045e+001
1.592686e+002, 2.598146e+001
1.597507e+002, 2.572678e+001
1.602328e+002, 2.545377e+001
1.607149e+002, 2.511920e+001
1.611970e+002, 2.482788e+001
1.616791e+002, 2.462781e+001
1.621613e+002, 2.451107e+001
1.626434e+002, 2.440626e+001
1.631255e+002, 2.427690e+001
1.636076e+002, 2.415175e+001
1.640897e+002, 2.405643e+001
1.645718e+002, 2.403385e+001
1.650540e+002, 2.401439e+001
1.655361e+002, 2.392789e+001
1.660182e+002, 2.377994e+001
1.665003e+002, 2.371234e+001
1.669824e+002, 2.384830e+001
1.674645e+002, 2.409584e+001
1.679467e+002, 2.433891e+001
1.684288e+002, 2.432835e+001
1.689109e+002, 2.443916e+001
1.693930e+002, 2.508563e+001
1.698751e+002, 2.630986e+001
1.703572e+002, 2.740874e+001
1.708394e+002, 2.779256e+001
1.713215e+002, 2.774401e+001
1.718036e+002, 2.773655e+001
1.722857e+002, 2.772200e+001
1.727678e+002, 2.797968e+001
1.732499e+002, 2.892059e+001
1.737321e+002, 3.065526e+001
1.742142e+002, 3.249287e+001
1.746963e+002, 3.377462e+001
1.751784e+002, 3.472680e+001
1.756605e+002, 3.589080e+001
1.761426e+002, 3.743737e+001
1.766248e+002, 3.938129e+001
1.771069e+002, 4.179448e+001
1.775890e+002, 4.474295e+001
1.780711e+002, 4.795876e+001
1.785532e+002, 5.118327e+001
1.790353e+002, 5.446321e+001
1.795175e+002, 5.783843e+001
1.799996e+002, 6.126872e+001
1.804817e+002, 6.483391e+001
1.809638e+002, 6.880263e+001
1.814459e+002, 7.328386e+001
1.819280e+002, 7.799162e+001
1.824102e+002, 8.276860e+001
1.828923e+002, 8.750982e+001
1.833744e+002, 9.212531e+001
1.838565e+002, 9.632630e+001
1.843386e+002, 1.003108e+002
1.848207e+002, 1.045359e+002
1.853029e+002, 1.091664e+002
1.857850e+002, 1.139478e+002
1.862671e+002, 1.186908e+002
1.867492e+002, 1.233622e+002
1.872313e+002, 1.277224e+002
1.877134e+002, 1.314237e+002
1.881956e+002, 1.346286e+002
1.886777e+002, 1.379988e+002
1.891598e+002, 1.418395e+002
1.896419e+002, 1.457198e+002
1.901240e+002, 1.487725e+002
1.906061e+002, 1.510215e+002
1.910883e+002, 1.526620e+002
1.915704e+002, 1.536989e+002
1.920525e+002, 1.541932e+002
1.925346e+002, 1.546517e+002
1.930167e+002, 1.551545e+002
1.934988e+002, 1.555730e+002
1.939810e+002, 1.553902e+002
1.944631e+002, 1.544919e+002
1.949452e+002, 1.534837e+002
1.954273e+002, 1.520738e+002
1.959094e+002, 1.502760e+002
1.963915e+002, 1.488506e+002
1.968737e+002, 1.480525e+002
1.973558e+002, 1.476804e+002
1.978379e+002, 1.470627e+002
1.983200e+002, 1.462198e+002
1.988021e+002, 1.451013e+002
1.992842e+002, 1.435963e+002
1.997664e+002, 1.416840e+002
2.002485e+002, 1.398430e+002
2.007306e+002, 1.382767e+002
2.012127e+002, 1.368649e+002
2.016948e+002, 1.348122e+002
2.021769e+002, 1.320198e+002
2.026591e+002, 1.289263e+002
2.031412e+002, 1.258592e+002
2.036233e+002, 1.227479e+002
2.041054e+002, 1.200332e+002
2.045875e+002, 1.178837e+002
2.050696e+002, 1.162349e+002
2.055518e+002, 1.145470e+002
2.060339e+002, 1.127931e+002
2.065160e+002, 1.110515e+002
2.069981e+002, 1.093993e+002
2.074802e+002, 1.078603e+002
2.079623e+002, 1.063498e+002
2.084445e+002, 1.048264e+002
2.089266e+002, 1.032878e+002
2.094087e+002, 1.019044e+002
2.098908e+002, 1.007030e+002
2.103729e+002, 9.958215e+001
2.108550e+002, 9.836119e+001
2.113372e+002, 9.692437e+001
2.118193e+002, 9.584885e+001
2.123014e+002, 9.545831e+001
2.127835e+002, 9.575880e+001
2.132656e+002, 9.531962e+001
2.137477e+002, 9.380254e+001
2.142299e+002, 9.202299e+001
2.147120e+002, 9.100469e+001
2.151941e+002, 9.099550e+001
2.156762e+002, 9.101055e+001
2.161583e+002, 9.077917e+001
2.166404e+002, 9.028371e+001
2.171226e+002, 8.992776e+001
2.176047e+002, 8.978511e+001
2.180868e+002, 8.969228e+001
2.185689e+002, 8.945938e+001
2.190510e+002, 8.907986e+001
2.195331e+002, 8.856467e+001
2.200153e+002, 8.783453e+001
2.204974e+002, 8.683964e+001
2.209795e+002, 8.617273e+001
2.214616e+002, 8.591039e+001
2.219437e+002, 8.588642e+001
2.224258e+002, 8.592805e+001
2.229080e+002, 8.612626e+001
2.233901e+002, 8.619572e+001
2.238722e+002, 8.603722e+001
2.243543e+002, 8.562234e+001
2.248364e+002, 8.523018e+001
2.253185e+002, 8.490060e+001
2.258007e+002, 8.455898e+001
2.262828e+002, 8.407899e+001
2.267649e+002, 8.334010e+001
2.272470e+002, 8.269907e+001
2.277291e+002, 8.225912e+001
2.282112e+002, 8.202396e+001
2.286934e+002, 8.191917e+001
2.291755e+002, 8.206429e+001
2.296576e+002, 8.223427e+001
2.301397e+002, 8.210419e+001
2.306218e+002, 8.145619e+001
2.311039e+002, 8.090820e+001
2.315861e+002, 8.064754e+001
2.320682e+002, 8.071803e+001
2.325503e+002, 8.076673e+001
2.330324e+002, 8.087247e+001
2.335145e+002, 8.089677e+001
2.339966e+002, 8.060339e+001
2.344788e+002, 7.966579e+001
2.349609e+002, 7.901119e+001
2.354430e+002, 7.900207e+001
2.359251e+002, 7.979494e+001
2.364072e+002, 8.010456e+001
2.368893e+002, 7.968373e+001
2.373715e+002, 7.898380e+001
2.378536e+002, 7.856831e+001
2.383357e+002, 7.856194e+001
2.388178e+002, 7.861213e+001
2.392999e+002, 7.864616e+001
2.397820e+002, 7.866688e+001
2.402642e+002, 7.862653e+001
2.407463e+002, 7.844868e+001
2.412284e+002, 7.827058e+001
2.417105e+002, 7.829610e+001
2.421926e+002, 7.873831e+001
2.426747e+002, 7.898788e+001
2.431569e+002, 7.883257e+001
2.436390e+002, 7.820219e+001
2.441211e+002, 7.773811e+001
2.446032e+002, 7.749181e+001
2.450853e+002, 7.736050e+001
2.455674e+002, 7.722871e+001
2.460496e+002, 7.708794e+001
2.465317e+002, 7.696761e+001
2.470138e+002, 7.690586e+001
2.474959e+002, 7.692165e+001
2.479780e+002, 7.676960e+001
2.484601e+002, 7.635351e+001
2.489423e+002, 7.586731e+001
2.494244e+002, 7.551517e+001
2.499065e+002, 7.530566e+001
2.503886e+002, 7.522419e+001
2.508707e+002, 7.533672e+001
2.513528e+002, 7.566164e+001
2.518350e+002, 7.573847e+001
2.523171e+002, 7.544424e+001
2.527992e+002, 7.503582e+001
2.532813e+002, 7.477201e+001
2.537634e+002, 7.469860e+001
2.542455e+002, 7.467269e+001
2.547277e+002, 7.466827e+001
2.552098e+002, 7.468435e+001
2.556919e+002, 7.475779e+001
2.561740e+002, 7.499401e+001
2.566561e+002, 7.515401e+001
2.571382e+002, 7.494405e+001
2.576204e+002, 7.410789e+001
2.581025e+002, 7.352919e+001
2.585846e+002, 7.346521e+001
2.590667e+002, 7.388264e+001
2.595488e+002, 7.406348e+001
2.600309e+002, 7.390530e+001
2.605131e+002, 7.365712e+001
2.609952e+002, 7.351254e+001
2.614773e+002, 7.344250e+001
2.619594e+002, 7.358137e+001
2.624415e+002, 7.408784e+001
2.629236e+002, 7.489085e+001
2.634058e+002, 7.513497e+001
2.638879e+002, 7.455927e+001
2.643700e+002, 7.387351e+001
2.648521e+002, 7.367136e+001
2.653342e+002, 7.412785e+001
2.658163e+002, 7.447964e+001
2.662985e+002, 7.458820e+001
2.667806e+002, 7.449846e+001
2.672627e+002, 7.447974e+001
2.677448e+002, 7.457377e+001
2.682269e+002, 7.464991e+001
2.687090e+002, 7.456838e+001
2.691912e+002, 7.424986e+001
2.696733e+002, 7.412135e+001
2.701554e+002, 7.429027e+001
2.706375e+002, 7.467250e+001
2.711196e+002, 7.494130e+001
2.716017e+002, 7.509543e+001
2.720839e+002, 7.513814e+001
2.725660e+002, 7.501195e+001
2.730481e+002, 7.466566e+001
2.735302e+002, 7.449754e+001
2.740123e+002, 7.459476e+001
2.744944e+002, 7.486208e+001
2.749766e+002, 7.501723e+001
2.754587e+002, 7.503751e+001
2.759408e+002, 7.503699e+001
2.764229e+002, 7.506190e+001
2.769050e+002, 7.510686e+001
2.773871e+002, 7.527706e+001
2.778693e+002, 7.564793e+001
2.783514e+002, 7.607171e+001
2.788335e+002, 7.617988e+001
2.793156e+002, 7.592681e+001
2.797977e+002, 7.563577e+001
2.802798e+002, 7.548707e+001
2.807620e+002, 7.548252e+001
2.812441e+002, 7.545512e+001
2.817262e+002, 7.538595e+001
2.822083e+002, 7.530919e+001
2.826904e+002, 7.537825e+001
2.831725e+002, 7.562028e+001
2.836547e+002, 7.561306e+001
2.841368e+002, 7.492390e+001
2.846189e+002, 7.364973e+001
2.851010e+002, 7.292806e+001
2.855831e+002, 7.285353e+001
2.860652e+002, 7.313400e+001
2.865474e+002, 7.345240e+001
2.870295e+002, 7.380523e+001
2.875116e+002, 7.401308e+001
2.879937e+002, 7.390367e+001
2.884758e+002, 7.354733e+001
2.889579e+002, 7.338013e+001
2.894401e+002, 7.342338e+001
2.899222e+002, 7.353330e+001
2.904043e+002, 7.354406e+001
2.908864e+002, 7.346469e+001
2.913685e+002, 7.336512e+001
2.918506e+002, 7.326658e+001
2.923328e+002, 7.316830e+001
2.928149e+002, 7.305146e+001
2.932970e+002, 7.290981e+001
2.937791e+002, 7.281382e+001
2.942612e+002, 7.289462e+001
2.947433e+002, 7.310117e+001
2.952255e+002, 7.322472e+001
2.957076e+002, 7.315186e+001
2.961897e+002, 7.297768e+001
2.966718e+002, 7.293214e+001
2.971539e+002, 7.301039e+001
2.976360e+002, 7.301126e+001
2.981182e+002, 7.262708e+001
2.986003e+002, 7.202788e+001
2.990824e+002, 7.163562e+001
2.995645e+002, 7.160654e+001
3.000466e+002, 7.179225e+001
3.005287e+002, 7.203785e+001
3.010109e+002, 7.233205e+001
3.014930e+002, 7.260314e+001
3.019751e+002, 7.285743e+001
3.024572e+002, 7.304171e+001
3.029393e+002, 7.304151e+001
3.034214e+002, 7.277735e+001
3.039036e+002, 7.242525e+001
3.043857e+002, 7.214501e+001
3.048678e+002, 7.193126e+001
3.053499e+002, 7.175808e+001
3.058320e+002, 7.152658e+001
3.063141e+002, 7.136148e+001
3.067963e+002, 7.142452e+001
3.072784e+002, 7.176521e+001
3.077605e+002, 7.226901e+001
3.082426e+002, 7.309223e+001
3.087247e+002, 7.402747e+001
3.092068e+002, 7.457775e+001
3.096890e+002, 7.415303e+001
3.101711e+002, 7.342442e+001
3.106532e+002, 7.293738e+001
3.111353e+002, 7.275839e+001
3.116174e+002, 7.279256e+001
3.120995e+002, 7.321152e+001
3.125817e+002, 7.377203e+001
3.130638e+002, 7.408876e+001
3.135459e+002, 7.371012e+001
3.140280e+002, 7.326162e+001
3.145101e+002, 7.315451e+001
3.149922e+002, 7.343457e+001
3.154744e+002, 7.374571e+001
3.159565e+002, 7.398220e+001
3.164386e+002, 7.413892e+001
3.169207e+002, 7.420782e+001
3.174028e+002, 7.411683e+001
3.178849e+002, 7.400651e+001
3.183671e+002, 7.392114e+001
3.188492e+002, 7.386275e+001
3.193313e+002, 7.384085e+001
3.198134e+002, 7.377551e+001
3.202955e+002, 7.379102e+001
3.207776e+002, 7.398576e+001
3.212598e+002, 7.464023e+001
3.217419e+002, 7.519931e+001
3.222240e+002, 7.552332e+001
3.227061e+002, 7.563693e+001
3.231882e+002, 7.567652e+001
3.236703e+002, 7.546755e+001
3.241525e+002, 7.532823e+001
3.246346e+002, 7.542932e+001
3.251167e+002, 7.576463e+001
3.255988e+002, 7.637090e+001
3.260809e+002, 7.752663e+001
3.265630e+002, 7.898240e+001
3.270452e+002, 8.005775e+001
3.275273e+002, 8.030358e+001
3.280094e+002, 8.050516e+001
3.284915e+002, 8.095179e+001
3.289736e+002, 8.180262e+001
3.294557e+002, 8.253388e+001
3.299379e+002, 8.308388e+001
3.304200e+002, 8.353590e+001
3.309021e+002, 8.402912e+001
3.313842e+002, 8.475887e+001
3.318663e+002, 8.526735e+001
3.323484e+002, 8.531221e+001
3.328306e+002, 8.475061e+001
3.333127e+002, 8.465858e+001
3.337948e+002, 8.519182e+001
3.342769e+002, 8.605718e+001
3.347590e+002, 8.693590e+001
3.352411e+002, 8.782251e+001
3.357233e+002, 8.873374e+001
3.362054e+002, 8.956040e+001
3.366875e+002, 9.034746e+001
3.371696e+002, 9.175193e+001
3.376517e+002, 9.394961e+001
3.381339e+002, 9.642117e+001
3.386160e+002, 9.867849e+001
3.390981e+002, 1.006452e+002
3.395802e+002, 1.028670e+002
3.400623e+002, 1.054638e+002
3.405444e+002, 1.083508e+002
3.410266e+002, 1.110578e+002
3.415087e+002, 1.135726e+002
3.419908e+002, 1.161341e+002
3.424729e+002, 1.193838e+002
3.429550e+002, 1.232819e+002
3.434371e+002, 1.255772e+002
3.439193e+002, 1.260662e+002
3.444014e+002, 1.248833e+002
3.448835e+002, 1.217298e+002
3.453656e+002, 1.166211e+002
3.458477e+002, 1.114623e+002
3.463298e+002, 1.070554e+002
3.468120e+002, 1.033353e+002
3.472941e+002, 1.001902e+002
3.477762e+002, 9.757760e+001
3.482583e+002, 9.560191e+001
3.487404e+002, 9.449276e+001
3.492225e+002, 9.415486e+001
3.497047e+002, 9.418843e+001
3.501868e+002, 9.453334e+001
3.506689e+002, 9.510947e+001
3.511510e+002, 9.576881e+001
3.516331e+002, 9.651089e+001
3.521152e+002, 9.742922e+001
3.525974e+002, 9.865109e+001
3.530795e+002, 1.000973e+002
3.535616e+002, 1.016399e+002
3.540437e+002, 1.033295e+002
3.545258e+002, 1.049832e+002
3.550079e+002, 1.062394e+002
3.554901e+002, 1.072307e+002
3.559722e+002, 1.085707e+002
3.564543e+002, 1.110406e+002
3.569364e+002, 1.138575e+002
3.574185e+002, 1.161877e+002
3.579006e+002, 1.176998e+002
3.583828e+002, 1.191999e+002
3.588649e+002, 1.212922e+002
3.593470e+002, 1.237474e+002
3.598291e+002, 1.261166e+002
3.603112e+002, 1.277439e+002
3.607933e+002, 1.295697e+002
3.612755e+002, 1.322746e+002
3.617576e+002, 1.360256e+002
3.622397e+002, 1.398622e+002
3.627218e+002, 1.432422e+002
3.632039e+002, 1.465766e+002
3.636860e+002, 1.503244e+002
3.641682e+002, 1.548056e+002
3.646503e+002, 1.595588e+002
3.651324e+002, 1.643303e+002
3.656145e+002, 1.691614e+002
3.660966e+002, 1.742656e+002
3.665787e+002, 1.803723e+002
3.670609e+002, 1.863292e+002
3.675430e+002, 1.913980e+002
3.680251e+002, 1.951928e+002
3.685072e+002, 1.985093e+002
3.689893e+002, 2.016886e+002
3.694714e+002, 2.044626e+002
3.699536e+002, 2.058049e+002
3.704357e+002, 2.054892e+002
3.709178e+002, 2.039736e+002
3.713999e+002, 2.014533e+002
3.718820e+002, 1.979537e+002
3.723641e+002, 1.932714e+002
3.728463e+002, 1.869587e+002
3.733284e+002, 1.798119e+002
3.738105e+002, 1.729141e+002
3.742926e+002, 1.661467e+002
3.747747e+002, 1.598479e+002
3.752568e+002, 1.539858e+002
3.757390e+002, 1.485354e+002
3.762211e+002, 1.440669e+002
3.767032e+002, 1.406816e+002
3.771853e+002, 1.379697e+002
3.776674e+002, 1.354964e+002
3.781495e+002, 1.332508e+002
3.786317e+002, 1.312830e+002
3.791138e+002, 1.296307e+002
3.795959e+002, 1.282300e+002
3.800780e+002, 1.269033e+002
3.805601e+002, 1.256764e+002
3.810422e+002, 1.243102e+002
3.815244e+002, 1.227026e+002
3.820065e+002, 1.208276e+002
3.824886e+002, 1.185714e+002
3.829707e+002, 1.158355e+002
3.834528e+002, 1.129180e+002
3.839349e+002, 1.100808e+002
3.844171e+002, 1.073473e+002
3.848992e+002, 1.048612e+002
3.853813e+002, 1.027582e+002
3.858634e+002, 1.008897e+002
3.863455e+002, 9.892274e+001
3.868276e+002, 9.684896e+001
3.873098e+002, 9.487315e+001
3.877919e+002, 9.319047e+001
3.882740e+002, 9.170228e+001
3.887561e+002, 9.023988e+001
3.892382e+002, 8.864926e+001
3.897203e+002, 8.713622e+001
3.902025e+002, 8.587874e+001
3.906846e+002, 8.486607e+001
3.911667e+002, 8.402105e+001
3.916488e+002, 8.332838e+001
3.921309e+002, 8.278111e+001
3.926130e+002, 8.242367e+001
3.930952e+002, 8.243456e+001
3.935773e+002, 8.226523e+001
3.940594e+002, 8.146725e+001
3.945415e+002, 8.035159e+001
3.950236e+002, 7.949497e+001
3.955057e+002, 7.921952e+001
3.959879e+002, 7.910857e+001
3.964700e+002, 7.901786e+001
3.969521e+002, 7.893766e+001
3.974342e+002, 7.887200e+001
3.979163e+002, 7.893980e+001
3.983984e+002, 7.896672e+001
3.988806e+002, 7.879370e+001
3.993627e+002, 7.819847e+001
3.998448e+002, 7.764270e+001
4.003269e+002, 7.712765e+001
4.008090e+002, 7.667021e+001
4.012911e+002, 7.642127e+001
4.017733e+002, 7.649232e+001
4.022554e+002, 7.663612e+001
4.027375e+002, 7.672071e+001
4.032196e+002, 7.669530e+001
4.037017e+002, 7.674440e+001
4.041838e+002, 7.689928e+001
4.046660e+002, 7.710725e+001
4.051481e+002, 7.728458e+001
4.056302e+002, 7.745314e+001
4.061123e+002, 7.750963e+001
4.065944e+002, 7.734360e+001
4.070765e+002, 7.697574e+001
4.075587e+002, 7.691709e+001
4.080408e+002, 7.723367e+001
4.085229e+002, 7.760323e+001
4.090050e+002, 7.767568e+001
4.094871e+002, 7.746826e+001
4.099692e+002, 7.723136e+001
4.104514e+002, 7.696629e+001
4.109335e+002, 7.675864e+001
4.114156e+002, 7.681386e+001
4.118977e+002, 7.711730e+001
4.123798e+002, 7.750980e+001
4.128619e+002, 7.793739e+001
4.133441e+002, 7.836610e+001
4.138262e+002, 7.873260e+001
4.143083e+002, 7.902766e+001
4.147904e+002, 7.927840e+001
4.152725e+002, 7.949340e+001
4.157546e+002, 7.968698e+001
4.162368e+002, 7.989380e+001
4.167189e+002, 8.009204e+001
4.172010e+002, 8.033364e+001
4.176831e+002, 8.069303e+001
4.181652e+002, 8.115999e+001
4.186473e+002, 8.161119e+001
4.191295e+002, 8.190809e+001
4.196116e+002, 8.219108e+001
4.200937e+002, 8.259463e+001
4.205758e+002, 8.333614e+001
4.210579e+002, 8.393897e+001
4.215400e+002, 8.408594e+001
4.220222e+002, 8.397967e+001
4.225043e+002, 8.412461e+001
4.229864e+002, 8.489282e+001
4.234685e+002, 8.570686e+001
4.239506e+002, 8.631187e+001
4.244327e+002, 8.655853e+001
4.249149e+002, 8.704761e+001
4.253970e+002, 8.788400e+001
4.258791e+002, 8.891989e+001
4.263612e+002, 9.002513e+001
4.268433e+002, 9.117745e+001
4.273254e+002, 9.242442e+001
4.278076e+002, 9.378496e+001
4.282897e+002, 9.525650e+001
4.287718e+002, 9.676309e+001
4.292539e+002, 9.833315e+001
4.297360e+002, 9.983920e+001
4.302181e+002, 1.011615e+002
4.307003e+002, 1.022666e+002
4.311824e+002, 1.034739e+002
4.316645e+002, 1.049301e+002
4.321466e+002, 1.062624e+002
4.326287e+002, 1.068937e+002
4.331108e+002, 1.068214e+002
4.335930e+002, 1.060235e+002
4.340751e+002, 1.042706e+002
4.345572e+002, 1.018164e+002
4.350393e+002, 9.942870e+001
4.355214e+002, 9.711670e+001
4.360035e+002, 9.490008e+001
4.364857e+002, 9.276613e+001
4.369678e+002, 9.077349e+001
4.374499e+002, 8.900874e+001
4.379320e+002, 8.748855e+001
4.384141e+002, 8.621037e+001
4.388962e+002, 8.527025e+001
4.393784e+002, 8.458659e+001
4.398605e+002, 8.392126e+001
4.403426e+002, 8.305097e+001
4.408247e+002, 8.220469e+001
4.413068e+002, 8.155997e+001
4.417889e+002, 8.114262e+001
4.422711e+002, 8.086356e+001
4.427532e+002, 8.082224e+001
4.432353e+002, 8.083794e+001
4.437174e+002, 8.072308e+001
4.441995e+002, 8.022053e+001
4.446816e+002, 7.979545e+001
4.451638e+002, 7.959145e+001
4.456459e+002, 7.957842e+001
4.461280e+002, 7.960297e+001
4.466101e+002, 7.971339e+001
4.470922e+002, 7.979895e+001
4.475743e+002, 7.982021e+001
4.480565e+002, 7.980048e+001
4.485386e+002, 7.964787e+001
4.490207e+002, 7.922243e+001
4.495028e+002, 7.875327e+001
4.499849e+002, 7.856602e+001
4.504670e+002, 7.880799e+001
4.509492e+002, 7.899852e+001
4.514313e+002, 7.902745e+001
4.519134e+002, 7.891562e+001
4.523955e+002, 7.879272e+001
4.528776e+002, 7.865099e+001
4.533597e+002, 7.853633e+001
4.538419e+002, 7.847434e+001
4.543240e+002, 7.846593e+001
4.548061e+002, 7.853061e+001
4.552882e+002, 7.868189e+001
4.557703e+002, 7.887406e+001
4.562524e+002, 7.907552e+001
4.567346e+002, 7.927377e+001
4.572167e+002, 7.936913e+001
4.576988e+002, 7.923099e+001
4.581809e+002, 7.900381e+001
4.586630e+002, 7.895518e+001
4.591451e+002, 7.907529e+001
4.596273e+002, 7.921165e+001
4.601094e+002, 7.917246e+001
4.605915e+002, 7.910584e+001
4.610736e+002, 7.923806e+001
4.615557e+002, 7.973497e+001
4.620378e+002, 8.018350e+001
4.625200e+002, 8.021389e+001
4.630021e+002, 8.001286e+001
4.634842e+002, 7.994279e+001
4.639663e+002, 8.035643e+001
4.644484e+002, 8.075126e+001
4.649305e+002, 8.080135e+001
4.654127e+002, 8.046334e+001
4.658948e+002, 8.033603e+001
4.663769e+002, 8.051782e+001
4.668590e+002, 8.096976e+001
4.673411e+002, 8.166679e+001
4.678232e+002, 8.311873e+001
4.683054e+002, 8.414735e+001
4.687875e+002, 8.449752e+001
4.692696e+002, 8.443261e+001
4.697517e+002, 8.458701e+001
4.702338e+002, 8.497830e+001
4.707159e+002, 8.555652e+001
4.711981e+002, 8.631608e+001
4.716802e+002, 8.725925e+001
4.721623e+002, 8.832507e+001
4.726444e+002, 8.950026e+001
4.731265e+002, 9.079501e+001
4.736086e+002, 9.216100e+001
4.740908e+002, 9.360100e+001
4.745729e+002, 9.532262e+001
4.750550e+002, 9.742159e+001
4.755371e+002, 9.972715e+001
4.760192e+002, 1.019692e+002
4.765013e+002, 1.041534e+002
4.769835e+002, 1.062449e+002
4.774656e+002, 1.081640e+002
4.779477e+002, 1.100192e+002
4.784298e+002, 1.118904e+002
4.789119e+002, 1.137730e+002
4.793940e+002, 1.159812e+002
4.798762e+002, 1.192909e+002
4.803583e+002, 1.229106e+002
4.808404e+002, 1.257326e+002
4.813225e+002, 1.266354e+002
4.818046e+002, 1.278030e+002
4.822867e+002, 1.305638e+002
4.827689e+002, 1.344735e+002
4.832510e+002, 1.383875e+002
4.837331e+002, 1.413913e+002
4.842152e+002, 1.448015e+002
4.846973e+002, 1.493093e+002
4.851794e+002, 1.551964e+002
4.856616e+002, 1.610694e+002
4.861437e+002, 1.667097e+002
4.866258e+002, 1.723481e+002
4.871079e+002, 1.782219e+002
4.875900e+002, 1.844878e+002
4.880721e+002, 1.907910e+002
4.885543e+002, 1.972607e+002
4.890364e+002, 2.036898e+002
4.895185e+002, 2.095060e+002
4.900006e+002, 2.147485e+002
4.904827e+002, 2.191194e+002
4.909648e+002, 2.229594e+002
4.914470e+002, 2.261644e+002
4.919291e+002, 2.258187e+002
4.924112e+002, 2.216937e+002
4.928933e+002, 2.150664e+002
4.933754e+002, 2.065715e+002
4.938575e+002, 1.965121e+002
4.943397e+002, 1.861827e+002
4.948218e+002, 1.757086e+002
4.953039e+002, 1.655745e+002
4.957860e+002, 1.564693e+002
4.962681e+002, 1.483801e+002
4.967502e+002, 1.412917e+002
4.972324e+002, 1.350887e+002
4.977145e+002, 1.298656e+002
4.981966e+002, 1.258670e+002
4.986787e+002, 1.230669e+002
4.991608e+002, 1.207642e+002
4.996429e+002, 1.187129e+002
5.001251e+002, 1.169008e+002
5.006072e+002, 1.152566e+002
5.010893e+002, 1.136865e+002
5.015714e+002, 1.124204e+002
5.020535e+002, 1.115433e+002
5.025356e+002, 1.109957e+002
5.030178e+002, 1.106348e+002
5.034999e+002, 1.104707e+002
5.039820e+002, 1.104685e+002
5.044641e+002, 1.106746e+002
5.049462e+002, 1.111021e+002
5.054283e+002, 1.114021e+002
5.059105e+002, 1.114804e+002
5.063926e+002, 1.115786e+002
5.068747e+002, 1.118463e+002
5.073568e+002, 1.122687e+002
5.078389e+002, 1.130077e+002
5.083210e+002, 1.141691e+002
5.088032e+002, 1.154745e+002
5.092853e+002, 1.163432e+002
5.097674e+002, 1.168087e+002
5.102495e+002, 1.174386e+002
5.107316e+002, 1.185625e+002
5.112137e+002, 1.199694e+002
5.116959e+002, 1.212567e+002
5.121780e+002, 1.224145e+002
5.126601e+002, 1.234747e+002
5.131422e+002, 1.243608e+002
5.136243e+002, 1.251974e+002
5.141064e+002, 1.262508e+002
5.145886e+002, 1.277267e+002
5.150707e+002, 1.288327e+002
5.155528e+002, 1.288733e+002
5.160349e+002, 1.282858e+002
5.165170e+002, 1.277045e+002
5.169991e+002, 1.277824e+002
5.174813e+002, 1.274442e+002
5.179634e+002, 1.261066e+002
5.184455e+002, 1.239025e+002
5.189276e+002, 1.219397e+002
5.194097e+002, 1.207125e+002
5.198918e+002, 1.194414e+002
5.203740e+002, 1.177811e+002
5.208561e+002, 1.154963e+002
5.213382e+002, 1.135879e+002
5.218203e+002, 1.122308e+002
5.223024e+002, 1.110425e+002
5.227845e+002, 1.095425e+002
5.232667e+002, 1.076703e+002
5.237488e+002, 1.057651e+002
5.242309e+002, 1.037796e+002
5.247130e+002, 1.019276e+002
5.251951e+002, 1.008933e+002
5.256772e+002, 1.006557e+002
5.261594e+002, 1.003921e+002
5.266415e+002, 9.953600e+001
5.271236e+002, 9.833217e+001
5.276057e+002, 9.730689e+001
5.280878e+002, 9.648173e+001
5.285699e+002, 9.580830e+001
5.290521e+002, 9.522250e+001
5.295342e+002, 9.478369e+001
5.300163e+002, 9.463494e+001
5.304984e+002, 9.509546e+001
5.309805e+002, 9.533460e+001
5.314626e+002, 9.450436e+001
5.319448e+002, 9.316182e+001
5.324269e+002, 9.238909e+001
5.329090e+002, 9.322305e+001
5.333911e+002, 9.396210e+001
5.338732e+002, 9.387521e+001
5.343553e+002, 9.290057e+001
5.348375e+002, 9.236976e+001
5.353196e+002, 9.260255e+001
5.358017e+002, 9.299658e+001
5.362838e+002, 9.323540e+001
5.367659e+002, 9.329330e+001
5.372480e+002, 9.322574e+001
5.377302e+002, 9.291344e+001
5.382123e+002, 9.263781e+001
5.386944e+002, 9.291193e+001
5.391765e+002, 9.378590e+001
5.396586e+002, 9.452620e+001
5.401407e+002, 9.488341e+001
5.406229e+002, 9.502208e+001
5.411050e+002, 9.524472e+001
5.415871e+002, 9.556178e+001
5.420692e+002, 9.606541e+001
5.425513e+002, 9.683317e+001
5.430334e+002, 9.782897e+001
5.435156e+002, 9.909884e+001
5.439977e+002, 1.006632e+002
5.444798e+002, 1.020769e+002
5.449619e+002, 1.025271e+002
5.454440e+002, 1.028536e+002
5.459261e+002, 1.040185e+002
5.464083e+002, 1.069369e+002
5.468904e+002, 1.097697e+002
5.473725e+002, 1.116822e+002
5.478546e+002, 1.130648e+002
5.483367e+002, 1.147966e+002
5.488188e+002, 1.172154e+002
5.493010e+002, 1.197765e+002
5.497831e+002, 1.224040e+002
5.502652e+002, 1.250941e+002
5.507473e+002, 1.276202e+002
5.512294e+002, 1.298613e+002
5.517115e+002, 1.321497e+002
5.521937e+002, 1.347227e+002
5.526758e+002, 1.376026e+002
5.531579e+002, 1.405346e+002
5.536400e+002, 1.434606e+002
5.541221e+002, 1.465771e+002
5.546042e+002, 1.501803e+002
5.550864e+002, 1.542301e+002
5.555685e+002, 1.584721e+002
5.560506e+002, 1.627214e+002
5.565327e+002, 1.671948e+002
5.570148e+002, 1.723200e+002
5.574969e+002, 1.779572e+002
5.579791e+002, 1.836070e+002
5.584612e+002, 1.891112e+002
5.589433e+002, 1.943727e+002
5.594254e+002, 1.992150e+002
5.599075e+002, 2.036477e+002
5.603896e+002, 2.078288e+002
5.608718e+002, 2.124544e+002
5.613539e+002, 2.164202e+002
5.618360e+002, 2.189120e+002
5.623181e+002, 2.198773e+002
5.628002e+002, 2.192210e+002
5.632823e+002, 2.169039e+002
5.637645e+002, 2.130750e+002
5.642466e+002, 2.078799e+002
5.647287e+002, 2.012017e+002
5.652108e+002, 1.934928e+002
5.656929e+002, 1.845001e+002
5.661750e+002, 1.746334e+002
5.666572e+002, 1.651494e+002
5.671393e+002, 1.560221e+002
5.676214e+002, 1.478286e+002
5.681035e+002, 1.409636e+002
5.685856e+002, 1.353061e+002
5.690677e+002, 1.301640e+002
5.695499e+002, 1.255577e+002
5.700320e+002, 1.214552e+002
5.705141e+002, 1.179906e+002
5.709962e+002, 1.150260e+002
5.714783e+002, 1.123419e+002
5.719604e+002, 1.098230e+002
5.724426e+002, 1.076449e+002
5.729247e+002, 1.060287e+002
5.734068e+002, 1.048003e+002
5.738889e+002, 1.036112e+002
5.743710e+002, 1.023247e+002
5.748531e+002, 1.011016e+002
5.753353e+002, 9.994314e+001
5.758174e+002, 9.887142e+001
5.762995e+002, 9.805886e+001
5.767816e+002, 9.769328e+001
5.772637e+002, 9.737920e+001
5.777458e+002, 9.695247e+001
5.782280e+002, 9.640714e+001
5.787101e+002, 9.572987e+001
5.791922e+002, 9.480184e+001
5.796743e+002, 9.400195e+001
5.801564e+002, 9.388705e+001
5.806385e+002, 9.440707e+001
5.811207e+002, 9.460590e+001
5.816028e+002, 9.424412e+001
5.820849e+002, 9.365533e+001
5.825670e+002, 9.332101e+001
5.830491e+002, 9.318369e+001
5.835313e+002, 9.304138e+001
5.840134e+002, 9.273079e+001
5.844955e+002, 9.242431e+001
5.849776e+002, 9.238046e+001
5.854597e+002, 9.252961e+001
5.859418e+002, 9.247918e+001
5.864240e+002, 9.185546e+001
5.869061e+002, 9.112424e+001
5.873882e+002, 9.053712e+001
5.878703e+002, 9.014372e+001
5.883524e+002, 8.982368e+001
5.888345e+002, 8.961507e+001
5.893167e+002, 8.943978e+001
5.897988e+002, 8.923940e+001
5.902809e+002, 8.900666e+001
5.907630e+002, 8.876126e+001
5.912451e+002, 8.849423e+001
5.917272e+002, 8.822401e+001
5.922094e+002, 8.796565e+001
5.926915e+002, 8.771663e+001
5.931736e+002, 8.756096e+001
5.936557e+002, 8.755785e+001
5.941378e+002, 8.764699e+001
5.946199e+002, 8.775019e+001
5.951021e+002, 8.784757e+001
5.955842e+002, 8.778112e+001
5.960663e+002, 8.719433e+001
5.965484e+002, 8.652086e+001
5.970305e+002, 8.636533e+001
5.975126e+002, 8.679586e+001
5.979948e+002, 8.710691e+001
5.984769e+002, 8.672334e+001
5.989590e+002, 8.614637e+001
5.994411e+002, 8.581744e+001
5.999232e+002, 8.605939e+001
6.004053e+002, 8.615832e+001
6.008875e+002, 8.586290e+001
6.013696e+002, 8.541842e+001
6.018517e+002, 8.516619e+001
6.023338e+002, 8.518123e+001
6.028159e+002, 8.524911e+001
6.032980e+002, 8.534579e+001
6.037802e+002, 8.546256e+001
6.042623e+002, 8.558437e+001
6.047444e+002, 8.571593e+001
6.052265e+002, 8.580025e+001
6.057086e+002, 8.573092e+001
6.061907e+002, 8.558873e+001
6.066729e+002, 8.569518e+001
6.071550e+002, 8.604411e+001
6.076371e+002, 8.641486e+001
6.081192e+002, 8.667052e+001
6.086013e+002, 8.682269e+001
6.090834e+002, 8.683578e+001
6.095656e+002, 8.664742e+001
6.100477e+002, 8.657000e+001
6.105298e+002, 8.679517e+001
6.110119e+002, 8.721535e+001
6.114940e+002, 8.771407e+001
6.119761e+002, 8.844975e+001
6.124583e+002, 8.903908e+001
6.129404e+002, 8.934579e+001
6.134225e+002, 8.948632e+001
6.139046e+002, 8.970534e+001
6.143867e+002, 8.996385e+001
6.148688e+002, 9.037415e+001
6.153510e+002, 9.096278e+001
6.158331e+002, 9.173140e+001
6.163152e+002, 9.280118e+001
6.167973e+002, 9.420998e+001
6.172794e+002, 9.549446e+001
6.177615e+002, 9.615684e+001
6.182437e+002, 9.644628e+001
6.187258e+002, 9.708648e+001
6.192079e+002, 9.812362e+001
6.196900e+002, 9.934403e+001
6.201721e+002, 1.007568e+002
6.206542e+002, 1.021716e+002
6.211364e+002, 1.032668e+002
6.216185e+002, 1.036893e+002
6.221006e+002, 1.044596e+002
6.225827e+002, 1.063721e+002
6.230648e+002, 1.088058e+002
6.235469e+002, 1.108928e+002
6.240291e+002, 1.120364e+002
6.245112e+002, 1.133765e+002
6.249933e+002, 1.151833e+002
6.254754e+002, 1.173035e+002
6.259575e+002, 1.191613e+002
6.264396e+002, 1.206893e+002
6.269218e+002, 1.221997e+002
6.274039e+002, 1.238837e+002
6.278860e+002, 1.256642e+002
6.283681e+002, 1.271002e+002
6.288502e+002, 1.281925e+002
6.293323e+002, 1.289210e+002
6.298145e+002, 1.293685e+002
6.302966e+002, 1.294136e+002
6.307787e+002, 1.288205e+002
6.312608e+002, 1.275580e+002
6.317429e+002, 1.257585e+002
6.322250e+002, 1.233317e+002
6.327072e+002, 1.205078e+002
6.331893e+002, 1.174552e+002
6.336714e+002, 1.139671e+002
6.341535e+002, 1.107369e+002
6.346356e+002, 1.080508e+002
6.351177e+002, 1.057185e+002
6.355999e+002, 1.033655e+002
6.360820e+002, 1.007589e+002
6.365641e+002, 9.850567e+001
6.370462e+002, 9.678989e+001
6.375283e+002, 9.547107e+001
6.380104e+002, 9.399899e+001
6.384926e+002, 9.229209e+001
6.389747e+002, 9.088831e+001
6.394568e+002, 9.018112e+001
6.399389e+002, 8.992531e+001
6.404210e+002, 8.923249e+001
6.409031e+002, 8.812742e+001
6.413853e+002, 8.712299e+001
6.418674e+002, 8.662601e+001
6.423495e+002, 8.641924e+001
6.428316e+002, 8.630038e+001
6.433137e+002, 8.625813e+001
6.437958e+002, 8.615900e+001
6.442780e+002, 8.583329e+001
6.447601e+002, 8.547478e+001
6.452422e+002, 8.526418e+001
6.457243e+002, 8.545946e+001
6.462064e+002, 8.544053e+001
6.466885e+002, 8.506055e+001
6.471707e+002, 8.452417e+001
6.476528e+002, 8.409695e+001
6.481349e+002, 8.377908e+001
6.486170e+002, 8.356010e+001
6.490991e+002, 8.344984e+001
6.495812e+002, 8.342166e+001
6.500634e+002, 8.342915e+001
6.505455e+002, 8.346897e+001
6.510276e+002, 8.348826e+001
6.515097e+002, 8.338704e+001
6.519918e+002, 8.329699e+001
6.524739e+002, 8.354240e+001
6.529561e+002, 8.403671e+001
6.534382e+002, 8.434034e+001
6.539203e+002, 8.401367e+001
6.544024e+002, 8.354032e+001
6.548845e+002, 8.322073e+001
6.553666e+002, 8.308950e+001
6.558488e+002, 8.307117e+001
6.563309e+002, 8.331581e+001
6.568130e+002, 8.354028e+001
6.572951e+002, 8.353624e+001
6.577772e+002, 8.308332e+001
6.582593e+002, 8.306413e+001
6.587415e+002, 8.371856e+001
6.592236e+002, 8.442020e+001
6.597057e+002, 8.432616e+001
6.601878e+002, 8.345834e+001
6.606699e+002, 8.279102e+001
6.611520e+002, 8.251461e+001
6.616342e+002, 8.248873e+001
6.621163e+002, 8.259472e+001
6.625984e+002, 8.279823e+001
6.630805e+002, 8.301195e+001
6.635626e+002, 8.327390e+001
6.640447e+002, 8.345708e+001
6.645269e+002, 8.342684e+001
6.650090e+002, 8.324048e+001
6.654911e+002, 8.306614e+001
6.659732e+002, 8.292883e+001
6.664553e+002, 8.283918e+001
6.669374e+002, 8.278830e+001
6.674196e+002, 8.277873e+001
6.679017e+002, 8.289723e+001
6.683838e+002, 8.323558e+001
6.688659e+002, 8.353555e+001
6.693480e+002, 8.367709e+001
6.698301e+002, 8.366159e+001
6.703123e+002, 8.348214e+001
6.707944e+002, 8.310183e+001
6.712765e+002, 8.283949e+001
6.717586e+002, 8.314928e+001
6.722407e+002, 8.375891e+001
6.727228e+002, 8.401522e+001
6.732050e+002, 8.378694e+001
6.736871e+002, 8.349309e+001
6.741692e+002, 8.347948e+001
6.746513e+002, 8.356014e+001
6.751334e+002, 8.351273e+001
6.756155e+002, 8.314976e+001
6.760977e+002, 8.284938e+001
6.765798e+002, 8.266541e+001
6.770619e+002, 8.260894e+001
6.775440e+002, 8.272717e+001
6.780261e+002, 8.319250e+001
6.785082e+002, 8.343645e+001
6.789904e+002, 8.323214e+001
6.794725e+002, 8.284161e+001
6.799546e+002, 8.305651e+001
6.804367e+002, 8.388107e+001
6.809188e+002, 8.456461e+001
6.814009e+002, 8.474100e+001
6.818831e+002, 8.460440e+001
6.823652e+002, 8.446943e+001
6.828473e+002, 8.433025e+001
6.833294e+002, 8.416185e+001
6.838115e+002, 8.381789e+001
6.842936e+002, 8.353906e+001
6.847758e+002, 8.355610e+001
6.852579e+002, 8.387928e+001
6.857400e+002, 8.412316e+001
6.862221e+002, 8.417509e+001
6.867042e+002, 8.412585e+001
6.871863e+002, 8.399098e+001
6.876685e+002, 8.370869e+001
6.881506e+002, 8.362159e+001
6.886327e+002, 8.376943e+001
6.891148e+002, 8.402614e+001
6.895969e+002, 8.433279e+001
6.900790e+002, 8.467875e+001
6.905612e+002, 8.485934e+001
6.910433e+002, 8.483701e+001
6.915254e+002, 8.472726e+001
6.920075e+002, 8.460086e+001
6.924896e+002, 8.449368e+001
6.929717e+002, 8.447926e+001
6.934539e+002, 8.460366e+001
6.939360e+002, 8.477183e+001
6.944181e+002, 8.502162e+001
6.949002e+002, 8.525646e+001
6.953823e+002, 8.532675e+001
6.958644e+002, 8.492744e+001
6.963466e+002, 8.470472e+001
6.968287e+002, 8.484734e+001
6.973108e+002, 8.520132e+001
6.977929e+002, 8.535349e+001
6.982750e+002, 8.526074e+001
6.987571e+002, 8.513744e+001
6.992393e+002, 8.505647e+001
6.997214e+002, 8.499272e+001
7.002035e+002, 8.479314e+001
7.006856e+002, 8.448951e+001
7.011677e+002, 8.437051e+001
7.016498e+002, 8.483127e+001
7.021320e+002, 8.542659e+001
7.026141e+002, 8.558164e+001
7.030962e+002, 8.533643e+001
7.035783e+002, 8.516722e+001
7.040604e+002, 8.535314e+001
7.045425e+002, 8.562711e+001
7.050247e+002, 8.586018e+001
7.055068e+002, 8.604964e+001
7.059889e+002, 8.611668e+001
7.064710e+002, 8.591167e+001
7.069531e+002, 8.577722e+001
7.074352e+002, 8.599672e+001
7.079174e+002, 8.661827e+001
7.083995e+002, 8.703174e+001
7.088816e+002, 8.721647e+001
7.093637e+002, 8.724744e+001
7.098458e+002, 8.714919e+001
7.103279e+002, 8.696300e+001
7.108101e+002, 8.676784e+001
7.112922e+002, 8.656010e+001
7.117743e+002, 8.643631e+001
7.122564e+002, 8.653246e+001
7.127385e+002, 8.672947e+001
7.132206e+002, 8.688421e+001
7.137028e+002, 8.690381e+001
7.141849e+002, 8.695567e+001
7.146670e+002, 8.709021e+001
7.151491e+002, 8.726554e+001
7.156312e+002, 8.743848e+001
7.161133e+002, 8.763413e+001
7.165955e+002, 8.774255e+001
7.170776e+002, 8.771368e+001
7.175597e+002, 8.762181e+001
7.180418e+002, 8.760314e+001
7.185239e+002, 8.765852e+001
7.190060e+002, 8.781021e+001
7.194882e+002, 8.811080e+001
7.199703e+002, 8.846017e+001
7.204524e+002, 8.868504e+001
7.209345e+002, 8.884888e+001
7.214166e+002, 8.914912e+001
7.218987e+002, 8.991394e+001
7.223809e+002, 9.060921e+001
7.228630e+002, 9.088393e+001
7.233451e+002, 9.079356e+001
7.238272e+002, 9.088463e+001
7.243093e+002, 9.129338e+001
7.247914e+002, 9.171255e+001
7.252736e+002, 9.201051e+001
7.257557e+002, 9.220583e+001
7.262378e+002, 9.255529e+001
7.267199e+002, 9.308789e+001
7.272020e+002, 9.357372e+001
7.276841e+002, 9.375961e+001
7.281663e+002, 9.382033e+001
7.286484e+002, 9.417880e+001
7.291305e+002, 9.483903e+001
7.296126e+002, 9.551136e+001
7.300947e+002, 9.609766e+001
7.305768e+002, 9.654774e+001
7.310590e+002, 9.680241e+001
7.315411e+002, 9.682928e+001
7.320232e+002, 9.678958e+001
7.325053e+002, 9.652430e+001
7.329874e+002, 9.635239e+001
7.334695e+002, 9.655758e+001
7.339517e+002, 9.741850e+001
7.344338e+002, 9.758599e+001
7.349159e+002, 9.690835e+001
7.353980e+002, 9.597130e+001
7.358801e+002, 9.537795e+001
7.363622e+002, 9.506213e+001
7.368444e+002, 9.477622e+001
7.373265e+002, 9.450325e+001
7.378086e+002, 9.414785e+001
7.382907e+002, 9.345616e+001
7.387728e+002, 9.269572e+001
7.392549e+002, 9.224792e+001
7.397371e+002, 9.250053e+001
7.402192e+002, 9.258212e+001
7.407013e+002, 9.209035e+001
7.411834e+002, 9.136084e+001
7.416655e+002, 9.084155e+001
7.421476e+002, 9.063382e+001
7.426298e+002, 9.039370e+001
7.431119e+002, 9.004295e+001
7.435940e+002, 8.968905e+001
7.440761e+002, 8.954300e+001
7.445582e+002, 8.958943e+001
7.450403e+002, 8.968972e+001
7.455225e+002, 8.985931e+001
7.460046e+002, 8.996169e+001
7.464867e+002, 8.975228e+001
7.469688e+002, 8.935222e+001
7.474509e+002, 8.902502e+001
7.479330e+002, 8.893877e+001
7.484152e+002, 8.888360e+001
7.488973e+002, 8.877793e+001
7.493794e+002, 8.863831e+001
7.498615e+002, 8.851328e+001
7.503436e+002, 8.830814e+001
7.508257e+002, 8.830916e+001
7.513079e+002, 8.868961e+001
7.517900e+002, 8.929092e+001
7.522721e+002, 8.948389e+001
7.527542e+002, 8.927155e+001
7.532363e+002, 8.904897e+001
7.537184e+002, 8.908009e+001
7.542006e+002, 8.917221e+001
7.546827e+002, 8.896675e+001
7.551648e+002, 8.853246e+001
7.556469e+002, 8.816321e+001
7.561290e+002, 8.798521e+001
7.566111e+002, 8.793139e+001
7.570933e+002, 8.801569e+001
7.575754e+002, 8.822395e+001
7.580575e+002, 8.835941e+001
7.585396e+002, 8.838150e+001
7.590217e+002, 8.837126e+001
7.595038e+002, 8.833852e+001
7.599860e+002, 8.829114e+001
7.604681e+002, 8.834696e+001
7.609502e+002, 8.851517e+001
7.614323e+002, 8.866846e+001
7.619144e+002, 8.866891e+001
7.623965e+002, 8.861617e+001
7.628787e+002, 8.876951e+001
7.633608e+002, 8.910527e+001
7.638429e+002, 8.928224e+001
7.643250e+002, 8.887157e+001
7.648071e+002, 8.840063e+001
7.652892e+002, 8.824554e+001
7.657714e+002, 8.847374e+001
7.662535e+002, 8.872801e+001
7.667356e+002, 8.911211e+001
7.672177e+002, 8.935251e+001
7.676998e+002, 8.920240e+001
7.681819e+002, 8.861584e+001
7.686641e+002, 8.851085e+001
7.691462e+002, 8.894861e+001
7.696283e+002, 8.940914e+001
7.701104e+002, 8.943835e+001
7.705925e+002, 8.918566e+001
7.710746e+002, 8.887915e+001
7.715568e+002, 8.853498e+001
7.720389e+002, 8.831753e+001
7.725210e+002, 8.844914e+001
7.730031e+002, 8.866725e+001
7.734852e+002, 8.875403e+001
7.739673e+002, 8.861375e+001
7.744495e+002, 8.856284e+001
7.749316e+002, 8.868145e+001
7.754137e+002, 8.880562e+001
7.758958e+002, 8.880040e+001
7.763779e+002, 8.865296e+001
7.768600e+002, 8.852778e+001
7.773422e+002, 8.842398e+001
7.778243e+002, 8.838182e+001
7.783064e+002, 8.847662e+001
7.787885e+002, 8.865421e+001
7.792706e+002, 8.886002e+001
7.797527e+002, 8.911828e+001
7.802349e+002, 8.918441e+001
7.807170e+002, 8.853088e+001
7.811991e+002, 8.784488e+001
7.816812e+002, 8.778007e+001
7.821633e+002, 8.901108e+001
7.826454e+002, 8.972739e+001
7.831276e+002, 8.976249e+001
7.836097e+002, 8.948220e+001
7.840918e+002, 8.917784e+001
7.845739e+002, 8.884689e+001
7.850560e+002, 8.867702e+001
7.855381e+002, 8.869767e+001
7.860203e+002, 8.882508e+001
7.865024e+002, 8.904565e+001
7.869845e+002, 8.928761e+001
7.874666e+002, 8.942326e+001
7.879487e+002, 8.940314e+001
7.884308e+002, 8.934372e+001
7.889130e+002, 8.914625e+001
7.893951e+002, 8.901840e+001
7.898772e+002, 8.919633e+001
7.903593e+002, 9.003970e+001
7.908414e+002, 9.054150e+001
7.913235e+002, 9.059429e+001
7.918057e+002, 9.043467e+001
7.922878e+002, 9.030698e+001
7.927699e+002, 9.020988e+001
7.932520e+002, 9.014488e+001
7.937341e+002, 9.009827e+001
7.942162e+002, 9.014345e+001
7.946984e+002, 9.049052e+001
7.951805e+002, 9.094341e+001
7.956626e+002, 9.119339e+001
7.961447e+002, 9.114671e+001
7.966268e+002, 9.094740e+001
7.971089e+002, 9.044633e+001
7.975911e+002, 8.992461e+001
7.980732e+002, 8.970322e+001
7.985553e+002, 8.994270e+001
7.990374e+002, 9.009070e+001
7.995195e+002, 9.006432e+001
8.000016e+002, 9.004550e+001
8.004838e+002, 9.037862e+001
8.009659e+002, 9.097144e+001
8.014480e+002, 9.124351e+001
8.019301e+002, 9.101723e+001
8.024122e+002, 9.075572e+001
8.028943e+002, 9.093230e+001
8.033765e+002, 9.133698e+001
8.038586e+002, 9.171175e+001
8.043407e+002, 9.208195e+001
8.048228e+002, 9.225237e+001
8.053049e+002, 9.200184e+001
8.057870e+002, 9.163734e+001
8.062692e+002, 9.143727e+001
8.067513e+002, 9.139406e+001
8.072334e+002, 9.157745e+001
8.077155e+002, 9.204530e+001
8.081976e+002, 9.258504e+001
8.086797e+002, 9.298144e+001
8.091619e+002, 9.322374e+001
8.096440e+002, 9.324592e+001
8.101261e+002, 9.298125e+001
8.106082e+002, 9.269915e+001
8.110903e+002, 9.257583e+001
8.115724e+002, 9.255638e+001
8.120546e+002, 9.258485e+001
8.125367e+002, 9.268688e+001
8.130188e+002, 9.278465e+001
8.135009e+002, 9.290633e+001
8.139830e+002, 9.299458e+001
8.144651e+002, 9.300490e+001
8.149473e+002, 9.294243e+001
8.154294e+002, 9.266790e+001
8.159115e+002, 9.210712e+001
8.163936e+002, 9.161774e+001
8.168757e+002, 9.172568e+001
8.173578e+002, 9.216241e+001
8.178400e+002, 9.246123e+001
8.183221e+002, 9.250114e+001
8.188042e+002, 9.247063e+001
8.192863e+002, 9.238639e+001
8.197684e+002, 9.231431e+001
8.202505e+002, 9.232993e+001
8.207327e+002, 9.253062e+001
8.212148e+002, 9.257776e+001
8.216969e+002, 9.239461e+001
8.221790e+002, 9.219192e+001
8.226611e+002, 9.225043e+001
8.231432e+002, 9.251402e+001
8.236254e+002, 9.258379e+001
8.241075e+002, 9.239182e+001
8.245896e+002, 9.223131e+001
8.250717e+002, 9.251351e+001
8.255538e+002, 9.290553e+001
8.260359e+002, 9.300849e+001
8.265181e+002, 9.268002e+001
8.270002e+002, 9.232512e+001
8.274823e+002, 9.197794e+001
8.279644e+002, 9.168415e+001
8.284465e+002, 9.143986e+001
8.289286e+002, 9.119540e+001
8.294108e+002, 9.133574e+001
8.298929e+002, 9.194547e+001
8.303750e+002, 9.257690e+001
8.308571e+002, 9.279641e+001
8.313392e+002, 9.273470e+001
8.318214e+002, 9.267322e+001
8.323035e+002, 9.264329e+001
8.327856e+002, 9.253842e+001
8.332677e+002, 9.207298e+001
8.337498e+002, 9.166151e+001
8.342319e+002, 9.169932e+001
8.347141e+002, 9.242761e+001
8.351962e+002, 9.270474e+001
8.356783e+002, 9.228647e+001
8.361604e+002, 9.182434e+001
8.366425e+002, 9.171923e+001
8.371246e+002, 9.195852e+001
8.376068e+002, 9.248804e+001
8.380889e+002, 9.331009e+001
8.385710e+002, 9.392782e+001
8.390531e+002, 9.368052e+001
8.395352e+002, 9.320053e+001
8.400173e+002, 9.325771e+001
8.404995e+002, 9.389305e+001
8.409816e+002, 9.435773e+001
8.414637e+002, 9.433483e+001
8.419458e+002, 9.413973e+001
8.424279e+002, 9.382558e+001
8.429100e+002, 9.340075e+001
8.433922e+002, 9.346813e+001
8.438743e+002, 9.414729e+001
8.443564e+002, 9.465771e+001
8.448385e+002, 9.428072e+001
8.453206e+002, 9.346880e+001
8.458027e+002, 9.337058e+001
8.462849e+002, 9.386827e+001
8.467670e+002, 9.430962e+001
8.472491e+002, 9.429134e+001
8.477312e+002, 9.414802e+001
8.482133e+002, 9.398295e+001
8.486954e+002, 9.383354e+001
8.491776e+002, 9.392004e+001
8.496597e+002, 9.435574e+001
8.501418e+002, 9.481871e+001
8.506239e+002, 9.524049e+001
8.511060e+002, 9.559209e+001
8.515881e+002, 9.573245e+001
8.520703e+002, 9.568076e+001
8.525524e+002, 9.559219e+001
8.530345e+002, 9.553062e+001
8.535166e+002, 9.547871e+001
8.539987e+002, 9.533823e+001
8.544808e+002, 9.519273e+001
8.549630e+002, 9.525595e+001
8.554451e+002, 9.573621e+001
8.559272e+002, 9.626713e+001
8.564093e+002, 9.689661e+001
8.568914e+002, 9.746670e+001
8.573735e+002, 9.755896e+001
8.578557e+002, 9.712363e+001
8.583378e+002, 9.681815e+001
8.588199e+002, 9.686227e+001
8.593020e+002, 9.701835e+001
8.597841e+002, 9.690499e+001
8.602662e+002, 9.664151e+001
8.607484e+002, 9.648278e+001
8.612305e+002, 9.664237e+001
8.617126e+002, 9.673423e+001
8.621947e+002, 9.654919e+001
8.626768e+002, 9.624142e+001
8.631589e+002, 9.604508e+001
8.636411e+002, 9.603557e+001
8.641232e+002, 9.587535e+001
8.646053e+002, 9.544545e+001
8.650874e+002, 9.507138e+001
8.655695e+002, 9.535400e+001
8.660516e+002, 9.605167e+001
8.665338e+002, 9.637759e+001
8.670159e+002, 9.614058e+001
8.674980e+002, 9.576854e+001
8.679801e+002, 9.550040e+001
8.684622e+002, 9.528152e+001
8.689443e+002, 9.503512e+001
8.694265e+002, 9.463466e+001
8.699086e+002, 9.451980e+001
8.703907e+002, 9.482227e+001
8.708728e+002, 9.520484e+001
8.713549e+002, 9.540059e+001
8.718370e+002, 9.542124e+001
8.723192e+002, 9.535259e+001
8.728013e+002, 9.519346e+001
8.732834e+002, 9.512495e+001
8.737655e+002, 9.539622e+001
8.742476e+002, 9.576525e+001
8.747297e+002, 9.601940e+001
8.752119e+002, 9.613956e+001
8.756940e+002, 9.610947e+001
8.761761e+002, 9.572012e+001
8.766582e+002, 9.539706e+001
8.771403e+002, 9.534624e+001
8.776224e+002, 9.553909e+001
8.781046e+002, 9.553225e+001
8.785867e+002, 9.531121e+001
8.790688e+002, 9.520959e+001
8.795509e+002, 9.554446e+001
8.800330e+002, 9.605164e+001
8.805151e+002, 9.642515e+001
8.809973e+002, 9.665405e+001
8.814794e+002, 9.669998e+001
8.819615e+002, 9.632384e+001
8.824436e+002, 9.600336e+001
8.829257e+002, 9.590880e+001
8.834078e+002, 9.600439e+001
8.838900e+002, 9.626871e+001
8.843721e+002, 9.678479e+001
8.848542e+002, 9.697385e+001
8.853363e+002, 9.649519e+001
8.858184e+002, 9.588792e+001
8.863005e+002, 9.627334e+001
8.867827e+002, 9.729301e+001
8.872648e+002, 9.801461e+001
8.877469e+002, 9.786964e+001
8.882290e+002, 9.770314e+001
8.887111e+002, 9.793914e+001
8.891932e+002, 9.835163e+001
8.896754e+002, 9.860612e+001
8.901575e+002, 9.862354e+001
8.906396e+002, 9.868443e+001
8.911217e+002, 9.884348e+001
8.916038e+002, 9.897066e+001
8.920859e+002, 9.877316e+001
8.925681e+002, 9.841118e+001
8.930502e+002, 9.842529e+001
8.935323e+002, 9.894389e+001
8.940144e+002, 9.952630e+001
8.944965e+002, 9.992769e+001
8.949786e+002, 1.002141e+002
8.954608e+002, 1.004262e+002
8.959429e+002, 1.005319e+002
8.964250e+002, 1.006926e+002
8.969071e+002, 1.009024e+002
8.973892e+002, 1.011751e+002
8.978713e+002, 1.015101e+002
8.983535e+002, 1.019137e+002
8.988356e+002, 1.024452e+002
8.993177e+002, 1.030943e+002
8.997998e+002, 1.037027e+002
9.002819e+002, 1.041638e+002
9.007640e+002, 1.045495e+002
9.012462e+002, 1.048586e+002
9.017283e+002, 1.051142e+002
9.022104e+002, 1.055352e+002
9.026925e+002, 1.061116e+002
9.031746e+002, 1.069080e+002
9.036567e+002, 1.080932e+002
9.041389e+002, 1.094344e+002
9.046210e+002, 1.101478e+002
9.051031e+002, 1.102891e+002
9.055852e+002, 1.103643e+002
9.060673e+002, 1.103956e+002
9.065494e+002, 1.107023e+002
9.070316e+002, 1.117210e+002
9.075137e+002, 1.131824e+002
9.079958e+002, 1.146288e+002
9.084779e+002, 1.160294e+002
9.089600e+002, 1.172639e+002
9.094421e+002, 1.182671e+002
9.099243e+002, 1.191580e+002
9.104064e+002, 1.201007e+002
9.108885e+002, 1.210934e+002
9.113706e+002, 1.222240e+002
9.118527e+002, 1.235470e+002
9.123348e+002, 1.247427e+002
9.128170e+002, 1.255331e+002
9.132991e+002, 1.260105e+002
9.137812e+002, 1.262162e+002
9.142633e+002, 1.260608e+002
9.147454e+002, 1.260543e+002
9.152275e+002, 1.262447e+002
9.157097e+002, 1.266372e+002
9.161918e+002, 1.273443e+002
9.166739e+002, 1.283558e+002
9.171560e+002, 1.289309e+002
9.176381e+002, 1.290626e+002
9.181202e+002, 1.290793e+002
9.186024e+002, 1.290016e+002
9.190845e+002, 1.290708e+002
9.195666e+002, 1.296575e+002
9.200487e+002, 1.306743e+002
9.205308e+002, 1.316155e+002
9.210129e+002, 1.322078e+002
9.214951e+002, 1.328585e+002
9.219772e+002, 1.336714e+002
9.224593e+002, 1.346160e+002
9.229414e+002, 1.355653e+002
9.234235e+002, 1.365148e+002
9.239056e+002, 1.377158e+002
9.243878e+002, 1.393355e+002
9.248699e+002, 1.410713e+002
9.253520e+002, 1.425181e+002
9.258341e+002, 1.438797e+002
9.263162e+002, 1.455114e+002
9.267983e+002, 1.477970e+002
9.272805e+002, 1.499248e+002
9.277626e+002, 1.517076e+002
9.282447e+002, 1.534323e+002
9.287268e+002, 1.554537e+002
9.292089e+002, 1.577708e+002
9.296910e+002, 1.598460e+002
9.301732e+002, 1.616496e+002
9.306553e+002, 1.629631e+002
9.311374e+002, 1.635789e+002
9.316195e+002, 1.635904e+002
9.321016e+002, 1.631312e+002
9.325837e+002, 1.622267e+002
9.330659e+002, 1.606643e+002
9.335480e+002, 1.581206e+002
9.340301e+002, 1.552155e+002
9.345122e+002, 1.521800e+002
9.349943e+002, 1.489768e+002
9.354764e+002, 1.454444e+002
9.359586e+002, 1.415533e+002
9.364407e+002, 1.378882e+002
9.369228e+002, 1.346573e+002
9.374049e+002, 1.317654e+002
9.378870e+002, 1.291382e+002
9.383691e+002, 1.267496e+002
9.388513e+002, 1.246076e+002
9.393334e+002, 1.225648e+002
9.398155e+002, 1.209895e+002
9.402976e+002, 1.201391e+002
9.407797e+002, 1.195682e+002
9.412618e+002, 1.185546e+002
9.417440e+002, 1.171422e+002
9.422261e+002, 1.159075e+002
9.427082e+002, 1.149422e+002
9.431903e+002, 1.141368e+002
9.436724e+002, 1.133082e+002
9.441545e+002, 1.126352e+002
9.446367e+002, 1.123591e+002
9.451188e+002, 1.126499e+002
9.456009e+002, 1.127980e+002
9.460830e+002, 1.126840e+002
9.465651e+002, 1.125060e+002
9.470472e+002, 1.123031e+002
9.475294e+002, 1.121103e+002
9.480115e+002, 1.123881e+002
9.484936e+002, 1.130838e+002
9.489757e+002, 1.135861e+002
9.494578e+002, 1.133007e+002
9.499399e+002, 1.128578e+002
9.504221e+002, 1.126476e+002
9.509042e+002, 1.126847e+002
9.513863e+002, 1.129927e+002
9.518684e+002, 1.136739e+002
9.523505e+002, 1.144318e+002
9.528326e+002, 1.152726e+002
9.533148e+002, 1.160944e+002
9.537969e+002, 1.165755e+002
9.542790e+002, 1.168402e+002
9.547611e+002, 1.174443e+002
9.552432e+002, 1.185751e+002
9.557253e+002, 1.198651e+002
9.562075e+002, 1.210651e+002
9.566896e+002, 1.222800e+002
9.571717e+002, 1.236316e+002
9.576538e+002, 1.251468e+002
9.581359e+002, 1.267320e+002
9.586180e+002, 1.283819e+002
9.591002e+002, 1.301233e+002
9.595823e+002, 1.319069e+002
9.600644e+002, 1.338052e+002
9.605465e+002, 1.360562e+002
9.610286e+002, 1.386496e+002
9.615107e+002, 1.413888e+002
9.619929e+002, 1.444162e+002
9.624750e+002, 1.473416e+002
9.629571e+002, 1.498108e+002
9.634392e+002, 1.520089e+002
9.639213e+002, 1.546504e+002
9.644034e+002, 1.576982e+002
9.648856e+002, 1.613617e+002
9.653677e+002, 1.659773e+002
9.658498e+002, 1.706593e+002
9.663319e+002, 1.737052e+002
9.668140e+002, 1.758374e+002
9.672961e+002, 1.785205e+002
9.677783e+002, 1.823784e+002
9.682604e+002, 1.862589e+002
9.687425e+002, 1.900502e+002
9.692246e+002, 1.934614e+002
9.697067e+002, 1.962189e+002
9.701888e+002, 1.981230e+002
9.706710e+002, 2.006203e+002
9.711531e+002, 2.037690e+002
9.716352e+002, 2.067568e+002
9.721173e+002, 2.088312e+002
9.725994e+002, 2.104070e+002
9.730815e+002, 2.120140e+002
9.735637e+002, 2.136402e+002
9.740458e+002, 2.151396e+002
9.745279e+002, 2.160197e+002
9.750100e+002, 2.173215e+002
9.754921e+002, 2.193907e+002
9.759742e+002, 2.219926e+002
9.764564e+002, 2.245418e+002
9.769385e+002, 2.270759e+002
9.774206e+002, 2.298352e+002
9.779027e+002, 2.327785e+002
9.783848e+002, 2.362118e+002
9.788669e+002, 2.405637e+002
9.793491e+002, 2.455482e+002
9.798312e+002, 2.508347e+002
9.803133e+002, 2.563228e+002
9.807954e+002, 2.622619e+002
9.812775e+002, 2.687528e+002
9.817596e+002, 2.756344e+002
9.822418e+002, 2.831795e+002
9.827239e+002, 2.911422e+002
9.832060e+002, 2.979137e+002
9.836881e+002, 3.036474e+002
9.841702e+002, 3.097870e+002
9.846523e+002, 3.178657e+002
9.851345e+002, 3.259798e+002
9.856166e+002, 3.332472e+002
9.860987e+002, 3.396230e+002
9.865808e+002, 3.453108e+002
9.870629e+002, 3.502449e+002
9.875450e+002, 3.547274e+002
9.880272e+002, 3.588885e+002
9.885093e+002, 3.624679e+002
9.889914e+002, 3.653562e+002
9.894735e+002, 3.672755e+002
9.899556e+002, 3.675053e+002
9.904377e+002, 3.656984e+002
9.909199e+002, 3.630562e+002
9.914020e+002, 3.605958e+002
9.918841e+002, 3.569435e+002
9.923662e+002, 3.510549e+002
9.928483e+002, 3.429711e+002
9.933304e+002, 3.346489e+002
9.938126e+002, 3.260922e+002
9.942947e+002, 3.172055e+002
9.947768e+002, 3.079478e+002
9.952589e+002, 2.983174e+002
9.957410e+002, 2.878277e+002
9.962231e+002, 2.768797e+002
9.967053e+002, 2.663106e+002
9.971874e+002, 2.565474e+002
9.976695e+002, 2.471351e+002
9.981516e+002, 2.379308e+002
9.986337e+002, 2.291476e+002
9.991158e+002, 2.209492e+002
9.995980e+002, 2.132727e+002
1.000080e+003, 2.062642e+002
1.000562e+003, 1.998745e+002
1.001044e+003, 1.938233e+002
1.001526e+003, 1.875979e+002
1.002009e+003, 1.817266e+002
1.002491e+003, 1.768471e+002
1.002973e+003, 1.730641e+002
1.003455e+003, 1.691135e+002
1.003937e+003, 1.648094e+002
1.004419e+003, 1.609426e+002
1.004901e+003, 1.578640e+002
1.005383e+003, 1.554288e+002
1.005865e+003, 1.536264e+002
1.006348e+003, 1.521674e+002
1.006830e+003, 1.501682e+002
1.007312e+003, 1.464607e+002
1.007794e+003, 1.431568e+002
1.008276e+003, 1.410249e+002
1.008758e+003, 1.395069e+002
1.009240e+003, 1.380242e+002
1.009722e+003, 1.365614e+002
1.010205e+003, 1.354328e+002
1.010687e+003, 1.346806e+002
1.011169e+003, 1.339137e+002
1.011651e+003, 1.327073e+002
1.012133e+003, 1.313408e+002
1.012615e+003, 1.300150e+002
1.013097e+003, 1.287688e+002
1.013579e+003, 1.278331e+002
1.014061e+003, 1.276039e+002
1.014544e+003, 1.270755e+002
1.015026e+003, 1.258922e+002
1.015508e+003, 1.242992e+002
1.015990e+003, 1.227743e+002
1.016472e+003, 1.213340e+002
1.016954e+003, 1.200817e+002
1.017436e+003, 1.191412e+002
1.017918e+003, 1.181247e+002
1.018401e+003, 1.164860e+002
1.018883e+003, 1.148493e+002
1.019365e+003, 1.138821e+002
1.019847e+003, 1.137847e+002
1.020329e+003, 1.133919e+002
1.020811e+003, 1.126692e+002
1.021293e+003, 1.118446e+002
1.021775e+003, 1.109820e+002
1.022257e+003, 1.101787e+002
1.022740e+003, 1.096468e+002
1.023222e+003, 1.093128e+002
1.023704e+003, 1.088915e+002
1.024186e+003, 1.080944e+002
1.024668e+003, 1.074455e+002
1.025150e+003, 1.070796e+002
1.025632e+003, 1.068818e+002
1.026114e+003, 1.066702e+002
1.026596e+003, 1.064527e+002
1.027079e+003, 1.062754e+002
1.027561e+003, 1.061472e+002
1.028043e+003, 1.060459e+002
1.028525e+003, 1.059919e+002
1.029007e+003, 1.059286e+002
1.029489e+003, 1.057898e+002
1.029971e+003, 1.055656e+002
1.030453e+003, 1.054196e+002
1.030936e+003, 1.053870e+002
1.031418e+003, 1.053110e+002
1.031900e+003, 1.050866e+002
1.032382e+003, 1.048193e+002
1.032864e+003, 1.047266e+002
1.033346e+003, 1.047589e+002
1.033828e+003, 1.048017e+002
1.034310e+003, 1.048134e+002
1.034792e+003, 1.048318e+002
1.035275e+003, 1.048764e+002
1.035757e+003, 1.049223e+002
1.036239e+003, 1.049405e+002
1.036721e+003, 1.049315e+002
1.037203e+003, 1.050038e+002
1.037685e+003, 1.051593e+002
1.038167e+003, 1.051952e+002
1.038649e+003, 1.047219e+002
1.039132e+003, 1.042740e+002
1.039614e+003, 1.043355e+002
1.040096e+003, 1.048315e+002
1.040578e+003, 1.052751e+002
1.041060e+003, 1.056637e+002
1.041542e+003, 1.059175e+002
1.042024e+003, 1.059659e+002
1.042506e+003, 1.060070e+002
1.042989e+003, 1.064441e+002
1.043471e+003, 1.070754e+002
1.043953e+003, 1.074188e+002
1.044435e+003, 1.073074e+002
1.044917e+003, 1.073872e+002
1.045399e+003, 1.082024e+002
1.045881e+003, 1.089717e+002
1.046363e+003, 1.092643e+002
1.046845e+003, 1.091499e+002
1.047328e+003, 1.091401e+002
1.047810e+003, 1.092391e+002
1.048292e+003, 1.094910e+002
1.048774e+003, 1.099281e+002
1.049256e+003, 1.105113e+002
1.049738e+003, 1.113350e+002
1.050220e+003, 1.122479e+002
1.050702e+003, 1.129992e+002
1.051184e+003, 1.134795e+002
1.051667e+003, 1.139951e+002
1.052149e+003, 1.145148e+002
1.052631e+003, 1.151939e+002
1.053113e+003, 1.164192e+002
1.053595e+003, 1.178150e+002
1.054077e+003, 1.186096e+002
1.054559e+003, 1.188379e+002
1.055041e+003, 1.189744e+002
1.055523e+003, 1.191164e+002
1.056006e+003, 1.193232e+002
1.056488e+003, 1.197037e+002
1.056970e+003, 1.200850e+002
1.057452e+003, 1.200396e+002
1.057934e+003, 1.196228e+002
1.058416e+003, 1.193752e+002
1.058898e+003, 1.194390e+002
1.059380e+003, 1.194322e+002
1.059863e+003, 1.190144e+002
1.060345e+003, 1.184216e+002
1.060827e+003, 1.178432e+002
1.061309e+003, 1.172934e+002
1.061791e+003, 1.166763e+002
1.062273e+003, 1.159898e+002
1.062755e+003, 1.152424e+002
1.063237e+003, 1.144771e+002
1.063719e+003, 1.136094e+002
1.064202e+003, 1.122188e+002
1.064684e+003, 1.106807e+002
1.065166e+003, 1.097455e+002
1.065648e+003, 1.103244e+002
1.066130e+003, 1.102884e+002
1.066612e+003, 1.091672e+002
1.067094e+003, 1.077932e+002
1.067576e+003, 1.068001e+002
1.068059e+003, 1.061394e+002
1.068541e+003, 1.055635e+002
1.069023e+003, 1.050812e+002
1.069505e+003, 1.048209e+002
1.069987e+003, 1.052947e+002
1.070469e+003, 1.055531e+002
1.070951e+003, 1.049110e+002
1.071433e+003, 1.037706e+002
1.071916e+003, 1.027945e+002
1.072398e+003, 1.019600e+002
1.072880e+003, 1.016354e+002
1.073362e+003, 1.019339e+002
1.073844e+003, 1.023474e+002
1.074326e+003, 1.023582e+002
1.074808e+003, 1.022156e+002
1.075290e+003, 1.022184e+002
1.075772e+003, 1.023929e+002
1.076255e+003, 1.023678e+002
1.076737e+003, 1.020492e+002
1.077219e+003, 1.017015e+002
1.077701e+003, 1.013760e+002
1.078183e+003, 1.011242e+002
1.078665e+003, 1.011469e+002
1.079147e+003, 1.013084e+002
1.079629e+003, 1.012647e+002
1.080111e+003, 1.008225e+002
1.080594e+003, 1.004745e+002
1.081076e+003, 1.005122e+002
1.081558e+003, 1.005746e+002
1.082040e+003, 1.004089e+002
1.082522e+003, 1.000581e+002
1.083004e+003, 1.000786e+002
1.083486e+003, 1.004208e+002
1.083968e+003, 1.006156e+002
1.084450e+003, 1.001127e+002
1.084933e+003, 9.970170e+001
1.085415e+003, 1.001169e+002
1.085897e+003, 1.008510e+002
1.086379e+003, 1.010763e+002
1.086861e+003, 1.006298e+002
1.087343e+003, 1.002515e+002
1.087825e+003, 9.996716e+001
1.088307e+003, 9.980106e+001
1.088790e+003, 9.989088e+001
1.089272e+003, 1.000338e+002
1.089754e+003, 9.996855e+001
1.090236e+003, 9.971879e+001
1.090718e+003, 9.946774e+001
1.091200e+003, 9.913639e+001
1.091682e+003, 9.903050e+001
1.092164e+003, 9.926801e+001
1.092646e+003, 9.963008e+001
1.093129e+003, 9.986488e+001
1.093611e+003, 9.994290e+001
1.094093e+003, 9.967693e+001
1.094575e+003, 9.899917e+001
1.095057e+003, 9.862353e+001
1.095539e+003, 9.925988e+001
1.096021e+003, 9.983984e+001
1.096503e+003, 9.981619e+001
1.096986e+003, 9.940629e+001
1.097468e+003, 9.952029e+001
1.097950e+003, 1.000858e+002
1.098432e+003, 1.004721e+002
1.098914e+003, 1.004458e+002
1.099396e+003, 1.002857e+002
1.099878e+003, 1.000780e+002
1.100360e+003, 9.991357e+001
1.100843e+003, 9.989970e+001
1.101325e+003, 1.000543e+002
1.101807e+003, 1.001669e+002
1.102289e+003, 1.002394e+002
1.102771e+003, 1.002579e+002
1.103253e+003, 1.001992e+002
1.103735e+003, 1.000970e+002
1.104217e+003, 9.992977e+001
1.104699e+003, 9.976357e+001
1.105182e+003, 9.972842e+001
1.105664e+003, 9.996819e+001
1.106146e+003, 1.001158e+002
1.106628e+003, 1.001460e+002
1.107110e+003, 1.001297e+002
1.107592e+003, 1.001217e+002
1.108074e+003, 1.001167e+002
1.108556e+003, 1.000723e+002
1.109038e+003, 1.000090e+002
1.109521e+003, 1.000343e+002
1.110003e+003, 1.002871e+002
1.110485e+003, 1.005044e+002
1.110967e+003, 1.006264e+002
1.111449e+003, 1.006951e+002
1.111931e+003, 1.007960e+002
1.112413e+003, 1.009038e+002
1.112895e+003, 1.008568e+002
1.113377e+003, 1.006325e+002
1.113860e+003, 1.004969e+002
1.114342e+003, 1.007127e+002
1.114824e+003, 1.009613e+002
1.115306e+003, 1.010586e+002
1.115788e+003, 1.010517e+002
1.116270e+003, 1.011252e+002
1.116752e+003, 1.012759e+002
1.117234e+003, 1.012601e+002
1.117717e+003, 1.009720e+002
1.118199e+003, 1.006872e+002
1.118681e+003, 1.006456e+002
1.119163e+003, 1.007266e+002
1.119645e+003, 1.008689e+002
1.120127e+003, 1.010714e+002
1.120609e+003, 1.010432e+002
1.121091e+003, 1.007487e+002
1.121573e+003, 1.004335e+002
1.122056e+003, 1.001784e+002
1.122538e+003, 9.998975e+001
1.123020e+003, 9.982944e+001
1.123502e+003, 9.975196e+001
1.123984e+003, 9.987492e+001
1.124466e+003, 1.004733e+002
1.124948e+003, 1.005951e+002
1.125430e+003, 1.000045e+002
1.125913e+003, 9.952925e+001
1.126395e+003, 9.992248e+001
1.126877e+003, 1.007262e+002
1.127359e+003, 1.008724e+002
1.127841e+003, 1.005503e+002
1.128323e+003, 1.002801e+002
1.128805e+003, 1.004098e+002
1.129287e+003, 1.003633e+002
1.129770e+003, 9.995359e+001
1.130252e+003, 9.952283e+001
1.130734e+003, 9.938044e+001
1.131216e+003, 9.949807e+001
1.131698e+003, 9.990036e+001
1.132180e+003, 1.005180e+002
1.132662e+003, 1.008586e+002
1.133144e+003, 1.003990e+002
1.133626e+003, 9.991717e+001
1.134109e+003, 9.969849e+001
1.134591e+003, 9.961002e+001
1.135073e+003, 9.943909e+001
1.135555e+003, 9.919913e+001
1.136037e+003, 9.903440e+001
1.136519e+003, 9.896105e+001
1.137001e+003, 9.897797e+001
1.137483e+003, 9.905610e+001
1.137965e+003, 9.925197e+001
1.138448e+003, 9.984257e+001
1.138930e+003, 1.005657e+002
1.139412e+003, 1.004917e+002
1.139894e+003, 9.957414e+001
1.140376e+003, 9.880627e+001
1.140858e+003, 9.838671e+001
1.141340e+003, 9.821282e+001
1.141822e+003, 9.829345e+001
1.142304e+003, 9.849516e+001
1.142787e+003, 9.875502e+001
1.143269e+003, 9.905505e+001
1.143751e+003, 9.911020e+001
1.144233e+003, 9.886572e+001
1.144715e+003, 9.865520e+001
1.145197e+003, 9.856664e+001
1.145679e+003, 9.862197e+001
1.146161e+003, 9.905978e+001
1.146644e+003, 9.955606e+001
1.147126e+003, 9.961311e+001
1.147608e+003, 9.892592e+001
1.148090e+003, 9.876456e+001
1.148572e+003, 9.936404e+001
1.149054e+003, 9.979650e+001
1.149536e+003, 9.950309e+001
1.150018e+003, 9.889467e+001
1.150500e+003, 9.862486e+001
1.150983e+003, 9.860110e+001
1.151465e+003, 9.863992e+001
1.151947e+003, 9.872218e+001
1.152429e+003, 9.880970e+001
1.152911e+003, 9.891271e+001
1.153393e+003, 9.899477e+001
1.153875e+003, 9.898544e+001
1.154357e+003, 9.895352e+001
1.154840e+003, 9.914764e+001
1.155322e+003, 9.948866e+001
1.155804e+003, 9.971556e+001
1.156286e+003, 9.954825e+001
1.156768e+003, 9.953579e+001
1.157250e+003, 9.991108e+001
1.157732e+003, 1.002293e+002
1.158214e+003, 9.993217e+001
1.158697e+003, 9.921844e+001
1.159179e+003, 9.905844e+001
1.159661e+003, 9.936437e+001
1.160143e+003, 9.948724e+001
1.160625e+003, 9.879699e+001
1.161107e+003, 9.826508e+001
1.161589e+003, 9.820830e+001
1.162071e+003, 9.841663e+001
1.162553e+003, 9.873715e+001
1.163036e+003, 9.911944e+001
1.163518e+003, 9.915372e+001
1.164000e+003, 9.883221e+001
1.164482e+003, 9.852518e+001
1.164964e+003, 9.853384e+001
1.165446e+003, 9.852349e+001
1.165928e+003, 9.824078e+001
1.166410e+003, 9.789146e+001
1.166892e+003, 9.788647e+001
1.167375e+003, 9.820515e+001
1.167857e+003, 9.859245e+001
1.168339e+003, 9.902694e+001
1.168821e+003, 9.928062e+001
1.169303e+003, 9.894041e+001
1.169785e+003, 9.860113e+001
1.170267e+003, 9.874619e+001
1.170749e+003, 9.918151e+001
1.171231e+003, 9.936726e+001
1.171714e+003, 9.930488e+001
1.172196e+003, 9.911133e+001
1.172678e+003, 9.877541e+001
1.173160e+003, 9.854743e+001
1.173642e+003, 9.874577e+001
1.174124e+003, 9.905596e+001
1.174606e+003, 9.926060e+001
1.175088e+003, 9.935225e+001
1.175571e+003, 9.924953e+001
1.176053e+003, 9.893613e+001
1.176535e+003, 9.878654e+001
1.177017e+003, 9.896899e+001
1.177499e+003, 9.912443e+001
1.177981e+003, 9.881172e+001
1.178463e+003, 9.836929e+001
1.178945e+003, 9.810326e+001
1.179427e+003, 9.803086e+001
1.179910e+003, 9.813919e+001
1.180392e+003, 9.845127e+001
1.180874e+003, 9.872891e+001
1.181356e+003, 9.891866e+001
1.181838e+003, 9.895595e+001
1.182320e+003, 9.854494e+001
1.182802e+003, 9.807349e+001
1.183284e+003, 9.807417e+001
1.183767e+003, 9.867919e+001
1.184249e+003, 9.900332e+001
1.184731e+003, 9.902834e+001
1.185213e+003, 9.890585e+001
1.185695e+003, 9.864449e+001
1.186177e+003, 9.837222e+001
1.186659e+003, 9.825449e+001
1.187141e+003, 9.821687e+001
1.187624e+003, 9.815178e+001
1.188106e+003, 9.802739e+001
1.188588e+003, 9.793423e+001
1.189070e+003, 9.785908e+001
1.189552e+003, 9.790420e+001
1.190034e+003, 9.819312e+001
1.190516e+003, 9.856596e+001
1.190998e+003, 9.893152e+001
1.191480e+003, 9.920259e+001
1.191963e+003, 9.919426e+001
1.192445e+003, 9.864513e+001
1.192927e+003, 9.846275e+001
1.193409e+003, 9.871118e+001
1.193891e+003, 9.902679e+001
1.194373e+003, 9.918694e+001
1.194855e+003, 9.924766e+001
1.195337e+003, 9.931181e+001
1.195819e+003, 9.932696e+001
1.196302e+003, 9.915826e+001
1.196784e+003, 9.859082e+001
1.197266e+003, 9.830246e+001
1.197748e+003, 9.833598e+001
1.198230e+003, 9.851812e+001
1.198712e+003, 9.877015e+001
1.199194e+003, 9.904659e+001
1.199676e+003, 9.932911e+001
1.200158e+003, 9.958062e+001
1.200641e+003, 9.968986e+001
1.201123e+003, 9.958975e+001
1.201605e+003, 9.946751e+001
1.202087e+003, 9.932142e+001
1.202569e+003, 9.920486e+001
1.203051e+003, 9.919326e+001
1.203533e+003, 9.922301e+001
1.204015e+003, 9.918440e+001
1.204498e+003, 9.911007e+001
1.204980e+003, 9.913380e+001
1.205462e+003, 9.935356e+001
1.205944e+003, 9.945908e+001
1.206426e+003, 9.939783e+001
1.206908e+003, 9.932484e+001
1.207390e+003, 9.941402e+001
1.207872e+003, 9.956718e+001
1.208354e+003, 9.968435e+001
1.208837e+003, 9.975326e+001
1.209319e+003, 9.972622e+001
1.209801e+003, 9.947501e+001
1.210283e+003, 9.953113e+001
1.210765e+003, 1.000768e+002
1.211247e+003, 1.004719e+002
1.211729e+003, 9.967220e+001
1.212211e+003, 9.858549e+001
1.212694e+003, 9.834132e+001
1.213176e+003, 9.891912e+001
1.213658e+003, 9.991258e+001
1.214140e+003, 1.017537e+002
1.214622e+003, 1.023858e+002
1.215104e+003, 1.012849e+002
1.215586e+003, 9.990677e+001
1.216068e+003, 9.994495e+001
1.216551e+003, 1.005212e+002
1.217033e+003, 1.005633e+002
1.217515e+003, 1.000807e+002
1.217997e+003, 9.975497e+001
1.218479e+003, 9.968612e+001
1.218961e+003, 9.956512e+001
1.219443e+003, 9.931294e+001
1.219925e+003, 9.910368e+001
1.220407e+003, 9.911881e+001
1.220890e+003, 9.929170e+001
1.221372e+003, 9.961179e+001
1.221854e+003, 1.000422e+002
1.222336e+003, 1.003628e+002
1.222818e+003, 1.006017e+002
1.223300e+003, 1.005300e+002
1.223782e+003, 1.000367e+002
1.224264e+003, 9.952537e+001
1.224746e+003, 9.942953e+001
1.225229e+003, 9.955900e+001
1.225711e+003, 9.975108e+001
1.226193e+003, 9.998750e+001
1.226675e+003, 1.002576e+002
1.227157e+003, 1.006177e+002
1.227639e+003, 1.006647e+002
1.228121e+003, 1.002577e+002
1.228603e+003, 9.978889e+001
1.229085e+003, 9.946851e+001
1.229568e+003, 9.944793e+001
1.230050e+003, 1.001455e+002
1.230532e+003, 1.014179e+002
1.231014e+003, 1.018603e+002
1.231496e+003, 1.013928e+002
1.231978e+003, 1.007623e+002
1.232460e+003, 1.000745e+002
1.232942e+003, 9.958757e+001
1.233425e+003, 9.971573e+001
1.233907e+003, 1.000146e+002
1.234389e+003, 1.001097e+002
1.234871e+003, 1.000087e+002
1.235353e+003, 9.980753e+001
1.235835e+003, 9.949278e+001
1.236317e+003, 9.946833e+001
1.236799e+003, 9.987766e+001
1.237281e+003, 1.003429e+002
1.237764e+003, 1.006001e+002
1.238246e+003, 1.007389e+002
1.238728e+003, 1.008108e+002
1.239210e+003, 1.008278e+002
1.239692e+003, 1.007940e+002
1.240174e+003, 1.007116e+002
1.240656e+003, 1.006254e+002
1.241138e+003, 1.005476e+002
1.241621e+003, 1.004605e+002
1.242103e+003, 1.002396e+002
1.242585e+003, 1.001218e+002
1.243067e+003, 1.003355e+002
1.243549e+003, 1.007554e+002
1.244031e+003, 1.009003e+002
1.244513e+003, 1.008085e+002
1.244995e+003, 1.008001e+002
1.245478e+003, 1.009726e+002
1.245960e+003, 1.010835e+002
1.246442e+003, 1.009966e+002
1.246924e+003, 1.007724e+002
1.247406e+003, 1.003731e+002
1.247888e+003, 9.992665e+001
1.248370e+003, 9.988483e+001
1.248852e+003, 1.001687e+002
1.249334e+003, 1.004642e+002
1.249817e+003, 1.007107e+002
1.250299e+003, 1.008925e+002
1.250781e+003, 1.010078e+002
1.251263e+003, 1.010377e+002
1.251745e+003, 1.009389e+002
1.252227e+003, 1.007902e+002
1.252709e+003, 1.008331e+002
1.253191e+003, 1.009836e+002
1.253673e+003, 1.009541e+002
1.254156e+003, 1.006460e+002
1.254638e+003, 1.004958e+002
1.255120e+003, 1.007118e+002
1.255602e+003, 1.010200e+002
1.256084e+003, 1.014037e+002
1.256566e+003, 1.017234e+002
1.257048e+003, 1.015571e+002
1.257530e+003, 1.011560e+002
1.258012e+003, 1.010856e+002
1.258495e+003, 1.014857e+002
1.258977e+003, 1.017083e+002
1.259459e+003, 1.015357e+002
1.259941e+003, 1.014651e+002
1.260423e+003, 1.016746e+002
1.260905e+003, 1.020171e+002
1.261387e+003, 1.024278e+002
1.261869e+003, 1.027328e+002
1.262352e+003, 1.025606e+002
1.262834e+003, 1.018185e+002
1.263316e+003, 1.015330e+002
1.263798e+003, 1.019136e+002
1.264280e+003, 1.021232e+002
1.264762e+003, 1.018416e+002
1.265244e+003, 1.015313e+002
1.265726e+003, 1.018741e+002
1.266208e+003, 1.024199e+002
1.266691e+003, 1.026493e+002
1.267173e+003, 1.025165e+002
1.267655e+003, 1.024456e+002
1.268137e+003, 1.024492e+002
1.268619e+003, 1.023734e+002
1.269101e+003, 1.021301e+002
1.269583e+003, 1.020117e+002
1.270065e+003, 1.025829e+002
1.270548e+003, 1.031702e+002
1.271030e+003, 1.029593e+002
1.271512e+003, 1.022030e+002
1.271994e+003, 1.021796e+002
1.272476e+003, 1.028642e+002
1.272958e+003, 1.029840e+002
1.273440e+003, 1.021686e+002
1.273922e+003, 1.014452e+002
1.274405e+003, 1.017788e+002
1.274887e+003, 1.022075e+002
1.275369e+003, 1.021562e+002
1.275851e+003, 1.017704e+002
1.276333e+003, 1.013196e+002
1.276815e+003, 1.008831e+002
1.277297e+003, 1.009714e+002
1.277779e+003, 1.017178e+002
1.278261e+003, 1.023463e+002
1.278744e+003, 1.024287e+002
1.279226e+003, 1.023124e+002
1.279708e+003, 1.020774e+002
1.280190e+003, 1.017904e+002
1.280672e+003, 1.014801e+002
1.281154e+003, 1.012343e+002
1.281636e+003, 1.013776e+002
1.282118e+003, 1.019529e+002
1.282600e+003, 1.022932e+002
1.283083e+003, 1.020040e+002
1.283565e+003, 1.018154e+002
1.284047e+003, 1.019250e+002
1.284529e+003, 1.021195e+002
1.285011e+003, 1.020852e+002
1.285493e+003, 1.019403e+002
1.285975e+003, 1.018334e+002
1.286457e+003, 1.017880e+002
1.286939e+003, 1.018885e+002
1.287422e+003, 1.022049e+002
1.287904e+003, 1.024281e+002
1.288386e+003, 1.025003e+002
1.288868e+003, 1.024635e+002
1.289350e+003, 1.021577e+002
1.289832e+003, 1.019280e+002
1.290314e+003, 1.023597e+002
1.290796e+003, 1.032170e+002
1.291279e+003, 1.032225e+002
1.291761e+003, 1.022443e+002
1.292243e+003, 1.018487e+002
1.292725e+003, 1.022865e+002
1.293207e+003, 1.027673e+002
1.293689e+003, 1.026414e+002
1.294171e+003, 1.023546e+002
1.294653e+003, 1.021024e+002
1.295135e+003, 1.019458e+002
1.295618e+003, 1.021122e+002
1.296100e+003, 1.025336e+002
1.296582e+003, 1.024403e+002
1.297064e+003, 1.018044e+002
1.297546e+003, 1.013097e+002
1.298028e+003, 1.013918e+002
1.298510e+003, 1.016069e+002
1.298992e+003, 1.018397e+002
1.299475e+003, 1.020893e+002
1.299957e+003, 1.024252e+002
1.300439e+003, 1.027645e+002
1.300921e+003, 1.027343e+002
1.301403e+003, 1.024132e+002
1.301885e+003, 1.023277e+002
##END=



