##NAMES=Wadeite
##RRUFFID=R060036
##IDEAL CHEMISTRY=K_2_Zr^4+^Si_3_O_9_
##LOCALITY=Walgidee, Western Australia, Austrailia
##OWNER=RRUFF
##SOURCE=University of Arizona Mineral Museum
##DESCRIPTION=Tan colored water worn prismatic crystals, associated with fluorapatite
##STATUS=The identification of this mineral is confirmed by single-crystal X-ray diffraction and chemical analysis.
##URL=rruff.info/R060036
##MEASURED CHEMISTRY=K_2.00_Zr_1.00_(Si_2.95_Ti_0.05_)_Î£=3_O_9_
8.975323e+001, 0.000000e+000
9.023535e+001, 3.108269e+003
9.071747e+001, 3.044238e+003
9.119958e+001, 3.009517e+003
9.168170e+001, 3.085591e+003
9.216382e+001, 3.160794e+003
9.264594e+001, 3.207810e+003
9.312805e+001, 3.232366e+003
9.361017e+001, 3.248408e+003
9.409229e+001, 3.259563e+003
9.457440e+001, 3.265780e+003
9.505651e+001, 3.266503e+003
9.553863e+001, 3.263073e+003
9.602074e+001, 3.257728e+003
9.650286e+001, 3.251972e+003
9.698498e+001, 3.244304e+003
9.746709e+001, 3.229442e+003
9.794921e+001, 3.218168e+003
9.843133e+001, 3.211968e+003
9.891344e+001, 3.207515e+003
9.939556e+001, 3.202647e+003
9.987768e+001, 3.197751e+003
1.003598e+002, 3.194969e+003
1.008419e+002, 3.195508e+003
1.013240e+002, 3.199271e+003
1.018061e+002, 3.204039e+003
1.022883e+002, 3.210194e+003
1.027704e+002, 3.216659e+003
1.032525e+002, 3.222261e+003
1.037346e+002, 3.226722e+003
1.042167e+002, 3.231038e+003
1.046988e+002, 3.234837e+003
1.051810e+002, 3.238137e+003
1.056631e+002, 3.241123e+003
1.061452e+002, 3.243861e+003
1.066273e+002, 3.246245e+003
1.071094e+002, 3.248009e+003
1.075915e+002, 3.248551e+003
1.080737e+002, 3.248917e+003
1.085558e+002, 3.249173e+003
1.090379e+002, 3.249515e+003
1.095200e+002, 3.250362e+003
1.100021e+002, 3.251993e+003
1.104842e+002, 3.254317e+003
1.109664e+002, 3.257930e+003
1.114485e+002, 3.264020e+003
1.119306e+002, 3.270344e+003
1.124127e+002, 3.275423e+003
1.128948e+002, 3.279257e+003
1.133769e+002, 3.283285e+003
1.138591e+002, 3.289596e+003
1.143412e+002, 3.300241e+003
1.148233e+002, 3.309716e+003
1.153054e+002, 3.316810e+003
1.157875e+002, 3.323322e+003
1.162696e+002, 3.330825e+003
1.167517e+002, 3.339860e+003
1.172339e+002, 3.350278e+003
1.177160e+002, 3.361879e+003
1.181981e+002, 3.374420e+003
1.186802e+002, 3.388025e+003
1.191623e+002, 3.402770e+003
1.196444e+002, 3.418539e+003
1.201266e+002, 3.435256e+003
1.206087e+002, 3.452939e+003
1.210908e+002, 3.471474e+003
1.215729e+002, 3.490604e+003
1.220550e+002, 3.510973e+003
1.225371e+002, 3.530770e+003
1.230193e+002, 3.549421e+003
1.235014e+002, 3.567414e+003
1.239835e+002, 3.580467e+003
1.244656e+002, 3.585715e+003
1.249477e+002, 3.585009e+003
1.254298e+002, 3.579028e+003
1.259120e+002, 3.568140e+003
1.263941e+002, 3.551975e+003
1.268762e+002, 3.529088e+003
1.273583e+002, 3.495491e+003
1.278404e+002, 3.461284e+003
1.283225e+002, 3.428944e+003
1.288047e+002, 3.397992e+003
1.292868e+002, 3.367506e+003
1.297689e+002, 3.336367e+003
1.302510e+002, 3.304990e+003
1.307331e+002, 3.279593e+003
1.312152e+002, 3.264007e+003
1.316974e+002, 3.251000e+003
1.321795e+002, 3.239223e+003
1.326616e+002, 3.228688e+003
1.331437e+002, 3.220229e+003
1.336258e+002, 3.214765e+003
1.341079e+002, 3.212942e+003
1.345901e+002, 3.209843e+003
1.350722e+002, 3.203390e+003
1.355543e+002, 3.197539e+003
1.360364e+002, 3.195178e+003
1.365185e+002, 3.196335e+003
1.370006e+002, 3.198331e+003
1.374828e+002, 3.197983e+003
1.379649e+002, 3.194585e+003
1.384470e+002, 3.192568e+003
1.389291e+002, 3.192860e+003
1.394112e+002, 3.194391e+003
1.398933e+002, 3.195699e+003
1.403755e+002, 3.196257e+003
1.408576e+002, 3.197426e+003
1.413397e+002, 3.201380e+003
1.418218e+002, 3.207807e+003
1.423039e+002, 3.214594e+003
1.427860e+002, 3.221048e+003
1.432681e+002, 3.227199e+003
1.437503e+002, 3.233235e+003
1.442324e+002, 3.239285e+003
1.447145e+002, 3.245042e+003
1.451966e+002, 3.249608e+003
1.456787e+002, 3.253008e+003
1.461608e+002, 3.257616e+003
1.466430e+002, 3.266082e+003
1.471251e+002, 3.278865e+003
1.476072e+002, 3.291112e+003
1.480893e+002, 3.300085e+003
1.485714e+002, 3.309545e+003
1.490535e+002, 3.321903e+003
1.495357e+002, 3.337550e+003
1.500178e+002, 3.354936e+003
1.504999e+002, 3.371578e+003
1.509820e+002, 3.386983e+003
1.514641e+002, 3.403080e+003
1.519462e+002, 3.422312e+003
1.524284e+002, 3.441030e+003
1.529105e+002, 3.457509e+003
1.533926e+002, 3.470851e+003
1.538747e+002, 3.479968e+003
1.543568e+002, 3.482008e+003
1.548389e+002, 3.473669e+003
1.553211e+002, 3.460849e+003
1.558032e+002, 3.441109e+003
1.562853e+002, 3.417928e+003
1.567674e+002, 3.395194e+003
1.572495e+002, 3.374771e+003
1.577316e+002, 3.356368e+003
1.582138e+002, 3.338945e+003
1.586959e+002, 3.320795e+003
1.591780e+002, 3.305233e+003
1.596601e+002, 3.293425e+003
1.601422e+002, 3.284892e+003
1.606243e+002, 3.278577e+003
1.611065e+002, 3.274026e+003
1.615886e+002, 3.271365e+003
1.620707e+002, 3.270453e+003
1.625528e+002, 3.272200e+003
1.630349e+002, 3.274645e+003
1.635170e+002, 3.276397e+003
1.639991e+002, 3.277608e+003
1.644813e+002, 3.279733e+003
1.649634e+002, 3.283753e+003
1.654455e+002, 3.289446e+003
1.659276e+002, 3.296085e+003
1.664097e+002, 3.304406e+003
1.668918e+002, 3.313044e+003
1.673740e+002, 3.319885e+003
1.678561e+002, 3.324302e+003
1.683382e+002, 3.329846e+003
1.688203e+002, 3.339216e+003
1.693024e+002, 3.350748e+003
1.697845e+002, 3.362807e+003
1.702667e+002, 3.374988e+003
1.707488e+002, 3.387151e+003
1.712309e+002, 3.398799e+003
1.717130e+002, 3.409253e+003
1.721951e+002, 3.420512e+003
1.726772e+002, 3.433862e+003
1.731594e+002, 3.448352e+003
1.736415e+002, 3.462697e+003
1.741236e+002, 3.476004e+003
1.746057e+002, 3.488536e+003
1.750878e+002, 3.501633e+003
1.755699e+002, 3.515171e+003
1.760521e+002, 3.529628e+003
1.765342e+002, 3.544792e+003
1.770163e+002, 3.560937e+003
1.774984e+002, 3.578393e+003
1.779805e+002, 3.597587e+003
1.784626e+002, 3.618575e+003
1.789448e+002, 3.639728e+003
1.794269e+002, 3.660403e+003
1.799090e+002, 3.681883e+003
1.803911e+002, 3.704131e+003
1.808732e+002, 3.727455e+003
1.813553e+002, 3.752215e+003
1.818375e+002, 3.778787e+003
1.823196e+002, 3.807255e+003
1.828017e+002, 3.836815e+003
1.832838e+002, 3.868292e+003
1.837659e+002, 3.899802e+003
1.842480e+002, 3.930499e+003
1.847301e+002, 3.960264e+003
1.852123e+002, 3.989218e+003
1.856944e+002, 4.017191e+003
1.861765e+002, 4.044001e+003
1.866586e+002, 4.071106e+003
1.871407e+002, 4.099923e+003
1.876228e+002, 4.127827e+003
1.881050e+002, 4.153729e+003
1.885871e+002, 4.177273e+003
1.890692e+002, 4.197223e+003
1.895513e+002, 4.212762e+003
1.900334e+002, 4.223476e+003
1.905155e+002, 4.227193e+003
1.909977e+002, 4.221431e+003
1.914798e+002, 4.209529e+003
1.919619e+002, 4.195335e+003
1.924440e+002, 4.179499e+003
1.929261e+002, 4.160066e+003
1.934082e+002, 4.132677e+003
1.938904e+002, 4.099525e+003
1.943725e+002, 4.066551e+003
1.948546e+002, 4.035425e+003
1.953367e+002, 4.005609e+003
1.958188e+002, 3.976067e+003
1.963009e+002, 3.946961e+003
1.967831e+002, 3.917591e+003
1.972652e+002, 3.887289e+003
1.977473e+002, 3.856184e+003
1.982294e+002, 3.825183e+003
1.987115e+002, 3.793969e+003
1.991936e+002, 3.762879e+003
1.996758e+002, 3.733692e+003
2.001579e+002, 3.706412e+003
2.006400e+002, 3.681251e+003
2.011221e+002, 3.658972e+003
2.016042e+002, 3.638743e+003
2.020863e+002, 3.618806e+003
2.025685e+002, 3.597480e+003
2.030506e+002, 3.574912e+003
2.035327e+002, 3.554477e+003
2.040148e+002, 3.536977e+003
2.044969e+002, 3.521188e+003
2.049790e+002, 3.507588e+003
2.054612e+002, 3.495452e+003
2.059433e+002, 3.483097e+003
2.064254e+002, 3.468832e+003
2.069075e+002, 3.452440e+003
2.073896e+002, 3.438319e+003
2.078717e+002, 3.427708e+003
2.083539e+002, 3.418389e+003
2.088360e+002, 3.410345e+003
2.093181e+002, 3.403179e+003
2.098002e+002, 3.396202e+003
2.102823e+002, 3.388794e+003
2.107644e+002, 3.380949e+003
2.112466e+002, 3.373198e+003
2.117287e+002, 3.365437e+003
2.122108e+002, 3.357902e+003
2.126929e+002, 3.350457e+003
2.131750e+002, 3.343277e+003
2.136571e+002, 3.336713e+003
2.141393e+002, 3.331134e+003
2.146214e+002, 3.326660e+003
2.151035e+002, 3.322447e+003
2.155856e+002, 3.319405e+003
2.160677e+002, 3.315791e+003
2.165498e+002, 3.309714e+003
2.170320e+002, 3.301825e+003
2.175141e+002, 3.294994e+003
2.179962e+002, 3.292186e+003
2.184783e+002, 3.294093e+003
2.189604e+002, 3.293784e+003
2.194425e+002, 3.289288e+003
2.199247e+002, 3.284441e+003
2.204068e+002, 3.281757e+003
2.208889e+002, 3.281195e+003
2.213710e+002, 3.280928e+003
2.218531e+002, 3.279402e+003
2.223352e+002, 3.276489e+003
2.228174e+002, 3.273767e+003
2.232995e+002, 3.271175e+003
2.237816e+002, 3.268796e+003
2.242637e+002, 3.266466e+003
2.247458e+002, 3.264219e+003
2.252279e+002, 3.262832e+003
2.257100e+002, 3.263583e+003
2.261922e+002, 3.266015e+003
2.266743e+002, 3.266584e+003
2.271564e+002, 3.263556e+003
2.276385e+002, 3.259522e+003
2.281206e+002, 3.256733e+003
2.286027e+002, 3.255311e+003
2.290849e+002, 3.254639e+003
2.295670e+002, 3.254840e+003
2.300491e+002, 3.255474e+003
2.305312e+002, 3.255291e+003
2.310133e+002, 3.253124e+003
2.314954e+002, 3.250590e+003
2.319776e+002, 3.249759e+003
2.324597e+002, 3.250871e+003
2.329418e+002, 3.252005e+003
2.334239e+002, 3.251872e+003
2.339060e+002, 3.250974e+003
2.343881e+002, 3.249989e+003
2.348703e+002, 3.248957e+003
2.353524e+002, 3.248012e+003
2.358345e+002, 3.247339e+003
2.363166e+002, 3.246957e+003
2.367987e+002, 3.246725e+003
2.372808e+002, 3.246814e+003
2.377630e+002, 3.246927e+003
2.382451e+002, 3.246691e+003
2.387272e+002, 3.245908e+003
2.392093e+002, 3.244844e+003
2.396914e+002, 3.243829e+003
2.401735e+002, 3.242755e+003
2.406557e+002, 3.242091e+003
2.411378e+002, 3.242570e+003
2.416199e+002, 3.243305e+003
2.421020e+002, 3.243418e+003
2.425841e+002, 3.242554e+003
2.430662e+002, 3.241150e+003
2.435484e+002, 3.239677e+003
2.440305e+002, 3.237638e+003
2.445126e+002, 3.237014e+003
2.449947e+002, 3.239876e+003
2.454768e+002, 3.243497e+003
2.459589e+002, 3.245451e+003
2.464410e+002, 3.244875e+003
2.469232e+002, 3.242954e+003
2.474053e+002, 3.241753e+003
2.478874e+002, 3.241746e+003
2.483695e+002, 3.241309e+003
2.488516e+002, 3.239172e+003
2.493337e+002, 3.237097e+003
2.498159e+002, 3.236904e+003
2.502980e+002, 3.239067e+003
2.507801e+002, 3.241841e+003
2.512622e+002, 3.242111e+003
2.517443e+002, 3.238423e+003
2.522264e+002, 3.235448e+003
2.527086e+002, 3.233405e+003
2.531907e+002, 3.232213e+003
2.536728e+002, 3.232157e+003
2.541549e+002, 3.233183e+003
2.546370e+002, 3.234513e+003
2.551191e+002, 3.234801e+003
2.556013e+002, 3.233005e+003
2.560834e+002, 3.232498e+003
2.565655e+002, 3.233951e+003
2.570476e+002, 3.236024e+003
2.575297e+002, 3.238284e+003
2.580118e+002, 3.240440e+003
2.584940e+002, 3.241928e+003
2.589761e+002, 3.241837e+003
2.594582e+002, 3.239245e+003
2.599403e+002, 3.237391e+003
2.604224e+002, 3.235996e+003
2.609045e+002, 3.235356e+003
2.613867e+002, 3.235789e+003
2.618688e+002, 3.237249e+003
2.623509e+002, 3.239396e+003
2.628330e+002, 3.242031e+003
2.633151e+002, 3.245731e+003
2.637972e+002, 3.247642e+003
2.642794e+002, 3.247014e+003
2.647615e+002, 3.245617e+003
2.652436e+002, 3.243890e+003
2.657257e+002, 3.242172e+003
2.662078e+002, 3.241044e+003
2.666899e+002, 3.241073e+003
2.671721e+002, 3.242328e+003
2.676542e+002, 3.244530e+003
2.681363e+002, 3.249491e+003
2.686184e+002, 3.253580e+003
2.691005e+002, 3.254663e+003
2.695826e+002, 3.253105e+003
2.700648e+002, 3.250578e+003
2.705469e+002, 3.248229e+003
2.710290e+002, 3.246024e+003
2.715111e+002, 3.245514e+003
2.719932e+002, 3.247906e+003
2.724753e+002, 3.250404e+003
2.729575e+002, 3.251656e+003
2.734396e+002, 3.251993e+003
2.739217e+002, 3.252543e+003
2.744038e+002, 3.254117e+003
2.748859e+002, 3.256605e+003
2.753680e+002, 3.258598e+003
2.758501e+002, 3.260719e+003
2.763322e+002, 3.261855e+003
2.768144e+002, 3.260925e+003
2.772965e+002, 3.258713e+003
2.777786e+002, 3.256949e+003
2.782607e+002, 3.256605e+003
2.787428e+002, 3.257368e+003
2.792249e+002, 3.257931e+003
2.797071e+002, 3.257836e+003
2.801892e+002, 3.258117e+003
2.806713e+002, 3.259864e+003
2.811534e+002, 3.262074e+003
2.816355e+002, 3.262775e+003
2.821176e+002, 3.260982e+003
2.825998e+002, 3.257675e+003
2.830819e+002, 3.255384e+003
2.835640e+002, 3.254499e+003
2.840461e+002, 3.253695e+003
2.845282e+002, 3.252737e+003
2.850103e+002, 3.251709e+003
2.854925e+002, 3.250708e+003
2.859746e+002, 3.249755e+003
2.864567e+002, 3.248923e+003
2.869388e+002, 3.248376e+003
2.874209e+002, 3.248233e+003
2.879030e+002, 3.247969e+003
2.883852e+002, 3.246681e+003
2.888673e+002, 3.245557e+003
2.893494e+002, 3.246531e+003
2.898315e+002, 3.250114e+003
2.903136e+002, 3.254123e+003
2.907957e+002, 3.255888e+003
2.912779e+002, 3.255133e+003
2.917600e+002, 3.253927e+003
2.922421e+002, 3.251730e+003
2.927242e+002, 3.249566e+003
2.932063e+002, 3.248609e+003
2.936884e+002, 3.248983e+003
2.941706e+002, 3.249637e+003
2.946527e+002, 3.249451e+003
2.951348e+002, 3.248456e+003
2.956169e+002, 3.248490e+003
2.960990e+002, 3.250783e+003
2.965811e+002, 3.253294e+003
2.970633e+002, 3.254497e+003
2.975454e+002, 3.254362e+003
2.980275e+002, 3.253570e+003
2.985096e+002, 3.252502e+003
2.989917e+002, 3.251135e+003
2.994738e+002, 3.249547e+003
2.999560e+002, 3.246337e+003
3.004381e+002, 3.244175e+003
3.009202e+002, 3.245035e+003
3.014023e+002, 3.248461e+003
3.018844e+002, 3.252539e+003
3.023665e+002, 3.256809e+003
3.028487e+002, 3.260611e+003
3.033308e+002, 3.262144e+003
3.038129e+002, 3.260096e+003
3.042950e+002, 3.258147e+003
3.047771e+002, 3.258462e+003
3.052592e+002, 3.260157e+003
3.057414e+002, 3.260819e+003
3.062235e+002, 3.259315e+003
3.067056e+002, 3.256775e+003
3.071877e+002, 3.255352e+003
3.076698e+002, 3.255084e+003
3.081519e+002, 3.255316e+003
3.086341e+002, 3.256423e+003
3.091162e+002, 3.257788e+003
3.095983e+002, 3.257956e+003
3.100804e+002, 3.256269e+003
3.105625e+002, 3.254612e+003
3.110446e+002, 3.256076e+003
3.115268e+002, 3.260771e+003
3.120089e+002, 3.264426e+003
3.124910e+002, 3.265555e+003
3.129731e+002, 3.265501e+003
3.134552e+002, 3.265796e+003
3.139373e+002, 3.266653e+003
3.144195e+002, 3.267677e+003
3.149016e+002, 3.268719e+003
3.153837e+002, 3.269693e+003
3.158658e+002, 3.269808e+003
3.163479e+002, 3.267795e+003
3.168300e+002, 3.265743e+003
3.173121e+002, 3.265597e+003
3.177943e+002, 3.267305e+003
3.182764e+002, 3.269270e+003
3.187585e+002, 3.270478e+003
3.192406e+002, 3.271074e+003
3.197227e+002, 3.271918e+003
3.202048e+002, 3.273624e+003
3.206870e+002, 3.274993e+003
3.211691e+002, 3.275163e+003
3.216512e+002, 3.274408e+003
3.221333e+002, 3.273611e+003
3.226154e+002, 3.273070e+003
3.230975e+002, 3.272900e+003
3.235797e+002, 3.273332e+003
3.240618e+002, 3.274195e+003
3.245439e+002, 3.275848e+003
3.250260e+002, 3.278888e+003
3.255081e+002, 3.282745e+003
3.259902e+002, 3.286578e+003
3.264724e+002, 3.290282e+003
3.269545e+002, 3.293309e+003
3.274366e+002, 3.294376e+003
3.279187e+002, 3.293090e+003
3.284008e+002, 3.292515e+003
3.288829e+002, 3.293216e+003
3.293651e+002, 3.294901e+003
3.298472e+002, 3.297622e+003
3.303293e+002, 3.301382e+003
3.308114e+002, 3.304943e+003
3.312935e+002, 3.306818e+003
3.317756e+002, 3.306829e+003
3.322578e+002, 3.307967e+003
3.327399e+002, 3.311080e+003
3.332220e+002, 3.314739e+003
3.337041e+002, 3.317526e+003
3.341862e+002, 3.319610e+003
3.346683e+002, 3.322854e+003
3.351505e+002, 3.328955e+003
3.356326e+002, 3.337349e+003
3.361147e+002, 3.343628e+003
3.365968e+002, 3.345807e+003
3.370789e+002, 3.348301e+003
3.375610e+002, 3.352660e+003
3.380432e+002, 3.358763e+003
3.385253e+002, 3.366183e+003
3.390074e+002, 3.374699e+003
3.394895e+002, 3.384451e+003
3.399716e+002, 3.396001e+003
3.404537e+002, 3.409773e+003
3.409359e+002, 3.424210e+003
3.414180e+002, 3.440035e+003
3.419001e+002, 3.456033e+003
3.423822e+002, 3.471626e+003
3.428643e+002, 3.486610e+003
3.433464e+002, 3.498371e+003
3.438286e+002, 3.503367e+003
3.443107e+002, 3.500390e+003
3.447928e+002, 3.491614e+003
3.452749e+002, 3.473132e+003
3.457570e+002, 3.451595e+003
3.462391e+002, 3.431057e+003
3.467213e+002, 3.412404e+003
3.472034e+002, 3.395297e+003
3.476855e+002, 3.379304e+003
3.481676e+002, 3.364305e+003
3.486497e+002, 3.354964e+003
3.491318e+002, 3.354085e+003
3.496140e+002, 3.354995e+003
3.500961e+002, 3.354984e+003
3.505782e+002, 3.354553e+003
3.510603e+002, 3.355318e+003
3.515424e+002, 3.358248e+003
3.520245e+002, 3.363022e+003
3.525067e+002, 3.368366e+003
3.529888e+002, 3.375001e+003
3.534709e+002, 3.381294e+003
3.539530e+002, 3.386039e+003
3.544351e+002, 3.390709e+003
3.549172e+002, 3.397476e+003
3.553994e+002, 3.407014e+003
3.558815e+002, 3.417532e+003
3.563636e+002, 3.426023e+003
3.568457e+002, 3.431138e+003
3.573278e+002, 3.436791e+003
3.578099e+002, 3.442395e+003
3.582920e+002, 3.448880e+003
3.587741e+002, 3.456840e+003
3.592563e+002, 3.466344e+003
3.597384e+002, 3.477083e+003
3.602205e+002, 3.488910e+003
3.607026e+002, 3.501931e+003
3.611847e+002, 3.515042e+003
3.616668e+002, 3.527299e+003
3.621490e+002, 3.540573e+003
3.626311e+002, 3.555345e+003
3.631132e+002, 3.571675e+003
3.635953e+002, 3.589240e+003
3.640774e+002, 3.607845e+003
3.645595e+002, 3.627648e+003
3.650417e+002, 3.649403e+003
3.655238e+002, 3.674622e+003
3.660059e+002, 3.699828e+003
3.664880e+002, 3.723355e+003
3.669701e+002, 3.747190e+003
3.674522e+002, 3.774686e+003
3.679344e+002, 3.806402e+003
3.684165e+002, 3.837950e+003
3.688986e+002, 3.862930e+003
3.693807e+002, 3.881015e+003
3.698628e+002, 3.892778e+003
3.703449e+002, 3.899035e+003
3.708271e+002, 3.898935e+003
3.713092e+002, 3.891604e+003
3.717913e+002, 3.877243e+003
3.722734e+002, 3.856591e+003
3.727555e+002, 3.829388e+003
3.732376e+002, 3.795890e+003
3.737198e+002, 3.761868e+003
3.742019e+002, 3.725359e+003
3.746840e+002, 3.690867e+003
3.751661e+002, 3.659289e+003
3.756482e+002, 3.630603e+003
3.761303e+002, 3.604869e+003
3.766125e+002, 3.581837e+003
3.770946e+002, 3.561976e+003
3.775767e+002, 3.546674e+003
3.780588e+002, 3.537129e+003
3.785409e+002, 3.528798e+003
3.790230e+002, 3.520536e+003
3.795052e+002, 3.512875e+003
3.799873e+002, 3.506881e+003
3.804694e+002, 3.502711e+003
3.809515e+002, 3.498013e+003
3.814336e+002, 3.489694e+003
3.819157e+002, 3.477826e+003
3.823979e+002, 3.467784e+003
3.828800e+002, 3.462100e+003
3.833621e+002, 3.456117e+003
3.838442e+002, 3.446304e+003
3.843263e+002, 3.433507e+003
3.848084e+002, 3.420607e+003
3.852906e+002, 3.408549e+003
3.857727e+002, 3.397668e+003
3.862548e+002, 3.389060e+003
3.867369e+002, 3.383323e+003
3.872190e+002, 3.377784e+003
3.877011e+002, 3.369959e+003
3.881833e+002, 3.361644e+003
3.886654e+002, 3.355739e+003
3.891475e+002, 3.353924e+003
3.896296e+002, 3.352559e+003
3.901117e+002, 3.347855e+003
3.905938e+002, 3.340318e+003
3.910760e+002, 3.334028e+003
3.915581e+002, 3.330487e+003
3.920402e+002, 3.328646e+003
3.925223e+002, 3.327252e+003
3.930044e+002, 3.326397e+003
3.934865e+002, 3.325099e+003
3.939687e+002, 3.322128e+003
3.944508e+002, 3.318761e+003
3.949329e+002, 3.317384e+003
3.954150e+002, 3.318480e+003
3.958971e+002, 3.319897e+003
3.963792e+002, 3.319856e+003
3.968614e+002, 3.318361e+003
3.973435e+002, 3.316477e+003
3.978256e+002, 3.312965e+003
3.983077e+002, 3.310146e+003
3.987898e+002, 3.310037e+003
3.992719e+002, 3.312022e+003
3.997540e+002, 3.313789e+003
4.002361e+002, 3.314092e+003
4.007183e+002, 3.313545e+003
4.012004e+002, 3.314046e+003
4.016825e+002, 3.316796e+003
4.021646e+002, 3.318320e+003
4.026467e+002, 3.316395e+003
4.031288e+002, 3.313678e+003
4.036110e+002, 3.313890e+003
4.040931e+002, 3.317692e+003
4.045752e+002, 3.321832e+003
4.050573e+002, 3.322220e+003
4.055394e+002, 3.317617e+003
4.060215e+002, 3.315598e+003
4.065037e+002, 3.318689e+003
4.069858e+002, 3.321647e+003
4.074679e+002, 3.321260e+003
4.079500e+002, 3.318565e+003
4.084321e+002, 3.316575e+003
4.089142e+002, 3.317199e+003
4.093964e+002, 3.319910e+003
4.098785e+002, 3.322301e+003
4.103606e+002, 3.324505e+003
4.108427e+002, 3.326110e+003
4.113248e+002, 3.326569e+003
4.118069e+002, 3.326687e+003
4.122891e+002, 3.327403e+003
4.127712e+002, 3.328878e+003
4.132533e+002, 3.330299e+003
4.137354e+002, 3.330313e+003
4.142175e+002, 3.328207e+003
4.146996e+002, 3.327551e+003
4.151818e+002, 3.330147e+003
4.156639e+002, 3.332560e+003
4.161460e+002, 3.333183e+003
4.166281e+002, 3.332535e+003
4.171102e+002, 3.331983e+003
4.175923e+002, 3.332273e+003
4.180745e+002, 3.333421e+003
4.185566e+002, 3.335590e+003
4.190387e+002, 3.339144e+003
4.195208e+002, 3.342927e+003
4.200029e+002, 3.347004e+003
4.204850e+002, 3.350900e+003
4.209672e+002, 3.354156e+003
4.214493e+002, 3.356661e+003
4.219314e+002, 3.358574e+003
4.224135e+002, 3.359753e+003
4.228956e+002, 3.360254e+003
4.233777e+002, 3.361312e+003
4.238599e+002, 3.363300e+003
4.243420e+002, 3.365658e+003
4.248241e+002, 3.367715e+003
4.253062e+002, 3.369695e+003
4.257883e+002, 3.372460e+003
4.262704e+002, 3.376518e+003
4.267526e+002, 3.381527e+003
4.272347e+002, 3.386871e+003
4.277168e+002, 3.392558e+003
4.281989e+002, 3.399172e+003
4.286810e+002, 3.407531e+003
4.291631e+002, 3.416786e+003
4.296453e+002, 3.424992e+003
4.301274e+002, 3.431923e+003
4.306095e+002, 3.438309e+003
4.310916e+002, 3.444463e+003
4.315737e+002, 3.450283e+003
4.320558e+002, 3.455980e+003
4.325380e+002, 3.461734e+003
4.330201e+002, 3.466135e+003
4.335022e+002, 3.467491e+003
4.339843e+002, 3.465432e+003
4.344664e+002, 3.461606e+003
4.349485e+002, 3.455835e+003
4.354307e+002, 3.448466e+003
4.359128e+002, 3.438525e+003
4.363949e+002, 3.426970e+003
4.368770e+002, 3.416799e+003
4.373591e+002, 3.409903e+003
4.378412e+002, 3.405414e+003
4.383234e+002, 3.400155e+003
4.388055e+002, 3.392403e+003
4.392876e+002, 3.386119e+003
4.397697e+002, 3.381655e+003
4.402518e+002, 3.378770e+003
4.407339e+002, 3.378145e+003
4.412160e+002, 3.379481e+003
4.416982e+002, 3.380545e+003
4.421803e+002, 3.378593e+003
4.426624e+002, 3.373094e+003
4.431445e+002, 3.368499e+003
4.436266e+002, 3.364598e+003
4.441087e+002, 3.361883e+003
4.445909e+002, 3.361033e+003
4.450730e+002, 3.361412e+003
4.455551e+002, 3.362176e+003
4.460372e+002, 3.362979e+003
4.465193e+002, 3.363508e+003
4.470014e+002, 3.362816e+003
4.474836e+002, 3.360202e+003
4.479657e+002, 3.358466e+003
4.484478e+002, 3.358353e+003
4.489299e+002, 3.359115e+003
4.494120e+002, 3.360836e+003
4.498941e+002, 3.363273e+003
4.503763e+002, 3.365198e+003
4.508584e+002, 3.365458e+003
4.513405e+002, 3.364381e+003
4.518226e+002, 3.363177e+003
4.523047e+002, 3.361541e+003
4.527868e+002, 3.360583e+003
4.532690e+002, 3.361604e+003
4.537511e+002, 3.363547e+003
4.542332e+002, 3.364962e+003
4.547153e+002, 3.365454e+003
4.551974e+002, 3.365495e+003
4.556795e+002, 3.365118e+003
4.561617e+002, 3.364521e+003
4.566438e+002, 3.364712e+003
4.571259e+002, 3.366235e+003
4.576080e+002, 3.368100e+003
4.580901e+002, 3.368952e+003
4.585722e+002, 3.368827e+003
4.590544e+002, 3.368735e+003
4.595365e+002, 3.369012e+003
4.600186e+002, 3.369312e+003
4.605007e+002, 3.369228e+003
4.609828e+002, 3.368847e+003
4.614649e+002, 3.368611e+003
4.619471e+002, 3.368749e+003
4.624292e+002, 3.369297e+003
4.629113e+002, 3.370410e+003
4.633934e+002, 3.372609e+003
4.638755e+002, 3.374649e+003
4.643576e+002, 3.376842e+003
4.648398e+002, 3.378563e+003
4.653219e+002, 3.378431e+003
4.658040e+002, 3.376544e+003
4.662861e+002, 3.375260e+003
4.667682e+002, 3.377362e+003
4.672503e+002, 3.383302e+003
4.677325e+002, 3.388261e+003
4.682146e+002, 3.391875e+003
4.686967e+002, 3.394825e+003
4.691788e+002, 3.396657e+003
4.696609e+002, 3.398079e+003
4.701430e+002, 3.399946e+003
4.706252e+002, 3.402614e+003
4.711073e+002, 3.406157e+003
4.715894e+002, 3.410864e+003
4.720715e+002, 3.416989e+003
4.725536e+002, 3.423206e+003
4.730357e+002, 3.429611e+003
4.735179e+002, 3.435827e+003
4.740000e+002, 3.441218e+003
4.744821e+002, 3.446090e+003
4.749642e+002, 3.451785e+003
4.754463e+002, 3.459773e+003
4.759284e+002, 3.468853e+003
4.764106e+002, 3.476432e+003
4.768927e+002, 3.482323e+003
4.773748e+002, 3.487608e+003
4.778569e+002, 3.491887e+003
4.783390e+002, 3.496368e+003
4.788211e+002, 3.502760e+003
4.793033e+002, 3.511247e+003
4.797854e+002, 3.521113e+003
4.802675e+002, 3.532940e+003
4.807496e+002, 3.545652e+003
4.812317e+002, 3.556542e+003
4.817138e+002, 3.564984e+003
4.821959e+002, 3.574884e+003
4.826780e+002, 3.590320e+003
4.831602e+002, 3.611227e+003
4.836423e+002, 3.630490e+003
4.841244e+002, 3.645313e+003
4.846065e+002, 3.661557e+003
4.850886e+002, 3.681912e+003
4.855707e+002, 3.705341e+003
4.860529e+002, 3.729358e+003
4.865350e+002, 3.753129e+003
4.870171e+002, 3.778784e+003
4.874992e+002, 3.809877e+003
4.879813e+002, 3.849019e+003
4.884634e+002, 3.887262e+003
4.889456e+002, 3.925741e+003
4.894277e+002, 3.962361e+003
4.899098e+002, 3.997596e+003
4.903919e+002, 4.029989e+003
4.908740e+002, 4.057701e+003
4.913561e+002, 4.080365e+003
4.918383e+002, 4.095193e+003
4.923204e+002, 4.093811e+003
4.928025e+002, 4.073499e+003
4.932846e+002, 4.044526e+003
4.937667e+002, 4.005104e+003
4.942488e+002, 3.960575e+003
4.947310e+002, 3.912410e+003
4.952131e+002, 3.861594e+003
4.956952e+002, 3.811455e+003
4.961773e+002, 3.762748e+003
4.966594e+002, 3.716938e+003
4.971415e+002, 3.678899e+003
4.976237e+002, 3.649439e+003
4.981058e+002, 3.624202e+003
4.985879e+002, 3.600820e+003
4.990700e+002, 3.580153e+003
4.995521e+002, 3.563574e+003
5.000342e+002, 3.551513e+003
5.005164e+002, 3.542494e+003
5.009985e+002, 3.537295e+003
5.014806e+002, 3.534176e+003
5.019627e+002, 3.529624e+003
5.024448e+002, 3.522916e+003
5.029269e+002, 3.516468e+003
5.034091e+002, 3.512590e+003
5.038912e+002, 3.511373e+003
5.043733e+002, 3.510672e+003
5.048554e+002, 3.511042e+003
5.053375e+002, 3.511258e+003
5.058196e+002, 3.509984e+003
5.063018e+002, 3.508550e+003
5.067839e+002, 3.509238e+003
5.072660e+002, 3.512804e+003
5.077481e+002, 3.517680e+003
5.082302e+002, 3.521367e+003
5.087123e+002, 3.523310e+003
5.091945e+002, 3.526073e+003
5.096766e+002, 3.529591e+003
5.101587e+002, 3.533985e+003
5.106408e+002, 3.539973e+003
5.111229e+002, 3.546806e+003
5.116050e+002, 3.552988e+003
5.120872e+002, 3.557611e+003
5.125693e+002, 3.561815e+003
5.130514e+002, 3.568243e+003
5.135335e+002, 3.577464e+003
5.140156e+002, 3.584687e+003
5.144977e+002, 3.588374e+003
5.149799e+002, 3.590131e+003
5.154620e+002, 3.591348e+003
5.159441e+002, 3.591992e+003
5.164262e+002, 3.591717e+003
5.169083e+002, 3.590609e+003
5.173904e+002, 3.588356e+003
5.178726e+002, 3.584185e+003
5.183547e+002, 3.578206e+003
5.188368e+002, 3.571977e+003
5.193189e+002, 3.566313e+003
5.198010e+002, 3.560725e+003
5.202831e+002, 3.554108e+003
5.207653e+002, 3.546136e+003
5.212474e+002, 3.538246e+003
5.217295e+002, 3.531405e+003
5.222116e+002, 3.524261e+003
5.226937e+002, 3.515128e+003
5.231758e+002, 3.504370e+003
5.236580e+002, 3.493791e+003
5.241401e+002, 3.484573e+003
5.246222e+002, 3.476893e+003
5.251043e+002, 3.471682e+003
5.255864e+002, 3.472685e+003
5.260685e+002, 3.470816e+003
5.265507e+002, 3.462565e+003
5.270328e+002, 3.453180e+003
5.275149e+002, 3.447010e+003
5.279970e+002, 3.444455e+003
5.284791e+002, 3.443072e+003
5.289612e+002, 3.440874e+003
5.294434e+002, 3.438018e+003
5.299255e+002, 3.435472e+003
5.304076e+002, 3.433506e+003
5.308897e+002, 3.431265e+003
5.313718e+002, 3.427865e+003
5.318539e+002, 3.424274e+003
5.323361e+002, 3.421361e+003
5.328182e+002, 3.419236e+003
5.333003e+002, 3.418007e+003
5.337824e+002, 3.418362e+003
5.342645e+002, 3.419544e+003
5.347466e+002, 3.419623e+003
5.352288e+002, 3.418243e+003
5.357109e+002, 3.417370e+003
5.361930e+002, 3.418832e+003
5.366751e+002, 3.422111e+003
5.371572e+002, 3.423879e+003
5.376393e+002, 3.421973e+003
5.381215e+002, 3.421327e+003
5.386036e+002, 3.424376e+003
5.390857e+002, 3.428966e+003
5.395678e+002, 3.432660e+003
5.400499e+002, 3.434847e+003
5.405320e+002, 3.435839e+003
5.410142e+002, 3.435615e+003
5.414963e+002, 3.434065e+003
5.419784e+002, 3.434845e+003
5.424604e+002, 3.439350e+003
5.429426e+002, 3.444659e+003
5.434247e+002, 3.450797e+003
5.439068e+002, 3.457119e+003
5.443889e+002, 3.462707e+003
5.448710e+002, 3.467368e+003
5.453531e+002, 3.472167e+003
5.458353e+002, 3.478344e+003
5.463174e+002, 3.485799e+003
5.467995e+002, 3.493137e+003
5.472816e+002, 3.500304e+003
5.477637e+002, 3.507273e+003
5.482458e+002, 3.513462e+003
5.487280e+002, 3.519551e+003
5.492101e+002, 3.526845e+003
5.496922e+002, 3.535898e+003
5.501743e+002, 3.545415e+003
5.506564e+002, 3.554298e+003
5.511385e+002, 3.563157e+003
5.516207e+002, 3.573584e+003
5.521028e+002, 3.585954e+003
5.525849e+002, 3.598543e+003
5.530670e+002, 3.609364e+003
5.535491e+002, 3.618464e+003
5.540313e+002, 3.630630e+003
5.545134e+002, 3.647844e+003
5.549955e+002, 3.665285e+003
5.554776e+002, 3.680040e+003
5.559597e+002, 3.695129e+003
5.564418e+002, 3.714305e+003
5.569240e+002, 3.738497e+003
5.574061e+002, 3.765406e+003
5.578882e+002, 3.793013e+003
5.583703e+002, 3.821217e+003
5.588524e+002, 3.848363e+003
5.593345e+002, 3.873200e+003
5.598167e+002, 3.898406e+003
5.602988e+002, 3.927169e+003
5.607809e+002, 3.955744e+003
5.612630e+002, 3.980302e+003
5.617451e+002, 3.999887e+003
5.622272e+002, 4.014210e+003
5.627094e+002, 4.024047e+003
5.631915e+002, 4.028473e+003
5.636736e+002, 4.024277e+003
5.641557e+002, 4.010855e+003
5.646378e+002, 3.989652e+003
5.651199e+002, 3.960119e+003
5.656021e+002, 3.923240e+003
5.660842e+002, 3.885145e+003
5.665663e+002, 3.845611e+003
5.670484e+002, 3.805302e+003
5.675305e+002, 3.762012e+003
5.680126e+002, 3.719307e+003
5.684948e+002, 3.681100e+003
5.689769e+002, 3.648376e+003
5.694590e+002, 3.619821e+003
5.699411e+002, 3.594896e+003
5.704232e+002, 3.573389e+003
5.709053e+002, 3.552874e+003
5.713875e+002, 3.531488e+003
5.718696e+002, 3.513773e+003
5.723517e+002, 3.501115e+003
5.728338e+002, 3.491730e+003
5.733159e+002, 3.484579e+003
5.737980e+002, 3.479155e+003
5.742802e+002, 3.474380e+003
5.747623e+002, 3.469463e+003
5.752444e+002, 3.464421e+003
5.757265e+002, 3.459365e+003
5.762086e+002, 3.454343e+003
5.766907e+002, 3.449065e+003
5.771729e+002, 3.442868e+003
5.776550e+002, 3.436716e+003
5.781371e+002, 3.432109e+003
5.786192e+002, 3.429243e+003
5.791013e+002, 3.427140e+003
5.795834e+002, 3.425655e+003
5.800656e+002, 3.424606e+003
5.805477e+002, 3.423831e+003
5.810298e+002, 3.423293e+003
5.815119e+002, 3.422948e+003
5.819940e+002, 3.422796e+003
5.824761e+002, 3.422745e+003
5.829583e+002, 3.422466e+003
5.834404e+002, 3.421179e+003
5.839225e+002, 3.420851e+003
5.844046e+002, 3.423568e+003
5.848867e+002, 3.425443e+003
5.853688e+002, 3.422852e+003
5.858510e+002, 3.416951e+003
5.863331e+002, 3.411847e+003
5.868152e+002, 3.410156e+003
5.872973e+002, 3.410765e+003
5.877794e+002, 3.411615e+003
5.882615e+002, 3.412925e+003
5.887437e+002, 3.412814e+003
5.892258e+002, 3.410026e+003
5.897079e+002, 3.406516e+003
5.901900e+002, 3.404325e+003
5.906721e+002, 3.403210e+003
5.911542e+002, 3.401543e+003
5.916364e+002, 3.398109e+003
5.921185e+002, 3.394587e+003
5.926006e+002, 3.392881e+003
5.930827e+002, 3.392355e+003
5.935648e+002, 3.390698e+003
5.940469e+002, 3.386980e+003
5.945291e+002, 3.383152e+003
5.950112e+002, 3.382125e+003
5.954933e+002, 3.384877e+003
5.959754e+002, 3.386118e+003
5.964575e+002, 3.385372e+003
5.969396e+002, 3.383943e+003
5.974218e+002, 3.381476e+003
5.979039e+002, 3.378921e+003
5.983860e+002, 3.377776e+003
5.988681e+002, 3.378497e+003
5.993502e+002, 3.379610e+003
5.998323e+002, 3.379011e+003
6.003145e+002, 3.376782e+003
6.007966e+002, 3.375648e+003
6.012787e+002, 3.375833e+003
6.017608e+002, 3.376811e+003
6.022429e+002, 3.378836e+003
6.027250e+002, 3.381267e+003
6.032072e+002, 3.383101e+003
6.036893e+002, 3.384112e+003
6.041714e+002, 3.384801e+003
6.046535e+002, 3.385405e+003
6.051356e+002, 3.385840e+003
6.056177e+002, 3.385804e+003
6.060999e+002, 3.385343e+003
6.065820e+002, 3.385165e+003
6.070641e+002, 3.385844e+003
6.075462e+002, 3.387158e+003
6.080283e+002, 3.388073e+003
6.085104e+002, 3.387423e+003
6.089926e+002, 3.388126e+003
6.094747e+002, 3.391470e+003
6.099568e+002, 3.395229e+003
6.104389e+002, 3.398334e+003
6.109210e+002, 3.400461e+003
6.114031e+002, 3.401136e+003
6.118853e+002, 3.399570e+003
6.123674e+002, 3.397197e+003
6.128495e+002, 3.397111e+003
6.133316e+002, 3.399470e+003
6.138137e+002, 3.402373e+003
6.142958e+002, 3.405578e+003
6.147780e+002, 3.408918e+003
6.152601e+002, 3.412246e+003
6.157422e+002, 3.415578e+003
6.162243e+002, 3.419000e+003
6.167064e+002, 3.422897e+003
6.171885e+002, 3.426504e+003
6.176707e+002, 3.428546e+003
6.181528e+002, 3.430066e+003
6.186349e+002, 3.433309e+003
6.191170e+002, 3.438907e+003
6.195991e+002, 3.445577e+003
6.200812e+002, 3.451720e+003
6.205634e+002, 3.457226e+003
6.210455e+002, 3.464185e+003
6.215276e+002, 3.474853e+003
6.220097e+002, 3.484204e+003
6.224918e+002, 3.490021e+003
6.229739e+002, 3.494679e+003
6.234561e+002, 3.500408e+003
6.239382e+002, 3.507668e+003
6.244203e+002, 3.515921e+003
6.249023e+002, 3.524795e+003
6.253845e+002, 3.534290e+003
6.258666e+002, 3.544399e+003
6.263487e+002, 3.555160e+003
6.268308e+002, 3.566464e+003
6.273129e+002, 3.578805e+003
6.277950e+002, 3.591212e+003
6.282772e+002, 3.602294e+003
6.287593e+002, 3.612597e+003
6.292414e+002, 3.619684e+003
6.297235e+002, 3.623047e+003
6.302056e+002, 3.623247e+003
6.306877e+002, 3.620063e+003
6.311699e+002, 3.614089e+003
6.316520e+002, 3.606570e+003
6.321341e+002, 3.598117e+003
6.326162e+002, 3.588120e+003
6.330983e+002, 3.575287e+003
6.335804e+002, 3.559026e+003
6.340626e+002, 3.542664e+003
6.345447e+002, 3.526038e+003
6.350268e+002, 3.509738e+003
6.355089e+002, 3.492872e+003
6.359910e+002, 3.476856e+003
6.364731e+002, 3.463965e+003
6.369553e+002, 3.455050e+003
6.374374e+002, 3.448091e+003
6.379195e+002, 3.442737e+003
6.384016e+002, 3.438083e+003
6.388837e+002, 3.431821e+003
6.393658e+002, 3.423817e+003
6.398480e+002, 3.416881e+003
6.403301e+002, 3.413059e+003
6.408122e+002, 3.411383e+003
6.412943e+002, 3.408603e+003
6.417764e+002, 3.403962e+003
6.422585e+002, 3.399222e+003
6.427407e+002, 3.393529e+003
6.432228e+002, 3.388481e+003
6.437049e+002, 3.384960e+003
6.441870e+002, 3.382942e+003
6.446691e+002, 3.382350e+003
6.451512e+002, 3.383397e+003
6.456334e+002, 3.384723e+003
6.461155e+002, 3.384163e+003
6.465976e+002, 3.381739e+003
6.470797e+002, 3.378089e+003
6.475618e+002, 3.372200e+003
6.480439e+002, 3.367542e+003
6.485261e+002, 3.367938e+003
6.490082e+002, 3.371754e+003
6.494903e+002, 3.373859e+003
6.499724e+002, 3.373379e+003
6.504545e+002, 3.371926e+003
6.509366e+002, 3.369514e+003
6.514188e+002, 3.366797e+003
6.519009e+002, 3.364479e+003
6.523830e+002, 3.362672e+003
6.528651e+002, 3.361264e+003
6.533472e+002, 3.360184e+003
6.538293e+002, 3.359383e+003
6.543115e+002, 3.358688e+003
6.547936e+002, 3.358032e+003
6.552757e+002, 3.357601e+003
6.557578e+002, 3.356969e+003
6.562399e+002, 3.356959e+003
6.567220e+002, 3.358750e+003
6.572042e+002, 3.361612e+003
6.576863e+002, 3.363379e+003
6.581684e+002, 3.363172e+003
6.586505e+002, 3.361698e+003
6.591326e+002, 3.359031e+003
6.596147e+002, 3.355659e+003
6.600969e+002, 3.352734e+003
6.605790e+002, 3.350503e+003
6.610611e+002, 3.349310e+003
6.615432e+002, 3.349647e+003
6.620253e+002, 3.351349e+003
6.625074e+002, 3.352508e+003
6.629896e+002, 3.353595e+003
6.634717e+002, 3.353509e+003
6.639538e+002, 3.350690e+003
6.644359e+002, 3.347806e+003
6.649180e+002, 3.346850e+003
6.654001e+002, 3.347862e+003
6.658823e+002, 3.350081e+003
6.663644e+002, 3.353620e+003
6.668465e+002, 3.357142e+003
6.673286e+002, 3.357971e+003
6.678107e+002, 3.356181e+003
6.682928e+002, 3.354144e+003
6.687750e+002, 3.352121e+003
6.692571e+002, 3.350606e+003
6.697392e+002, 3.350354e+003
6.702213e+002, 3.351194e+003
6.707034e+002, 3.351398e+003
6.711855e+002, 3.350501e+003
6.716677e+002, 3.349466e+003
6.721498e+002, 3.348196e+003
6.726319e+002, 3.347152e+003
6.731140e+002, 3.346661e+003
6.735961e+002, 3.346866e+003
6.740782e+002, 3.348263e+003
6.745604e+002, 3.351689e+003
6.750425e+002, 3.355823e+003
6.755246e+002, 3.355958e+003
6.760067e+002, 3.351126e+003
6.764888e+002, 3.346523e+003
6.769709e+002, 3.342120e+003
6.774531e+002, 3.339484e+003
6.779352e+002, 3.341055e+003
6.784173e+002, 3.345511e+003
6.788994e+002, 3.348023e+003
6.793815e+002, 3.346622e+003
6.798636e+002, 3.344182e+003
6.803458e+002, 3.341518e+003
6.808279e+002, 3.339251e+003
6.813100e+002, 3.338592e+003
6.817921e+002, 3.339609e+003
6.822742e+002, 3.341208e+003
6.827563e+002, 3.342697e+003
6.832385e+002, 3.343772e+003
6.837206e+002, 3.342652e+003
6.842027e+002, 3.337410e+003
6.846848e+002, 3.334152e+003
6.851669e+002, 3.335194e+003
6.856490e+002, 3.337101e+003
6.861312e+002, 3.338441e+003
6.866133e+002, 3.339020e+003
6.870954e+002, 3.338550e+003
6.875775e+002, 3.336179e+003
6.880596e+002, 3.334045e+003
6.885417e+002, 3.334207e+003
6.890239e+002, 3.336037e+003
6.895060e+002, 3.338628e+003
6.899881e+002, 3.341764e+003
6.904702e+002, 3.343606e+003
6.909523e+002, 3.342408e+003
6.914344e+002, 3.338981e+003
6.919166e+002, 3.337383e+003
6.923987e+002, 3.338980e+003
6.928808e+002, 3.340290e+003
6.933629e+002, 3.340875e+003
6.938450e+002, 3.341387e+003
6.943271e+002, 3.342439e+003
6.948093e+002, 3.343728e+003
6.952914e+002, 3.344336e+003
6.957735e+002, 3.343633e+003
6.962556e+002, 3.342779e+003
6.967377e+002, 3.343548e+003
6.972198e+002, 3.345264e+003
6.977020e+002, 3.345239e+003
6.981841e+002, 3.342943e+003
6.986662e+002, 3.340685e+003
6.991483e+002, 3.340088e+003
6.996304e+002, 3.340781e+003
7.001125e+002, 3.341380e+003
7.005947e+002, 3.342831e+003
7.010768e+002, 3.342722e+003
7.015589e+002, 3.339836e+003
7.020410e+002, 3.336532e+003
7.025231e+002, 3.333998e+003
7.030052e+002, 3.332261e+003
7.034874e+002, 3.330836e+003
7.039695e+002, 3.329458e+003
7.044516e+002, 3.329078e+003
7.049337e+002, 3.331732e+003
7.054158e+002, 3.336616e+003
7.058979e+002, 3.339638e+003
7.063801e+002, 3.340222e+003
7.068622e+002, 3.340177e+003
7.073442e+002, 3.340323e+003
7.078264e+002, 3.340679e+003
7.083085e+002, 3.341500e+003
7.087906e+002, 3.343597e+003
7.092727e+002, 3.343970e+003
7.097548e+002, 3.339945e+003
7.102369e+002, 3.336506e+003
7.107191e+002, 3.337208e+003
7.112012e+002, 3.340430e+003
7.116833e+002, 3.343153e+003
7.121654e+002, 3.344276e+003
7.126475e+002, 3.344513e+003
7.131296e+002, 3.344575e+003
7.136118e+002, 3.344474e+003
7.140939e+002, 3.344366e+003
7.145760e+002, 3.344388e+003
7.150581e+002, 3.343527e+003
7.155402e+002, 3.340492e+003
7.160223e+002, 3.337223e+003
7.165045e+002, 3.337575e+003
7.169866e+002, 3.342386e+003
7.174687e+002, 3.345430e+003
7.179508e+002, 3.344851e+003
7.184329e+002, 3.343820e+003
7.189150e+002, 3.343781e+003
7.193972e+002, 3.344324e+003
7.198793e+002, 3.344524e+003
7.203614e+002, 3.344242e+003
7.208435e+002, 3.344506e+003
7.213256e+002, 3.346539e+003
7.218077e+002, 3.349871e+003
7.222899e+002, 3.352904e+003
7.227720e+002, 3.355748e+003
7.232541e+002, 3.357326e+003
7.237362e+002, 3.356913e+003
7.242183e+002, 3.355649e+003
7.247004e+002, 3.354559e+003
7.251826e+002, 3.353659e+003
7.256647e+002, 3.353771e+003
7.261468e+002, 3.355479e+003
7.266289e+002, 3.357599e+003
7.271110e+002, 3.359870e+003
7.275931e+002, 3.362262e+003
7.280753e+002, 3.364941e+003
7.285574e+002, 3.367779e+003
7.290395e+002, 3.370244e+003
7.295216e+002, 3.371996e+003
7.300037e+002, 3.373034e+003
7.304858e+002, 3.372820e+003
7.309680e+002, 3.371253e+003
7.314501e+002, 3.371642e+003
7.319322e+002, 3.375459e+003
7.324143e+002, 3.379358e+003
7.328964e+002, 3.380245e+003
7.333785e+002, 3.378787e+003
7.338607e+002, 3.378770e+003
7.343428e+002, 3.381910e+003
7.348249e+002, 3.383795e+003
7.353070e+002, 3.383398e+003
7.357891e+002, 3.381504e+003
7.362712e+002, 3.378236e+003
7.367534e+002, 3.374063e+003
7.372355e+002, 3.369705e+003
7.377176e+002, 3.365407e+003
7.381997e+002, 3.361796e+003
7.386818e+002, 3.360213e+003
7.391639e+002, 3.360398e+003
7.396461e+002, 3.359655e+003
7.401282e+002, 3.357565e+003
7.406103e+002, 3.355633e+003
7.410924e+002, 3.355123e+003
7.415745e+002, 3.355022e+003
7.420566e+002, 3.352719e+003
7.425388e+002, 3.347139e+003
7.430209e+002, 3.343283e+003
7.435030e+002, 3.342311e+003
7.439851e+002, 3.342381e+003
7.444672e+002, 3.343671e+003
7.449493e+002, 3.344928e+003
7.454315e+002, 3.343525e+003
7.459136e+002, 3.339111e+003
7.463957e+002, 3.335774e+003
7.468778e+002, 3.338882e+003
7.473599e+002, 3.345911e+003
7.478420e+002, 3.348838e+003
7.483242e+002, 3.347570e+003
7.488063e+002, 3.345861e+003
7.492884e+002, 3.345009e+003
7.497705e+002, 3.344001e+003
7.502526e+002, 3.341231e+003
7.507347e+002, 3.336513e+003
7.512169e+002, 3.334001e+003
7.516990e+002, 3.335858e+003
7.521811e+002, 3.336915e+003
7.526632e+002, 3.335557e+003
7.531453e+002, 3.333277e+003
7.536274e+002, 3.330869e+003
7.541096e+002, 3.328823e+003
7.545917e+002, 3.328127e+003
7.550738e+002, 3.329751e+003
7.555559e+002, 3.332126e+003
7.560380e+002, 3.333342e+003
7.565201e+002, 3.333441e+003
7.570023e+002, 3.332072e+003
7.574844e+002, 3.329035e+003
7.579665e+002, 3.326895e+003
7.584486e+002, 3.327732e+003
7.589307e+002, 3.330574e+003
7.594128e+002, 3.332101e+003
7.598950e+002, 3.330795e+003
7.603771e+002, 3.330935e+003
7.608592e+002, 3.334239e+003
7.613413e+002, 3.337052e+003
7.618234e+002, 3.337206e+003
7.623055e+002, 3.335871e+003
7.627877e+002, 3.335005e+003
7.632698e+002, 3.335160e+003
7.637519e+002, 3.335452e+003
7.642340e+002, 3.334688e+003
7.647161e+002, 3.333933e+003
7.651982e+002, 3.335698e+003
7.656804e+002, 3.339381e+003
7.661625e+002, 3.341038e+003
7.666446e+002, 3.339050e+003
7.671267e+002, 3.335938e+003
7.676088e+002, 3.335098e+003
7.680909e+002, 3.336643e+003
7.685731e+002, 3.337293e+003
7.690552e+002, 3.336585e+003
7.695373e+002, 3.335715e+003
7.700194e+002, 3.334423e+003
7.705015e+002, 3.333459e+003
7.709836e+002, 3.333843e+003
7.714658e+002, 3.335234e+003
7.719479e+002, 3.335857e+003
7.724300e+002, 3.334783e+003
7.729121e+002, 3.333184e+003
7.733942e+002, 3.331667e+003
7.738763e+002, 3.330259e+003
7.743585e+002, 3.328762e+003
7.748406e+002, 3.327330e+003
7.753227e+002, 3.326889e+003
7.758048e+002, 3.328169e+003
7.762869e+002, 3.330310e+003
7.767690e+002, 3.331133e+003
7.772512e+002, 3.330399e+003
7.777333e+002, 3.330077e+003
7.782154e+002, 3.330244e+003
7.786975e+002, 3.330967e+003
7.791796e+002, 3.332836e+003
7.796617e+002, 3.335052e+003
7.801439e+002, 3.336437e+003
7.806260e+002, 3.337082e+003
7.811081e+002, 3.336241e+003
7.815902e+002, 3.332565e+003
7.820723e+002, 3.328469e+003
7.825544e+002, 3.324113e+003
7.830366e+002, 3.320863e+003
7.835187e+002, 3.321325e+003
7.840008e+002, 3.325828e+003
7.844829e+002, 3.331505e+003
7.849650e+002, 3.336164e+003
7.854471e+002, 3.339702e+003
7.859293e+002, 3.341724e+003
7.864114e+002, 3.342214e+003
7.868935e+002, 3.341418e+003
7.873756e+002, 3.339020e+003
7.878577e+002, 3.336371e+003
7.883398e+002, 3.333957e+003
7.888220e+002, 3.332217e+003
7.893040e+002, 3.334914e+003
7.897861e+002, 3.349433e+003
7.902682e+002, 3.357620e+003
7.907504e+002, 3.353777e+003
7.912325e+002, 3.347277e+003
7.917146e+002, 3.343095e+003
7.921967e+002, 3.341270e+003
7.926788e+002, 3.340685e+003
7.931609e+002, 3.341018e+003
7.936431e+002, 3.341915e+003
7.941252e+002, 3.343847e+003
7.946073e+002, 3.345797e+003
7.950894e+002, 3.345568e+003
7.955715e+002, 3.343297e+003
7.960536e+002, 3.340429e+003
7.965358e+002, 3.337411e+003
7.970179e+002, 3.335498e+003
7.975000e+002, 3.336822e+003
7.979821e+002, 3.341602e+003
7.984642e+002, 3.343993e+003
7.989464e+002, 3.342744e+003
7.994285e+002, 3.341376e+003
7.999106e+002, 3.340952e+003
8.003927e+002, 3.340563e+003
8.008748e+002, 3.339742e+003
8.013569e+002, 3.338418e+003
8.018391e+002, 3.336267e+003
8.023212e+002, 3.331382e+003
8.028033e+002, 3.328366e+003
8.032854e+002, 3.330631e+003
8.037675e+002, 3.335496e+003
8.042496e+002, 3.340673e+003
8.047318e+002, 3.345404e+003
8.052139e+002, 3.348779e+003
8.056960e+002, 3.350243e+003
8.061781e+002, 3.350625e+003
8.066602e+002, 3.351239e+003
8.071423e+002, 3.352031e+003
8.076245e+002, 3.352016e+003
8.081066e+002, 3.350940e+003
8.085887e+002, 3.350247e+003
8.090708e+002, 3.350974e+003
8.095529e+002, 3.351859e+003
8.100350e+002, 3.350833e+003
8.105172e+002, 3.347475e+003
8.109993e+002, 3.344924e+003
8.114814e+002, 3.343914e+003
8.119635e+002, 3.342777e+003
8.124456e+002, 3.340181e+003
8.129277e+002, 3.337902e+003
8.134099e+002, 3.337804e+003
8.138920e+002, 3.339746e+003
8.143741e+002, 3.342351e+003
8.148562e+002, 3.345343e+003
8.153383e+002, 3.347865e+003
8.158204e+002, 3.348862e+003
8.163026e+002, 3.348720e+003
8.167847e+002, 3.347888e+003
8.172668e+002, 3.346604e+003
8.177489e+002, 3.346071e+003
8.182310e+002, 3.346993e+003
8.187131e+002, 3.348915e+003
8.191953e+002, 3.351089e+003
8.196774e+002, 3.353604e+003
8.201595e+002, 3.355800e+003
8.206416e+002, 3.358226e+003
8.211237e+002, 3.359246e+003
8.216058e+002, 3.356956e+003
8.220880e+002, 3.353833e+003
8.225701e+002, 3.352383e+003
8.230522e+002, 3.352622e+003
8.235343e+002, 3.354048e+003
8.240164e+002, 3.358967e+003
8.244985e+002, 3.362179e+003
8.249807e+002, 3.358959e+003
8.254628e+002, 3.354471e+003
8.259449e+002, 3.355630e+003
8.264270e+002, 3.361531e+003
8.269091e+002, 3.365559e+003
8.273912e+002, 3.363777e+003
8.278734e+002, 3.359717e+003
8.283555e+002, 3.358438e+003
8.288376e+002, 3.359219e+003
8.293197e+002, 3.358880e+003
8.298018e+002, 3.357141e+003
8.302839e+002, 3.355594e+003
8.307661e+002, 3.355048e+003
8.312482e+002, 3.355065e+003
8.317303e+002, 3.354971e+003
8.322124e+002, 3.354776e+003
8.326945e+002, 3.354341e+003
8.331766e+002, 3.353139e+003
8.336588e+002, 3.352457e+003
8.341409e+002, 3.353562e+003
8.346230e+002, 3.354478e+003
8.351051e+002, 3.353008e+003
8.355872e+002, 3.349689e+003
8.360693e+002, 3.347496e+003
8.365515e+002, 3.347687e+003
8.370336e+002, 3.348600e+003
8.375157e+002, 3.350207e+003
8.379978e+002, 3.351477e+003
8.384799e+002, 3.350841e+003
8.389620e+002, 3.348718e+003
8.394442e+002, 3.346728e+003
8.399263e+002, 3.345641e+003
8.404084e+002, 3.345167e+003
8.408905e+002, 3.345115e+003
8.413726e+002, 3.345388e+003
8.418547e+002, 3.345362e+003
8.423369e+002, 3.345022e+003
8.428190e+002, 3.344507e+003
8.433011e+002, 3.343760e+003
8.437832e+002, 3.343181e+003
8.442653e+002, 3.343342e+003
8.447474e+002, 3.344206e+003
8.452296e+002, 3.344473e+003
8.457117e+002, 3.343736e+003
8.461938e+002, 3.342939e+003
8.466759e+002, 3.342215e+003
8.471580e+002, 3.341377e+003
8.476401e+002, 3.339797e+003
8.481223e+002, 3.338093e+003
8.486044e+002, 3.337886e+003
8.490865e+002, 3.340060e+003
8.495686e+002, 3.341627e+003
8.500507e+002, 3.340050e+003
8.505328e+002, 3.337838e+003
8.510150e+002, 3.337989e+003
8.514971e+002, 3.339559e+003
8.519792e+002, 3.339915e+003
8.524613e+002, 3.338333e+003
8.529434e+002, 3.336167e+003
8.534255e+002, 3.334342e+003
8.539077e+002, 3.333327e+003
8.543898e+002, 3.335657e+003
8.548719e+002, 3.341333e+003
8.553540e+002, 3.343221e+003
8.558361e+002, 3.338936e+003
8.563182e+002, 3.334943e+003
8.568004e+002, 3.336457e+003
8.572825e+002, 3.341625e+003
8.577646e+002, 3.344621e+003
8.582467e+002, 3.345368e+003
8.587288e+002, 3.343976e+003
8.592109e+002, 3.337616e+003
8.596931e+002, 3.332465e+003
8.601752e+002, 3.330693e+003
8.606573e+002, 3.331302e+003
8.611394e+002, 3.333848e+003
8.616215e+002, 3.338042e+003
8.621036e+002, 3.340861e+003
8.625858e+002, 3.340607e+003
8.630679e+002, 3.339176e+003
8.635500e+002, 3.336949e+003
8.640321e+002, 3.334862e+003
8.645142e+002, 3.334629e+003
8.649963e+002, 3.336003e+003
8.654785e+002, 3.337206e+003
8.659606e+002, 3.337269e+003
8.664427e+002, 3.336142e+003
8.669248e+002, 3.332780e+003
8.674069e+002, 3.327942e+003
8.678890e+002, 3.326346e+003
8.683712e+002, 3.328375e+003
8.688533e+002, 3.329242e+003
8.693354e+002, 3.326618e+003
8.698175e+002, 3.323127e+003
8.702996e+002, 3.322231e+003
8.707817e+002, 3.323936e+003
8.712639e+002, 3.326461e+003
8.717459e+002, 3.331868e+003
8.722280e+002, 3.334449e+003
8.727101e+002, 3.330164e+003
8.731923e+002, 3.325660e+003
8.736744e+002, 3.325699e+003
8.741565e+002, 3.328496e+003
8.746386e+002, 3.329382e+003
8.751207e+002, 3.327051e+003
8.756028e+002, 3.324548e+003
8.760850e+002, 3.322512e+003
8.765671e+002, 3.321101e+003
8.770492e+002, 3.320753e+003
8.775313e+002, 3.320991e+003
8.780134e+002, 3.320881e+003
8.784955e+002, 3.320306e+003
8.789777e+002, 3.320207e+003
8.794598e+002, 3.321573e+003
8.799419e+002, 3.323534e+003
8.804240e+002, 3.324458e+003
8.809061e+002, 3.324731e+003
8.813882e+002, 3.326200e+003
8.818704e+002, 3.329030e+003
8.823525e+002, 3.330482e+003
8.828346e+002, 3.328524e+003
8.833167e+002, 3.325434e+003
8.837988e+002, 3.326493e+003
8.842809e+002, 3.332626e+003
8.847631e+002, 3.335776e+003
8.852452e+002, 3.334877e+003
8.857273e+002, 3.333588e+003
8.862094e+002, 3.333187e+003
8.866915e+002, 3.332909e+003
8.871736e+002, 3.331661e+003
8.876558e+002, 3.329543e+003
8.881379e+002, 3.328180e+003
8.886200e+002, 3.327992e+003
8.891021e+002, 3.328011e+003
8.895842e+002, 3.327859e+003
8.900663e+002, 3.328054e+003
8.905485e+002, 3.329579e+003
8.910306e+002, 3.331552e+003
8.915127e+002, 3.331868e+003
8.919948e+002, 3.329856e+003
8.924769e+002, 3.328667e+003
8.929590e+002, 3.332013e+003
8.934412e+002, 3.335773e+003
8.939233e+002, 3.334572e+003
8.944054e+002, 3.330629e+003
8.948875e+002, 3.328902e+003
8.953696e+002, 3.330272e+003
8.958517e+002, 3.332348e+003
8.963339e+002, 3.333446e+003
8.968160e+002, 3.333826e+003
8.972981e+002, 3.333680e+003
8.977802e+002, 3.333131e+003
8.982623e+002, 3.333645e+003
8.987444e+002, 3.335448e+003
8.992266e+002, 3.336985e+003
8.997087e+002, 3.337463e+003
9.001908e+002, 3.337432e+003
9.006729e+002, 3.337708e+003
9.011550e+002, 3.338296e+003
9.016371e+002, 3.338726e+003
9.021193e+002, 3.338451e+003
9.026014e+002, 3.339026e+003
9.030835e+002, 3.341231e+003
9.035656e+002, 3.343903e+003
9.040477e+002, 3.346424e+003
9.045298e+002, 3.348783e+003
9.050120e+002, 3.350932e+003
9.054941e+002, 3.352866e+003
9.059762e+002, 3.354622e+003
9.064583e+002, 3.356124e+003
9.069404e+002, 3.357582e+003
9.074225e+002, 3.358646e+003
9.079047e+002, 3.360006e+003
9.083868e+002, 3.362898e+003
9.088689e+002, 3.367268e+003
9.093510e+002, 3.371473e+003
9.098331e+002, 3.374203e+003
9.103152e+002, 3.376885e+003
9.107974e+002, 3.381633e+003
9.112795e+002, 3.387115e+003
9.117616e+002, 3.390808e+003
9.122437e+002, 3.392634e+003
9.127258e+002, 3.393540e+003
9.132079e+002, 3.393959e+003
9.136901e+002, 3.394912e+003
9.141722e+002, 3.398323e+003
9.146543e+002, 3.403510e+003
9.151364e+002, 3.406297e+003
9.156185e+002, 3.406555e+003
9.161006e+002, 3.407934e+003
9.165828e+002, 3.411611e+003
9.170649e+002, 3.415510e+003
9.175470e+002, 3.418164e+003
9.180291e+002, 3.419517e+003
9.185112e+002, 3.419065e+003
9.189933e+002, 3.414871e+003
9.194755e+002, 3.414042e+003
9.199576e+002, 3.419734e+003
9.204397e+002, 3.424339e+003
9.209218e+002, 3.423431e+003
9.214039e+002, 3.420918e+003
9.218860e+002, 3.420583e+003
9.223682e+002, 3.422513e+003
9.228503e+002, 3.426329e+003
9.233324e+002, 3.434676e+003
9.238145e+002, 3.441258e+003
9.242966e+002, 3.441385e+003
9.247787e+002, 3.441687e+003
9.252609e+002, 3.448132e+003
9.257430e+002, 3.458658e+003
9.262251e+002, 3.468228e+003
9.267072e+002, 3.475338e+003
9.271893e+002, 3.482188e+003
9.276714e+002, 3.490287e+003
9.281536e+002, 3.498676e+003
9.286357e+002, 3.505957e+003
9.291178e+002, 3.513009e+003
9.295999e+002, 3.522567e+003
9.300820e+002, 3.534291e+003
9.305641e+002, 3.544248e+003
9.310463e+002, 3.550100e+003
9.315284e+002, 3.552035e+003
9.320105e+002, 3.549089e+003
9.324926e+002, 3.542397e+003
9.329747e+002, 3.537219e+003
9.334568e+002, 3.533634e+003
9.339390e+002, 3.527387e+003
9.344211e+002, 3.516895e+003
9.349032e+002, 3.503901e+003
9.353853e+002, 3.489958e+003
9.358674e+002, 3.475423e+003
9.363495e+002, 3.462339e+003
9.368317e+002, 3.450813e+003
9.373138e+002, 3.440238e+003
9.377959e+002, 3.430477e+003
9.382780e+002, 3.421805e+003
9.387601e+002, 3.415012e+003
9.392422e+002, 3.408714e+003
9.397244e+002, 3.399863e+003
9.402065e+002, 3.387414e+003
9.406886e+002, 3.378517e+003
9.411707e+002, 3.375342e+003
9.416528e+002, 3.372506e+003
9.421349e+002, 3.368785e+003
9.426171e+002, 3.365224e+003
9.430992e+002, 3.363073e+003
9.435813e+002, 3.361648e+003
9.440634e+002, 3.358930e+003
9.445455e+002, 3.353890e+003
9.450276e+002, 3.350059e+003
9.455098e+002, 3.348809e+003
9.459919e+002, 3.349066e+003
9.464740e+002, 3.352135e+003
9.469561e+002, 3.355201e+003
9.474382e+002, 3.353630e+003
9.479203e+002, 3.347834e+003
9.484025e+002, 3.343129e+003
9.488846e+002, 3.342555e+003
9.493667e+002, 3.343532e+003
9.498488e+002, 3.344042e+003
9.503309e+002, 3.344226e+003
9.508130e+002, 3.343844e+003
9.512952e+002, 3.343327e+003
9.517773e+002, 3.344133e+003
9.522594e+002, 3.346657e+003
9.527415e+002, 3.349577e+003
9.532236e+002, 3.351727e+003
9.537057e+002, 3.353242e+003
9.541878e+002, 3.354234e+003
9.546699e+002, 3.354838e+003
9.551520e+002, 3.355933e+003
9.556342e+002, 3.357660e+003
9.561163e+002, 3.359715e+003
9.565984e+002, 3.361901e+003
9.570805e+002, 3.364668e+003
9.575626e+002, 3.368873e+003
9.580447e+002, 3.374521e+003
9.585269e+002, 3.379581e+003
9.590090e+002, 3.384088e+003
9.594911e+002, 3.387878e+003
9.599732e+002, 3.390438e+003
9.604553e+002, 3.393354e+003
9.609374e+002, 3.397684e+003
9.614196e+002, 3.403269e+003
9.619017e+002, 3.409781e+003
9.623838e+002, 3.417660e+003
9.628659e+002, 3.424954e+003
9.633480e+002, 3.429696e+003
9.638301e+002, 3.436433e+003
9.643123e+002, 3.447991e+003
9.647944e+002, 3.460573e+003
9.652765e+002, 3.471171e+003
9.657586e+002, 3.479963e+003
9.662407e+002, 3.488109e+003
9.667228e+002, 3.494831e+003
9.672050e+002, 3.502828e+003
9.676871e+002, 3.513478e+003
9.681692e+002, 3.524718e+003
9.686513e+002, 3.536157e+003
9.691334e+002, 3.547034e+003
9.696155e+002, 3.556489e+003
9.700977e+002, 3.564440e+003
9.705798e+002, 3.571026e+003
9.710619e+002, 3.575122e+003
9.715440e+002, 3.579829e+003
9.720261e+002, 3.588441e+003
9.725082e+002, 3.597644e+003
9.729904e+002, 3.603962e+003
9.734725e+002, 3.607813e+003
9.739546e+002, 3.610159e+003
9.744367e+002, 3.611597e+003
9.749188e+002, 3.614551e+003
9.754009e+002, 3.621633e+003
9.758831e+002, 3.630432e+003
9.763652e+002, 3.637329e+003
9.768473e+002, 3.643573e+003
9.773294e+002, 3.651615e+003
9.778115e+002, 3.661879e+003
9.782936e+002, 3.674521e+003
9.787758e+002, 3.689664e+003
9.792579e+002, 3.705636e+003
9.797400e+002, 3.720024e+003
9.802221e+002, 3.733770e+003
9.807042e+002, 3.749578e+003
9.811863e+002, 3.767343e+003
9.816685e+002, 3.786745e+003
9.821506e+002, 3.807657e+003
9.826327e+002, 3.828638e+003
9.831148e+002, 3.848666e+003
9.835969e+002, 3.868265e+003
9.840790e+002, 3.888380e+003
9.845612e+002, 3.908995e+003
9.850433e+002, 3.930023e+003
9.855254e+002, 3.951647e+003
9.860075e+002, 3.972316e+003
9.864896e+002, 3.991290e+003
9.869717e+002, 4.010745e+003
9.874539e+002, 4.033561e+003
9.879360e+002, 4.057167e+003
9.884181e+002, 4.073544e+003
9.889002e+002, 4.081823e+003
9.893823e+002, 4.085449e+003
9.898644e+002, 4.083187e+003
9.903466e+002, 4.078579e+003
9.908287e+002, 4.072708e+003
9.913108e+002, 4.064934e+003
9.917929e+002, 4.055130e+003
9.922750e+002, 4.043017e+003
9.927571e+002, 4.026864e+003
9.932393e+002, 4.005745e+003
9.937214e+002, 3.982450e+003
9.942035e+002, 3.957274e+003
9.946856e+002, 3.929492e+003
9.951677e+002, 3.897113e+003
9.956498e+002, 3.863308e+003
9.961320e+002, 3.831401e+003
9.966141e+002, 3.801291e+003
9.970962e+002, 3.771504e+003
9.975783e+002, 3.741074e+003
9.980604e+002, 3.712228e+003
9.985425e+002, 3.686981e+003
9.990247e+002, 3.662051e+003
9.995068e+002, 3.633859e+003
9.999889e+002, 3.605702e+003
1.000471e+003, 3.583036e+003
1.000953e+003, 3.566094e+003
1.001435e+003, 3.549988e+003
1.001917e+003, 3.532887e+003
1.002399e+003, 3.515974e+003
1.002882e+003, 3.499153e+003
1.003364e+003, 3.483509e+003
1.003846e+003, 3.470100e+003
1.004328e+003, 3.458547e+003
1.004810e+003, 3.448048e+003
1.005292e+003, 3.438290e+003
1.005774e+003, 3.428539e+003
1.006256e+003, 3.417501e+003
1.006739e+003, 3.407351e+003
1.007221e+003, 3.400888e+003
1.007703e+003, 3.396173e+003
1.008185e+003, 3.390438e+003
1.008667e+003, 3.383913e+003
1.009149e+003, 3.378243e+003
1.009631e+003, 3.373976e+003
1.010113e+003, 3.369913e+003
1.010595e+003, 3.364645e+003
1.011078e+003, 3.359396e+003
1.011560e+003, 3.356526e+003
1.012042e+003, 3.354970e+003
1.012524e+003, 3.351894e+003
1.013006e+003, 3.347420e+003
1.013488e+003, 3.344005e+003
1.013970e+003, 3.342680e+003
1.014452e+003, 3.341956e+003
1.014935e+003, 3.340306e+003
1.015417e+003, 3.337887e+003
1.015899e+003, 3.335233e+003
1.016381e+003, 3.332195e+003
1.016863e+003, 3.327891e+003
1.017345e+003, 3.322332e+003
1.017827e+003, 3.316842e+003
1.018309e+003, 3.312117e+003
1.018791e+003, 3.307784e+003
1.019274e+003, 3.303212e+003
1.019756e+003, 3.298649e+003
1.020238e+003, 3.295311e+003
1.020720e+003, 3.293178e+003
1.021202e+003, 3.291042e+003
1.021684e+003, 3.288700e+003
1.022166e+003, 3.286120e+003
1.022648e+003, 3.283122e+003
1.023130e+003, 3.280678e+003
1.023613e+003, 3.280716e+003
1.024095e+003, 3.282974e+003
1.024577e+003, 3.283009e+003
1.025059e+003, 3.280518e+003
1.025541e+003, 3.278190e+003
1.026023e+003, 3.276560e+003
1.026505e+003, 3.274615e+003
1.026987e+003, 3.271376e+003
1.027469e+003, 3.268150e+003
1.027952e+003, 3.267593e+003
1.028434e+003, 3.269835e+003
1.028916e+003, 3.271226e+003
1.029398e+003, 3.271891e+003
1.029880e+003, 3.271140e+003
1.030362e+003, 3.268320e+003
1.030844e+003, 3.265260e+003
1.031326e+003, 3.262787e+003
1.031809e+003, 3.261327e+003
1.032291e+003, 3.262044e+003
1.032773e+003, 3.265453e+003
1.033255e+003, 3.266756e+003
1.033737e+003, 3.264070e+003
1.034219e+003, 3.263675e+003
1.034701e+003, 3.268397e+003
1.035183e+003, 3.273196e+003
1.035666e+003, 3.274434e+003
1.036148e+003, 3.273666e+003
1.036630e+003, 3.274283e+003
1.037112e+003, 3.276778e+003
1.037594e+003, 3.277722e+003
1.038076e+003, 3.275629e+003
1.038558e+003, 3.274271e+003
1.039040e+003, 3.274544e+003
1.039522e+003, 3.275372e+003
1.040005e+003, 3.276216e+003
1.040487e+003, 3.277047e+003
1.040969e+003, 3.277866e+003
1.041451e+003, 3.278707e+003
1.041933e+003, 3.279280e+003
1.042415e+003, 3.279568e+003
1.042897e+003, 3.279621e+003
1.043379e+003, 3.279757e+003
1.043861e+003, 3.279407e+003
1.044344e+003, 3.277281e+003
1.044826e+003, 3.274769e+003
1.045308e+003, 3.274823e+003
1.045790e+003, 3.278084e+003
1.046272e+003, 3.280865e+003
1.046754e+003, 3.281774e+003
1.047236e+003, 3.283621e+003
1.047718e+003, 3.288631e+003
1.048201e+003, 3.293311e+003
1.048683e+003, 3.294597e+003
1.049165e+003, 3.294072e+003
1.049647e+003, 3.294642e+003
1.050129e+003, 3.296588e+003
1.050611e+003, 3.299868e+003
1.051093e+003, 3.306484e+003
1.051575e+003, 3.311593e+003
1.052057e+003, 3.311103e+003
1.052540e+003, 3.311104e+003
1.053022e+003, 3.318085e+003
1.053504e+003, 3.327910e+003
1.053986e+003, 3.332250e+003
1.054468e+003, 3.329806e+003
1.054950e+003, 3.328020e+003
1.055432e+003, 3.329192e+003
1.055914e+003, 3.330884e+003
1.056396e+003, 3.332739e+003
1.056879e+003, 3.334375e+003
1.057361e+003, 3.335757e+003
1.057843e+003, 3.336640e+003
1.058325e+003, 3.336572e+003
1.058807e+003, 3.335511e+003
1.059289e+003, 3.334167e+003
1.059771e+003, 3.333049e+003
1.060253e+003, 3.331344e+003
1.060736e+003, 3.329443e+003
1.061218e+003, 3.326166e+003
1.061700e+003, 3.319238e+003
1.062182e+003, 3.310919e+003
1.062664e+003, 3.305283e+003
1.063146e+003, 3.302746e+003
1.063628e+003, 3.299543e+003
1.064110e+003, 3.293719e+003
1.064593e+003, 3.287800e+003
1.065075e+003, 3.282459e+003
1.065557e+003, 3.277781e+003
1.066039e+003, 3.273990e+003
1.066521e+003, 3.270827e+003
1.067003e+003, 3.267962e+003
1.067485e+003, 3.265344e+003
1.067967e+003, 3.263001e+003
1.068449e+003, 3.260779e+003
1.068932e+003, 3.259121e+003
1.069414e+003, 3.259176e+003
1.069896e+003, 3.258903e+003
1.070378e+003, 3.256556e+003
1.070860e+003, 3.253003e+003
1.071342e+003, 3.248910e+003
1.071824e+003, 3.244812e+003
1.072306e+003, 3.242570e+003
1.072788e+003, 3.243911e+003
1.073271e+003, 3.244756e+003
1.073753e+003, 3.242055e+003
1.074235e+003, 3.239362e+003
1.074717e+003, 3.240102e+003
1.075199e+003, 3.241897e+003
1.075681e+003, 3.241437e+003
1.076163e+003, 3.238675e+003
1.076645e+003, 3.235475e+003
1.077127e+003, 3.231873e+003
1.077610e+003, 3.229828e+003
1.078092e+003, 3.231419e+003
1.078574e+003, 3.233597e+003
1.079056e+003, 3.234438e+003
1.079538e+003, 3.234612e+003
1.080020e+003, 3.235633e+003
1.080502e+003, 3.236893e+003
1.080984e+003, 3.235579e+003
1.081467e+003, 3.230067e+003
1.081949e+003, 3.225876e+003
1.082431e+003, 3.226558e+003
1.082913e+003, 3.228040e+003
1.083395e+003, 3.227870e+003
1.083877e+003, 3.227173e+003
1.084359e+003, 3.227284e+003
1.084841e+003, 3.228013e+003
1.085323e+003, 3.228433e+003
1.085806e+003, 3.228240e+003
1.086288e+003, 3.228270e+003
1.086770e+003, 3.230252e+003
1.087252e+003, 3.230813e+003
1.087734e+003, 3.226465e+003
1.088216e+003, 3.221370e+003
1.088698e+003, 3.219802e+003
1.089180e+003, 3.220499e+003
1.089662e+003, 3.219782e+003
1.090145e+003, 3.216876e+003
1.090627e+003, 3.215707e+003
1.091109e+003, 3.219230e+003
1.091591e+003, 3.222814e+003
1.092073e+003, 3.225318e+003
1.092555e+003, 3.226315e+003
1.093037e+003, 3.225324e+003
1.093519e+003, 3.222660e+003
1.094002e+003, 3.218039e+003
1.094484e+003, 3.211766e+003
1.094966e+003, 3.207455e+003
1.095448e+003, 3.207030e+003
1.095930e+003, 3.207598e+003
1.096412e+003, 3.209272e+003
1.096894e+003, 3.210512e+003
1.097376e+003, 3.209819e+003
1.097859e+003, 3.208422e+003
1.098341e+003, 3.208133e+003
1.098823e+003, 3.208913e+003
1.099305e+003, 3.209187e+003
1.099787e+003, 3.207975e+003
1.100269e+003, 3.207525e+003
1.100751e+003, 3.209526e+003
1.101233e+003, 3.211095e+003
1.101715e+003, 3.210521e+003
1.102198e+003, 3.209035e+003
1.102680e+003, 3.207677e+003
1.103162e+003, 3.206629e+003
1.103644e+003, 3.206235e+003
1.104126e+003, 3.207036e+003
1.104608e+003, 3.206954e+003
1.105090e+003, 3.203011e+003
1.105572e+003, 3.201571e+003
1.106054e+003, 3.207516e+003
1.106537e+003, 3.214377e+003
1.107019e+003, 3.216837e+003
1.107501e+003, 3.216158e+003
1.107983e+003, 3.215836e+003
1.108465e+003, 3.216217e+003
1.108947e+003, 3.216432e+003
1.109429e+003, 3.216185e+003
1.109911e+003, 3.216050e+003
1.110394e+003, 3.216410e+003
1.110876e+003, 3.216590e+003
1.111358e+003, 3.215977e+003
1.111840e+003, 3.214994e+003
1.112322e+003, 3.214251e+003
1.112804e+003, 3.213733e+003
1.113286e+003, 3.213725e+003
1.113768e+003, 3.214280e+003
1.114250e+003, 3.215291e+003
1.114733e+003, 3.218158e+003
1.115215e+003, 3.219546e+003
1.115697e+003, 3.216990e+003
1.116179e+003, 3.213267e+003
1.116661e+003, 3.211815e+003
1.117143e+003, 3.212208e+003
1.117625e+003, 3.211117e+003
1.118107e+003, 3.207495e+003
1.118589e+003, 3.204970e+003
1.119072e+003, 3.203808e+003
1.119554e+003, 3.203344e+003
1.120036e+003, 3.203408e+003
1.120518e+003, 3.204125e+003
1.121000e+003, 3.205980e+003
1.121482e+003, 3.208295e+003
1.121964e+003, 3.208975e+003
1.122446e+003, 3.207688e+003
1.122929e+003, 3.206673e+003
1.123411e+003, 3.205958e+003
1.123893e+003, 3.205268e+003
1.124375e+003, 3.204402e+003
1.124857e+003, 3.203937e+003
1.125339e+003, 3.204277e+003
1.125821e+003, 3.205136e+003
1.126303e+003, 3.206156e+003
1.126786e+003, 3.207275e+003
1.127268e+003, 3.207670e+003
1.127750e+003, 3.207407e+003
1.128232e+003, 3.205171e+003
1.128714e+003, 3.200287e+003
1.129196e+003, 3.197822e+003
1.129678e+003, 3.200541e+003
1.130160e+003, 3.203756e+003
1.130642e+003, 3.201656e+003
1.131125e+003, 3.196485e+003
1.131607e+003, 3.196604e+003
1.132089e+003, 3.201681e+003
1.132571e+003, 3.205897e+003
1.133053e+003, 3.208909e+003
1.133535e+003, 3.210188e+003
1.134017e+003, 3.209584e+003
1.134499e+003, 3.207395e+003
1.134981e+003, 3.203570e+003
1.135464e+003, 3.199781e+003
1.135946e+003, 3.199016e+003
1.136428e+003, 3.200880e+003
1.136910e+003, 3.204944e+003
1.137392e+003, 3.210357e+003
1.137874e+003, 3.212989e+003
1.138356e+003, 3.212358e+003
1.138838e+003, 3.210981e+003
1.139321e+003, 3.210131e+003
1.139803e+003, 3.209729e+003
1.140285e+003, 3.210124e+003
1.140767e+003, 3.210470e+003
1.141249e+003, 3.208588e+003
1.141731e+003, 3.205711e+003
1.142213e+003, 3.204531e+003
1.142695e+003, 3.205039e+003
1.143177e+003, 3.206440e+003
1.143660e+003, 3.208274e+003
1.144142e+003, 3.209178e+003
1.144624e+003, 3.207671e+003
1.145106e+003, 3.206154e+003
1.145588e+003, 3.208017e+003
1.146070e+003, 3.210637e+003
1.146552e+003, 3.210913e+003
1.147034e+003, 3.209307e+003
1.147516e+003, 3.205934e+003
1.147999e+003, 3.201847e+003
1.148481e+003, 3.200901e+003
1.148963e+003, 3.205369e+003
1.149445e+003, 3.208942e+003
1.149927e+003, 3.206211e+003
1.150409e+003, 3.202738e+003
1.150891e+003, 3.201698e+003
1.151373e+003, 3.202687e+003
1.151856e+003, 3.206385e+003
1.152338e+003, 3.211246e+003
1.152820e+003, 3.214256e+003
1.153302e+003, 3.214772e+003
1.153784e+003, 3.213981e+003
1.154266e+003, 3.211222e+003
1.154748e+003, 3.208720e+003
1.155230e+003, 3.207136e+003
1.155713e+003, 3.206129e+003
1.156195e+003, 3.205515e+003
1.156677e+003, 3.205350e+003
1.157159e+003, 3.205992e+003
1.157641e+003, 3.207280e+003
1.158123e+003, 3.208016e+003
1.158605e+003, 3.207996e+003
1.159087e+003, 3.207705e+003
1.159569e+003, 3.206930e+003
1.160052e+003, 3.206255e+003
1.160534e+003, 3.205380e+003
1.161016e+003, 3.205222e+003
1.161498e+003, 3.207421e+003
1.161980e+003, 3.210258e+003
1.162462e+003, 3.209582e+003
1.162944e+003, 3.204833e+003
1.163426e+003, 3.202563e+003
1.163908e+003, 3.203392e+003
1.164391e+003, 3.204976e+003
1.164873e+003, 3.207294e+003
1.165355e+003, 3.209477e+003
1.165837e+003, 3.211177e+003
1.166319e+003, 3.212332e+003
1.166801e+003, 3.212712e+003
1.167283e+003, 3.212644e+003
1.167765e+003, 3.213892e+003
1.168247e+003, 3.216565e+003
1.168730e+003, 3.216596e+003
1.169212e+003, 3.213721e+003
1.169694e+003, 3.211951e+003
1.170176e+003, 3.212387e+003
1.170658e+003, 3.214089e+003
1.171140e+003, 3.216513e+003
1.171622e+003, 3.219136e+003
1.172104e+003, 3.221378e+003
1.172587e+003, 3.223037e+003
1.173069e+003, 3.222994e+003
1.173551e+003, 3.221778e+003
1.174033e+003, 3.221451e+003
1.174515e+003, 3.222108e+003
1.174997e+003, 3.222526e+003
1.175479e+003, 3.222314e+003
1.175961e+003, 3.222836e+003
1.176443e+003, 3.225725e+003
1.176926e+003, 3.228740e+003
1.177408e+003, 3.228246e+003
1.177890e+003, 3.226727e+003
1.178372e+003, 3.228646e+003
1.178854e+003, 3.232054e+003
1.179336e+003, 3.232533e+003
1.179818e+003, 3.229927e+003
1.180300e+003, 3.227007e+003
1.180782e+003, 3.224825e+003
1.181265e+003, 3.223330e+003
1.181747e+003, 3.222779e+003
1.182229e+003, 3.222608e+003
1.182711e+003, 3.222844e+003
1.183193e+003, 3.222969e+003
1.183675e+003, 3.222316e+003
1.184157e+003, 3.221276e+003
1.184639e+003, 3.220752e+003
1.185122e+003, 3.220819e+003
1.185604e+003, 3.220352e+003
1.186086e+003, 3.217411e+003
1.186568e+003, 3.216643e+003
1.187050e+003, 3.221748e+003
1.187532e+003, 3.225506e+003
1.188014e+003, 3.223489e+003
1.188496e+003, 3.219952e+003
1.188979e+003, 3.218340e+003
1.189461e+003, 3.218467e+003
1.189943e+003, 3.220210e+003
1.190425e+003, 3.224245e+003
1.190907e+003, 3.225724e+003
1.191389e+003, 3.223732e+003
1.191871e+003, 3.221589e+003
1.192353e+003, 3.219488e+003
1.192835e+003, 3.218201e+003
1.193318e+003, 3.218046e+003
1.193800e+003, 3.219272e+003
1.194282e+003, 3.222728e+003
1.194764e+003, 3.227175e+003
1.195246e+003, 3.227229e+003
1.195728e+003, 3.223083e+003
1.196210e+003, 3.219350e+003
1.196692e+003, 3.216311e+003
1.197174e+003, 3.215074e+003
1.197657e+003, 3.215809e+003
1.198139e+003, 3.216037e+003
1.198621e+003, 3.214111e+003
1.199103e+003, 3.212514e+003
1.199585e+003, 3.215356e+003
1.200067e+003, 3.220199e+003
1.200549e+003, 3.222985e+003
1.201031e+003, 3.223619e+003
1.201514e+003, 3.220451e+003
1.201996e+003, 3.215177e+003
1.202478e+003, 3.213357e+003
1.202960e+003, 3.215928e+003
1.203442e+003, 3.217669e+003
1.203924e+003, 3.215258e+003
1.204406e+003, 3.212057e+003
1.204888e+003, 3.210261e+003
1.205370e+003, 3.209159e+003
1.205853e+003, 3.208566e+003
1.206335e+003, 3.208078e+003
1.206817e+003, 3.206807e+003
1.207299e+003, 3.205357e+003
1.207781e+003, 3.205628e+003
1.208263e+003, 3.208136e+003
1.208745e+003, 3.209813e+003
1.209227e+003, 3.208777e+003
1.209709e+003, 3.208533e+003
1.210192e+003, 3.210635e+003
1.210674e+003, 3.212671e+003
1.211156e+003, 3.213662e+003
1.211638e+003, 3.213743e+003
1.212120e+003, 3.212634e+003
1.212602e+003, 3.210770e+003
1.213084e+003, 3.209902e+003
1.213566e+003, 3.210130e+003
1.214049e+003, 3.210862e+003
1.214531e+003, 3.212343e+003
1.215013e+003, 3.213188e+003
1.215495e+003, 3.212927e+003
1.215977e+003, 3.213282e+003
1.216459e+003, 3.215418e+003
1.216941e+003, 3.217269e+003
1.217423e+003, 3.216147e+003
1.217906e+003, 3.212990e+003
1.218388e+003, 3.210029e+003
1.218870e+003, 3.207632e+003
1.219352e+003, 3.208501e+003
1.219834e+003, 3.211904e+003
1.220316e+003, 3.213340e+003
1.220798e+003, 3.212002e+003
1.221280e+003, 3.209955e+003
1.221762e+003, 3.208246e+003
1.222245e+003, 3.207490e+003
1.222727e+003, 3.208791e+003
1.223209e+003, 3.210851e+003
1.223691e+003, 3.212485e+003
1.224173e+003, 3.213739e+003
1.224655e+003, 3.214506e+003
1.225137e+003, 3.215004e+003
1.225619e+003, 3.215828e+003
1.226101e+003, 3.216897e+003
1.226584e+003, 3.217184e+003
1.227066e+003, 3.216293e+003
1.227548e+003, 3.214792e+003
1.228030e+003, 3.212188e+003
1.228512e+003, 3.209989e+003
1.228994e+003, 3.208868e+003
1.229476e+003, 3.208396e+003
1.229958e+003, 3.208458e+003
1.230441e+003, 3.208831e+003
1.230923e+003, 3.209059e+003
1.231405e+003, 3.209157e+003
1.231887e+003, 3.209842e+003
1.232369e+003, 3.211656e+003
1.232851e+003, 3.212069e+003
1.233333e+003, 3.210175e+003
1.233815e+003, 3.209822e+003
1.234297e+003, 3.212540e+003
1.234780e+003, 3.215204e+003
1.235262e+003, 3.215469e+003
1.235744e+003, 3.214671e+003
1.236226e+003, 3.215291e+003
1.236708e+003, 3.216728e+003
1.237190e+003, 3.216120e+003
1.237672e+003, 3.214059e+003
1.238154e+003, 3.213325e+003
1.238636e+003, 3.213914e+003
1.239119e+003, 3.214722e+003
1.239601e+003, 3.215157e+003
1.240083e+003, 3.213358e+003
1.240565e+003, 3.207416e+003
1.241047e+003, 3.202796e+003
1.241529e+003, 3.207132e+003
1.242011e+003, 3.212861e+003
1.242493e+003, 3.211540e+003
1.242975e+003, 3.208054e+003
1.243458e+003, 3.208847e+003
1.243940e+003, 3.212556e+003
1.244422e+003, 3.215221e+003
1.244904e+003, 3.216168e+003
1.245386e+003, 3.216217e+003
1.245868e+003, 3.215644e+003
1.246350e+003, 3.214102e+003
1.246832e+003, 3.209227e+003
1.247315e+003, 3.206515e+003
1.247797e+003, 3.208962e+003
1.248279e+003, 3.212735e+003
1.248761e+003, 3.215366e+003
1.249243e+003, 3.217316e+003
1.249725e+003, 3.219353e+003
1.250207e+003, 3.221464e+003
1.250689e+003, 3.224249e+003
1.251172e+003, 3.227832e+003
1.251654e+003, 3.230393e+003
1.252136e+003, 3.231793e+003
1.252618e+003, 3.230929e+003
1.253100e+003, 3.227486e+003
1.253582e+003, 3.225518e+003
1.254064e+003, 3.227948e+003
1.254546e+003, 3.231929e+003
1.255028e+003, 3.233638e+003
1.255510e+003, 3.234097e+003
1.255993e+003, 3.235734e+003
1.256475e+003, 3.237261e+003
1.256957e+003, 3.234782e+003
1.257439e+003, 3.230475e+003
1.257921e+003, 3.230657e+003
1.258403e+003, 3.235828e+003
1.258885e+003, 3.240499e+003
1.259367e+003, 3.242847e+003
1.259850e+003, 3.242525e+003
1.260332e+003, 3.237043e+003
1.260814e+003, 3.231945e+003
1.261296e+003, 3.228318e+003
1.261778e+003, 3.227627e+003
1.262260e+003, 3.233358e+003
1.262742e+003, 3.241316e+003
1.263224e+003, 3.244574e+003
1.263707e+003, 3.243714e+003
1.264189e+003, 3.243809e+003
1.264671e+003, 3.245274e+003
1.265153e+003, 3.246160e+003
1.265635e+003, 3.246188e+003
1.266117e+003, 3.246865e+003
1.266599e+003, 3.248594e+003
1.267081e+003, 3.250414e+003
1.267563e+003, 3.251735e+003
1.268046e+003, 3.253442e+003
1.268528e+003, 3.257080e+003
1.269010e+003, 3.260964e+003
1.269492e+003, 3.260107e+003
1.269974e+003, 3.256877e+003
1.270456e+003, 3.257368e+003
1.270938e+003, 3.260788e+003
1.271420e+003, 3.264333e+003
1.271902e+003, 3.267425e+003
1.272385e+003, 3.270561e+003
1.272867e+003, 3.273933e+003
1.273349e+003, 3.276604e+003
1.273831e+003, 3.277492e+003
1.274313e+003, 3.278290e+003
1.274795e+003, 3.279602e+003
1.275277e+003, 3.281417e+003
1.275759e+003, 3.284328e+003
1.276242e+003, 3.287293e+003
1.276724e+003, 3.289335e+003
1.277206e+003, 3.290424e+003
1.277688e+003, 3.290347e+003
1.278170e+003, 3.288772e+003
1.278652e+003, 3.289151e+003
1.279134e+003, 3.291857e+003
1.279616e+003, 3.295381e+003
1.280099e+003, 3.299828e+003
1.280581e+003, 3.303645e+003
1.281063e+003, 3.306281e+003
1.281545e+003, 3.307469e+003
1.282027e+003, 3.306719e+003
1.282509e+003, 3.306051e+003
1.282991e+003, 3.309754e+003
1.283473e+003, 3.315605e+003
1.283955e+003, 3.319545e+003
##END=



