##NAMES=Wadeite
##RRUFFID=R130537
##IDEAL CHEMISTRY=K_2_Zr^4+^Si_3_O_9_
##LOCALITY=Potash Corporation of Saskatchewan mine, Penobsquis, Kings County, New Brunswick, Canada
##OWNER=RRUFF
##SOURCE=Donald M Doell and Brian Roulston
##DESCRIPTION=Colorless grains, associated with anhydrite and boracite, embedded in halite. Halite is dissolved in water.
##STATUS=The identification of this mineral has been confirmed by single-crystal X-ray diffraction.
##URL=rruff.info/R130537
8.975323e+001, 0.000000e+000
9.023535e+001, 1.320724e+002
9.071747e+001, 1.333565e+002
9.119958e+001, 1.333107e+002
9.168170e+001, 1.332750e+002
9.216382e+001, 1.320919e+002
9.264594e+001, 1.299705e+002
9.312805e+001, 1.275444e+002
9.361017e+001, 1.252545e+002
9.409229e+001, 1.230503e+002
9.457440e+001, 1.209498e+002
9.505651e+001, 1.188748e+002
9.553863e+001, 1.167193e+002
9.602074e+001, 1.147270e+002
9.650286e+001, 1.130622e+002
9.698498e+001, 1.117042e+002
9.746709e+001, 1.104867e+002
9.794921e+001, 1.099587e+002
9.843133e+001, 1.107444e+002
9.891344e+001, 1.113435e+002
9.939556e+001, 1.110697e+002
9.987768e+001, 1.102276e+002
1.003598e+002, 1.096830e+002
1.008419e+002, 1.098977e+002
1.013240e+002, 1.108881e+002
1.018061e+002, 1.122183e+002
1.022883e+002, 1.141559e+002
1.027704e+002, 1.162451e+002
1.032525e+002, 1.182028e+002
1.037346e+002, 1.201153e+002
1.042167e+002, 1.214967e+002
1.046988e+002, 1.216821e+002
1.051810e+002, 1.211416e+002
1.056631e+002, 1.204974e+002
1.061452e+002, 1.199458e+002
1.066273e+002, 1.194855e+002
1.071094e+002, 1.191333e+002
1.075915e+002, 1.190154e+002
1.080737e+002, 1.188417e+002
1.085558e+002, 1.183407e+002
1.090379e+002, 1.176594e+002
1.095200e+002, 1.171530e+002
1.100021e+002, 1.171534e+002
1.104842e+002, 1.177329e+002
1.109664e+002, 1.184573e+002
1.114485e+002, 1.192430e+002
1.119306e+002, 1.202202e+002
1.124127e+002, 1.215564e+002
1.128948e+002, 1.232189e+002
1.133769e+002, 1.249873e+002
1.138591e+002, 1.265177e+002
1.143412e+002, 1.275739e+002
1.148233e+002, 1.288395e+002
1.153054e+002, 1.304405e+002
1.157875e+002, 1.321845e+002
1.162696e+002, 1.338957e+002
1.167517e+002, 1.355165e+002
1.172339e+002, 1.370761e+002
1.177160e+002, 1.385785e+002
1.181981e+002, 1.397796e+002
1.186802e+002, 1.413826e+002
1.191623e+002, 1.436546e+002
1.196444e+002, 1.464888e+002
1.201266e+002, 1.496382e+002
1.206087e+002, 1.530375e+002
1.210908e+002, 1.566738e+002
1.215729e+002, 1.605272e+002
1.220550e+002, 1.648706e+002
1.225371e+002, 1.689631e+002
1.230193e+002, 1.724097e+002
1.235014e+002, 1.753104e+002
1.239835e+002, 1.768027e+002
1.244656e+002, 1.762112e+002
1.249477e+002, 1.740296e+002
1.254298e+002, 1.703103e+002
1.259120e+002, 1.649036e+002
1.263941e+002, 1.582070e+002
1.268762e+002, 1.510517e+002
1.273583e+002, 1.429644e+002
1.278404e+002, 1.351779e+002
1.283225e+002, 1.278218e+002
1.288047e+002, 1.209431e+002
1.292868e+002, 1.146221e+002
1.297689e+002, 1.088930e+002
1.302510e+002, 1.037566e+002
1.307331e+002, 9.926427e+001
1.312152e+002, 9.564319e+001
1.316974e+002, 9.246903e+001
1.321795e+002, 8.966757e+001
1.326616e+002, 8.724584e+001
1.331437e+002, 8.528676e+001
1.336258e+002, 8.388082e+001
1.341079e+002, 8.310816e+001
1.345901e+002, 8.241992e+001
1.350722e+002, 8.173972e+001
1.355543e+002, 8.118000e+001
1.360364e+002, 8.092825e+001
1.365185e+002, 8.095493e+001
1.370006e+002, 8.092638e+001
1.374828e+002, 8.040063e+001
1.379649e+002, 7.921839e+001
1.384470e+002, 7.837505e+001
1.389291e+002, 7.807053e+001
1.394112e+002, 7.807220e+001
1.398933e+002, 7.813645e+001
1.403755e+002, 7.822155e+001
1.408576e+002, 7.832677e+001
1.413397e+002, 7.843436e+001
1.418218e+002, 7.854048e+001
1.423039e+002, 7.871622e+001
1.427860e+002, 7.896535e+001
1.432681e+002, 7.930126e+001
1.437503e+002, 7.978205e+001
1.442324e+002, 8.046581e+001
1.447145e+002, 8.126237e+001
1.451966e+002, 8.206576e+001
1.456787e+002, 8.287363e+001
1.461608e+002, 8.374504e+001
1.466430e+002, 8.471425e+001
1.471251e+002, 8.577964e+001
1.476072e+002, 8.697576e+001
1.480893e+002, 8.834115e+001
1.485714e+002, 8.984305e+001
1.490535e+002, 9.152222e+001
1.495357e+002, 9.337081e+001
1.500178e+002, 9.529793e+001
1.504999e+002, 9.712896e+001
1.509820e+002, 9.876952e+001
1.514641e+002, 1.005661e+002
1.519462e+002, 1.029824e+002
1.524284e+002, 1.053121e+002
1.529105e+002, 1.071486e+002
1.533926e+002, 1.083079e+002
1.538747e+002, 1.087051e+002
1.543568e+002, 1.081012e+002
1.548389e+002, 1.058199e+002
1.553211e+002, 1.031903e+002
1.558032e+002, 9.997504e+001
1.562853e+002, 9.654015e+001
1.567674e+002, 9.326911e+001
1.572495e+002, 9.033630e+001
1.577316e+002, 8.776254e+001
1.582138e+002, 8.569431e+001
1.586959e+002, 8.410307e+001
1.591780e+002, 8.294490e+001
1.596601e+002, 8.240840e+001
1.601422e+002, 8.232360e+001
1.606243e+002, 8.229966e+001
1.611065e+002, 8.209588e+001
1.615886e+002, 8.180280e+001
1.620707e+002, 8.179174e+001
1.625528e+002, 8.204174e+001
1.630349e+002, 8.255228e+001
1.635170e+002, 8.340348e+001
1.639991e+002, 8.457157e+001
1.644813e+002, 8.580867e+001
1.649634e+002, 8.695827e+001
1.654455e+002, 8.808016e+001
1.659276e+002, 8.929026e+001
1.664097e+002, 9.046684e+001
1.668918e+002, 9.185023e+001
1.673740e+002, 9.378940e+001
1.678561e+002, 9.637603e+001
1.683382e+002, 9.906704e+001
1.688203e+002, 1.015069e+002
1.693024e+002, 1.038556e+002
1.697845e+002, 1.063351e+002
1.702667e+002, 1.090561e+002
1.707488e+002, 1.119298e+002
1.712309e+002, 1.147419e+002
1.717130e+002, 1.174294e+002
1.721951e+002, 1.201746e+002
1.726772e+002, 1.230893e+002
1.731594e+002, 1.261066e+002
1.736415e+002, 1.291445e+002
1.741236e+002, 1.321289e+002
1.746057e+002, 1.350875e+002
1.750878e+002, 1.381424e+002
1.755699e+002, 1.411531e+002
1.760521e+002, 1.444670e+002
1.765342e+002, 1.482886e+002
1.770163e+002, 1.524598e+002
1.774984e+002, 1.566617e+002
1.779805e+002, 1.606680e+002
1.784626e+002, 1.644840e+002
1.789448e+002, 1.685094e+002
1.794269e+002, 1.726839e+002
1.799090e+002, 1.771265e+002
1.803911e+002, 1.818332e+002
1.808732e+002, 1.868390e+002
1.813553e+002, 1.921856e+002
1.818375e+002, 1.979512e+002
1.823196e+002, 2.041902e+002
1.828017e+002, 2.103027e+002
1.832838e+002, 2.161882e+002
1.837659e+002, 2.220620e+002
1.842480e+002, 2.280115e+002
1.847301e+002, 2.340322e+002
1.852123e+002, 2.400693e+002
1.856944e+002, 2.460458e+002
1.861765e+002, 2.519534e+002
1.866586e+002, 2.578091e+002
1.871407e+002, 2.640555e+002
1.876228e+002, 2.699054e+002
1.881050e+002, 2.749466e+002
1.885871e+002, 2.790882e+002
1.890692e+002, 2.821760e+002
1.895513e+002, 2.840421e+002
1.900334e+002, 2.846108e+002
1.905155e+002, 2.837877e+002
1.909977e+002, 2.810392e+002
1.914798e+002, 2.771252e+002
1.919619e+002, 2.728990e+002
1.924440e+002, 2.684922e+002
1.929261e+002, 2.635317e+002
1.934082e+002, 2.572991e+002
1.938904e+002, 2.501279e+002
1.943725e+002, 2.428890e+002
1.948546e+002, 2.358245e+002
1.953367e+002, 2.288505e+002
1.958188e+002, 2.217172e+002
1.963009e+002, 2.142709e+002
1.967831e+002, 2.069738e+002
1.972652e+002, 2.001849e+002
1.977473e+002, 1.937597e+002
1.982294e+002, 1.875119e+002
1.987115e+002, 1.812307e+002
1.991936e+002, 1.749852e+002
1.996758e+002, 1.691745e+002
2.001579e+002, 1.639966e+002
2.006400e+002, 1.589943e+002
2.011221e+002, 1.539281e+002
2.016042e+002, 1.488346e+002
2.020863e+002, 1.438672e+002
2.025685e+002, 1.390959e+002
2.030506e+002, 1.345155e+002
2.035327e+002, 1.302190e+002
2.040148e+002, 1.263373e+002
2.044969e+002, 1.226654e+002
2.049790e+002, 1.191657e+002
2.054612e+002, 1.158282e+002
2.059433e+002, 1.126121e+002
2.064254e+002, 1.094838e+002
2.069075e+002, 1.064349e+002
2.073896e+002, 1.036400e+002
2.078717e+002, 1.011822e+002
2.083539e+002, 9.892001e+001
2.088360e+002, 9.685371e+001
2.093181e+002, 9.496519e+001
2.098002e+002, 9.323495e+001
2.102823e+002, 9.166458e+001
2.107644e+002, 9.029009e+001
2.112466e+002, 8.883935e+001
2.117287e+002, 8.722964e+001
2.122108e+002, 8.563295e+001
2.126929e+002, 8.409931e+001
2.131750e+002, 8.263745e+001
2.136571e+002, 8.121864e+001
2.141393e+002, 7.981223e+001
2.146214e+002, 7.840002e+001
2.151035e+002, 7.714022e+001
2.155856e+002, 7.603598e+001
2.160677e+002, 7.503786e+001
2.165498e+002, 7.414116e+001
2.170320e+002, 7.333421e+001
2.175141e+002, 7.257635e+001
2.179962e+002, 7.184243e+001
2.184783e+002, 7.113760e+001
2.189604e+002, 7.040550e+001
2.194425e+002, 6.959812e+001
2.199247e+002, 6.880186e+001
2.204068e+002, 6.805925e+001
2.208889e+002, 6.737482e+001
2.213710e+002, 6.674299e+001
2.218531e+002, 6.616433e+001
2.223352e+002, 6.564517e+001
2.228174e+002, 6.514074e+001
2.232995e+002, 6.470177e+001
2.237816e+002, 6.424014e+001
2.242637e+002, 6.367783e+001
2.247458e+002, 6.301349e+001
2.252279e+002, 6.232111e+001
2.257100e+002, 6.162288e+001
2.261922e+002, 6.094385e+001
2.266743e+002, 6.039887e+001
2.271564e+002, 6.015455e+001
2.276385e+002, 5.994957e+001
2.281206e+002, 5.949522e+001
2.286027e+002, 5.877038e+001
2.290849e+002, 5.808467e+001
2.295670e+002, 5.769686e+001
2.300491e+002, 5.753002e+001
2.305312e+002, 5.736415e+001
2.310133e+002, 5.720305e+001
2.314954e+002, 5.700751e+001
2.319776e+002, 5.670390e+001
2.324597e+002, 5.627352e+001
2.329418e+002, 5.586821e+001
2.334239e+002, 5.564389e+001
2.339060e+002, 5.549574e+001
2.343881e+002, 5.525349e+001
2.348703e+002, 5.480052e+001
2.353524e+002, 5.429784e+001
2.358345e+002, 5.397475e+001
2.363166e+002, 5.386381e+001
2.367987e+002, 5.379104e+001
2.372808e+002, 5.369320e+001
2.377630e+002, 5.357459e+001
2.382451e+002, 5.343458e+001
2.387272e+002, 5.326961e+001
2.392093e+002, 5.308772e+001
2.396914e+002, 5.288790e+001
2.401735e+002, 5.264635e+001
2.406557e+002, 5.246320e+001
2.411378e+002, 5.247567e+001
2.416199e+002, 5.252201e+001
2.421020e+002, 5.242982e+001
2.425841e+002, 5.212053e+001
2.430662e+002, 5.171414e+001
2.435484e+002, 5.141662e+001
2.440305e+002, 5.126188e+001
2.445126e+002, 5.112807e+001
2.449947e+002, 5.103006e+001
2.454768e+002, 5.091336e+001
2.459589e+002, 5.073283e+001
2.464410e+002, 5.047297e+001
2.469232e+002, 5.014281e+001
2.474053e+002, 4.971637e+001
2.478874e+002, 4.908271e+001
2.483695e+002, 4.863215e+001
2.488516e+002, 4.853022e+001
2.493337e+002, 4.855488e+001
2.498159e+002, 4.856646e+001
2.502980e+002, 4.851802e+001
2.507801e+002, 4.840601e+001
2.512622e+002, 4.820900e+001
2.517443e+002, 4.786999e+001
2.522264e+002, 4.757711e+001
2.527086e+002, 4.737268e+001
2.531907e+002, 4.719582e+001
2.536728e+002, 4.699897e+001
2.541549e+002, 4.677218e+001
2.546370e+002, 4.654234e+001
2.551191e+002, 4.634695e+001
2.556013e+002, 4.618727e+001
2.560834e+002, 4.606678e+001
2.565655e+002, 4.605278e+001
2.570476e+002, 4.602319e+001
2.575297e+002, 4.587707e+001
2.580118e+002, 4.560710e+001
2.584940e+002, 4.529806e+001
2.589761e+002, 4.505841e+001
2.594582e+002, 4.488909e+001
2.599403e+002, 4.479905e+001
2.604224e+002, 4.485423e+001
2.609045e+002, 4.492009e+001
2.613867e+002, 4.492659e+001
2.618688e+002, 4.485999e+001
2.623509e+002, 4.473443e+001
2.628330e+002, 4.455769e+001
2.633151e+002, 4.430306e+001
2.637972e+002, 4.409635e+001
2.642794e+002, 4.395502e+001
2.647615e+002, 4.383703e+001
2.652436e+002, 4.371804e+001
2.657257e+002, 4.359907e+001
2.662078e+002, 4.349805e+001
2.666899e+002, 4.343474e+001
2.671721e+002, 4.341601e+001
2.676542e+002, 4.339452e+001
2.681363e+002, 4.332746e+001
2.686184e+002, 4.329570e+001
2.691005e+002, 4.339705e+001
2.695826e+002, 4.358704e+001
2.700648e+002, 4.370073e+001
2.705469e+002, 4.358060e+001
2.710290e+002, 4.321318e+001
2.715111e+002, 4.304340e+001
2.719932e+002, 4.320237e+001
2.724753e+002, 4.338421e+001
2.729575e+002, 4.348241e+001
2.734396e+002, 4.349849e+001
2.739217e+002, 4.345903e+001
2.744038e+002, 4.337456e+001
2.748859e+002, 4.325039e+001
2.753680e+002, 4.315498e+001
2.758501e+002, 4.308649e+001
2.763322e+002, 4.304008e+001
2.768144e+002, 4.302772e+001
2.772965e+002, 4.303635e+001
2.777786e+002, 4.304144e+001
2.782607e+002, 4.303207e+001
2.787428e+002, 4.300579e+001
2.792249e+002, 4.294796e+001
2.797071e+002, 4.282477e+001
2.801892e+002, 4.271613e+001
2.806713e+002, 4.266246e+001
2.811534e+002, 4.263444e+001
2.816355e+002, 4.258829e+001
2.821176e+002, 4.251029e+001
2.825998e+002, 4.238784e+001
2.830819e+002, 4.217004e+001
2.835640e+002, 4.174314e+001
2.840461e+002, 4.144329e+001
2.845282e+002, 4.147707e+001
2.850103e+002, 4.164331e+001
2.854925e+002, 4.159883e+001
2.859746e+002, 4.120770e+001
2.864567e+002, 4.072416e+001
2.869388e+002, 4.062347e+001
2.874209e+002, 4.105939e+001
2.879030e+002, 4.132109e+001
2.883852e+002, 4.115236e+001
2.888673e+002, 4.080944e+001
2.893494e+002, 4.059956e+001
2.898315e+002, 4.059363e+001
2.903136e+002, 4.068377e+001
2.907957e+002, 4.075470e+001
2.912779e+002, 4.080582e+001
2.917600e+002, 4.083399e+001
2.922421e+002, 4.083375e+001
2.927242e+002, 4.081296e+001
2.932063e+002, 4.076902e+001
2.936884e+002, 4.070237e+001
2.941706e+002, 4.064587e+001
2.946527e+002, 4.064835e+001
2.951348e+002, 4.070679e+001
2.956169e+002, 4.067828e+001
2.960990e+002, 4.041739e+001
2.965811e+002, 4.016956e+001
2.970633e+002, 4.020094e+001
2.975454e+002, 4.048987e+001
2.980275e+002, 4.069966e+001
2.985096e+002, 4.056553e+001
2.989917e+002, 4.013584e+001
2.994738e+002, 3.981498e+001
2.999560e+002, 3.957072e+001
3.004381e+002, 3.946202e+001
3.009202e+002, 3.961817e+001
3.014023e+002, 3.997630e+001
3.018844e+002, 4.025562e+001
3.023665e+002, 4.031188e+001
3.028487e+002, 4.018118e+001
3.033308e+002, 3.998809e+001
3.038129e+002, 3.964827e+001
3.042950e+002, 3.938321e+001
3.047771e+002, 3.936086e+001
3.052592e+002, 3.949342e+001
3.057414e+002, 3.953199e+001
3.062235e+002, 3.934887e+001
3.067056e+002, 3.909266e+001
3.071877e+002, 3.908403e+001
3.076698e+002, 3.938417e+001
3.081519e+002, 3.962812e+001
3.086341e+002, 3.966512e+001
3.091162e+002, 3.957671e+001
3.095983e+002, 3.948900e+001
3.100804e+002, 3.942824e+001
3.105625e+002, 3.939843e+001
3.110446e+002, 3.941052e+001
3.115268e+002, 3.946241e+001
3.120089e+002, 3.954071e+001
3.124910e+002, 3.968935e+001
3.129731e+002, 3.984155e+001
3.134552e+002, 3.989250e+001
3.139373e+002, 3.982259e+001
3.144195e+002, 3.976530e+001
3.149016e+002, 3.988721e+001
3.153837e+002, 4.016687e+001
3.158658e+002, 4.028731e+001
3.163479e+002, 4.004799e+001
3.168300e+002, 3.976394e+001
3.173121e+002, 3.974194e+001
3.177943e+002, 3.997059e+001
3.182764e+002, 4.015287e+001
3.187585e+002, 4.004521e+001
3.192406e+002, 3.973435e+001
3.197227e+002, 3.964298e+001
3.202048e+002, 3.991067e+001
3.206870e+002, 4.025012e+001
3.211691e+002, 4.052660e+001
3.216512e+002, 4.074902e+001
3.221333e+002, 4.094139e+001
3.226154e+002, 4.109182e+001
3.230975e+002, 4.124554e+001
3.235797e+002, 4.150349e+001
3.240618e+002, 4.184284e+001
3.245439e+002, 4.230297e+001
3.250260e+002, 4.302899e+001
3.255081e+002, 4.386806e+001
3.259902e+002, 4.451046e+001
3.264724e+002, 4.483436e+001
3.269545e+002, 4.503086e+001
3.274366e+002, 4.543300e+001
3.279187e+002, 4.610231e+001
3.284008e+002, 4.659550e+001
3.288829e+002, 4.666579e+001
3.293651e+002, 4.659206e+001
3.298472e+002, 4.671401e+001
3.303293e+002, 4.709017e+001
3.308114e+002, 4.752671e+001
3.312935e+002, 4.780842e+001
3.317756e+002, 4.792044e+001
3.322578e+002, 4.820821e+001
3.327399e+002, 4.876459e+001
3.332220e+002, 4.943483e+001
3.337041e+002, 5.011713e+001
3.341862e+002, 5.080550e+001
3.346683e+002, 5.155371e+001
3.351505e+002, 5.241419e+001
3.356326e+002, 5.336579e+001
3.361147e+002, 5.422576e+001
3.365968e+002, 5.471002e+001
3.370789e+002, 5.541518e+001
3.375610e+002, 5.666398e+001
3.380432e+002, 5.833003e+001
3.385253e+002, 6.005955e+001
3.390074e+002, 6.165206e+001
3.394895e+002, 6.328780e+001
3.399716e+002, 6.549888e+001
3.404537e+002, 6.844787e+001
3.409359e+002, 7.155582e+001
3.414180e+002, 7.505716e+001
3.419001e+002, 7.854048e+001
3.423822e+002, 8.165123e+001
3.428643e+002, 8.428098e+001
3.433464e+002, 8.603954e+001
3.438286e+002, 8.636941e+001
3.443107e+002, 8.494944e+001
3.447928e+002, 8.256255e+001
3.452749e+002, 7.836497e+001
3.457570e+002, 7.380172e+001
3.462391e+002, 6.977364e+001
3.467213e+002, 6.646193e+001
3.472034e+002, 6.380531e+001
3.476855e+002, 6.181723e+001
3.481676e+002, 6.052021e+001
3.486497e+002, 5.964791e+001
3.491318e+002, 5.915754e+001
3.496140e+002, 5.904763e+001
3.500961e+002, 5.930823e+001
3.505782e+002, 5.995140e+001
3.510603e+002, 6.108923e+001
3.515424e+002, 6.283665e+001
3.520245e+002, 6.500756e+001
3.525067e+002, 6.681636e+001
3.529888e+002, 6.790484e+001
3.534709e+002, 6.907275e+001
3.539530e+002, 7.048374e+001
3.544351e+002, 7.199418e+001
3.549172e+002, 7.340820e+001
3.553994e+002, 7.466147e+001
3.558815e+002, 7.589953e+001
3.563636e+002, 7.739427e+001
3.568457e+002, 7.935086e+001
3.573278e+002, 8.115073e+001
3.578099e+002, 8.255772e+001
3.582920e+002, 8.399949e+001
3.587741e+002, 8.572898e+001
3.592563e+002, 8.778872e+001
3.597384e+002, 9.008807e+001
3.602205e+002, 9.255325e+001
3.607026e+002, 9.518188e+001
3.611847e+002, 9.801743e+001
3.616668e+002, 1.009792e+002
3.621490e+002, 1.042045e+002
3.626311e+002, 1.077227e+002
3.631132e+002, 1.115556e+002
3.635953e+002, 1.156849e+002
3.640774e+002, 1.201140e+002
3.645595e+002, 1.248161e+002
3.650417e+002, 1.296873e+002
3.655238e+002, 1.348831e+002
3.660059e+002, 1.400376e+002
3.664880e+002, 1.452065e+002
3.669701e+002, 1.502483e+002
3.674522e+002, 1.552006e+002
3.679344e+002, 1.600081e+002
3.684165e+002, 1.642940e+002
3.688986e+002, 1.675729e+002
3.693807e+002, 1.700084e+002
3.698628e+002, 1.708561e+002
3.703449e+002, 1.700109e+002
3.708271e+002, 1.677812e+002
3.713092e+002, 1.641003e+002
3.717913e+002, 1.590961e+002
3.722734e+002, 1.530290e+002
3.727555e+002, 1.459497e+002
3.732376e+002, 1.379076e+002
3.737198e+002, 1.300075e+002
3.742019e+002, 1.219042e+002
3.746840e+002, 1.144185e+002
3.751661e+002, 1.077742e+002
3.756482e+002, 1.018684e+002
3.761303e+002, 9.660529e+001
3.766125e+002, 9.191769e+001
3.770946e+002, 8.780264e+001
3.775767e+002, 8.424053e+001
3.780588e+002, 8.125074e+001
3.785409e+002, 7.878013e+001
3.790230e+002, 7.731025e+001
3.795052e+002, 7.604301e+001
3.799873e+002, 7.428980e+001
3.804694e+002, 7.192013e+001
3.809515e+002, 6.949490e+001
3.814336e+002, 6.763345e+001
3.819157e+002, 6.631986e+001
3.823979e+002, 6.495793e+001
3.828800e+002, 6.347910e+001
3.833621e+002, 6.192054e+001
3.838442e+002, 6.026752e+001
3.843263e+002, 5.855810e+001
3.848084e+002, 5.688070e+001
3.852906e+002, 5.527134e+001
3.857727e+002, 5.374522e+001
3.862548e+002, 5.233325e+001
3.867369e+002, 5.105124e+001
3.872190e+002, 4.984234e+001
3.877011e+002, 4.867263e+001
3.881833e+002, 4.755489e+001
3.886654e+002, 4.650546e+001
3.891475e+002, 4.550309e+001
3.896296e+002, 4.461490e+001
3.901117e+002, 4.391888e+001
3.905938e+002, 4.340009e+001
3.910760e+002, 4.298331e+001
3.915581e+002, 4.271010e+001
3.920402e+002, 4.244651e+001
3.925223e+002, 4.195629e+001
3.930044e+002, 4.121293e+001
3.934865e+002, 4.060032e+001
3.939687e+002, 4.039426e+001
3.944508e+002, 4.037276e+001
3.949329e+002, 4.015680e+001
3.954150e+002, 3.967377e+001
3.958971e+002, 3.917942e+001
3.963792e+002, 3.890540e+001
3.968614e+002, 3.883816e+001
3.973435e+002, 3.873703e+001
3.978256e+002, 3.860052e+001
3.983077e+002, 3.841801e+001
3.987898e+002, 3.812437e+001
3.992719e+002, 3.776455e+001
3.997540e+002, 3.751213e+001
4.002361e+002, 3.747753e+001
4.007183e+002, 3.756805e+001
4.012004e+002, 3.750523e+001
4.016825e+002, 3.715959e+001
4.021646e+002, 3.691152e+001
4.026467e+002, 3.689513e+001
4.031288e+002, 3.697903e+001
4.036110e+002, 3.701336e+001
4.040931e+002, 3.696444e+001
4.045752e+002, 3.689564e+001
4.050573e+002, 3.688693e+001
4.055394e+002, 3.696332e+001
4.060215e+002, 3.697036e+001
4.065037e+002, 3.688723e+001
4.069858e+002, 3.676516e+001
4.074679e+002, 3.660167e+001
4.079500e+002, 3.641890e+001
4.084321e+002, 3.625197e+001
4.089142e+002, 3.611696e+001
4.093964e+002, 3.602485e+001
4.098785e+002, 3.602541e+001
4.103606e+002, 3.624317e+001
4.108427e+002, 3.639388e+001
4.113248e+002, 3.635290e+001
4.118069e+002, 3.629038e+001
4.122891e+002, 3.639294e+001
4.127712e+002, 3.669791e+001
4.132533e+002, 3.706989e+001
4.137354e+002, 3.732987e+001
4.142175e+002, 3.745395e+001
4.146996e+002, 3.756515e+001
4.151818e+002, 3.766298e+001
4.156639e+002, 3.774736e+001
4.161460e+002, 3.776657e+001
4.166281e+002, 3.777073e+001
4.171102e+002, 3.787896e+001
4.175923e+002, 3.819516e+001
4.180745e+002, 3.864569e+001
4.185566e+002, 3.898680e+001
4.190387e+002, 3.920228e+001
4.195208e+002, 3.933589e+001
4.200029e+002, 3.934767e+001
4.204850e+002, 3.931747e+001
4.209672e+002, 3.928415e+001
4.214493e+002, 3.925283e+001
4.219314e+002, 3.932004e+001
4.224135e+002, 3.966932e+001
4.228956e+002, 4.027916e+001
4.233777e+002, 4.068682e+001
4.238599e+002, 4.065353e+001
4.243420e+002, 4.064159e+001
4.248241e+002, 4.105688e+001
4.253062e+002, 4.179712e+001
4.257883e+002, 4.249765e+001
4.262704e+002, 4.296461e+001
4.267526e+002, 4.332441e+001
4.272347e+002, 4.373306e+001
4.277168e+002, 4.419136e+001
4.281989e+002, 4.474761e+001
4.286810e+002, 4.544335e+001
4.291631e+002, 4.625267e+001
4.296453e+002, 4.709678e+001
4.301274e+002, 4.799928e+001
4.306095e+002, 4.888406e+001
4.310916e+002, 4.986204e+001
4.315737e+002, 5.076998e+001
4.320558e+002, 5.124372e+001
4.325380e+002, 5.116755e+001
4.330201e+002, 5.081871e+001
4.335022e+002, 5.055696e+001
4.339843e+002, 5.042872e+001
4.344664e+002, 4.981803e+001
4.349485e+002, 4.831965e+001
4.354307e+002, 4.665909e+001
4.359128e+002, 4.526647e+001
4.363949e+002, 4.413063e+001
4.368770e+002, 4.308972e+001
4.373591e+002, 4.204743e+001
4.378412e+002, 4.103569e+001
4.383234e+002, 4.019663e+001
4.388055e+002, 3.965112e+001
4.392876e+002, 3.912621e+001
4.397697e+002, 3.852404e+001
4.402518e+002, 3.798246e+001
4.407339e+002, 3.768574e+001
4.412160e+002, 3.764502e+001
4.416982e+002, 3.766122e+001
4.421803e+002, 3.748887e+001
4.426624e+002, 3.707689e+001
4.431445e+002, 3.684888e+001
4.436266e+002, 3.701851e+001
4.441087e+002, 3.715348e+001
4.445909e+002, 3.712174e+001
4.450730e+002, 3.696588e+001
4.455551e+002, 3.675818e+001
4.460372e+002, 3.653039e+001
4.465193e+002, 3.630206e+001
4.470014e+002, 3.611326e+001
4.474836e+002, 3.596169e+001
4.479657e+002, 3.585760e+001
4.484478e+002, 3.579473e+001
4.489299e+002, 3.578661e+001
4.494120e+002, 3.586949e+001
4.498941e+002, 3.603310e+001
4.503763e+002, 3.619926e+001
4.508584e+002, 3.633331e+001
4.513405e+002, 3.642533e+001
4.518226e+002, 3.639996e+001
4.523047e+002, 3.618993e+001
4.527868e+002, 3.602799e+001
4.532690e+002, 3.612883e+001
4.537511e+002, 3.634617e+001
4.542332e+002, 3.646621e+001
4.547153e+002, 3.640015e+001
4.551974e+002, 3.631328e+001
4.556795e+002, 3.633690e+001
4.561617e+002, 3.645555e+001
4.566438e+002, 3.661897e+001
4.571259e+002, 3.684113e+001
4.576080e+002, 3.704372e+001
4.580901e+002, 3.710026e+001
4.585722e+002, 3.701392e+001
4.590544e+002, 3.694371e+001
4.595365e+002, 3.689196e+001
4.600186e+002, 3.688671e+001
4.605007e+002, 3.697728e+001
4.609828e+002, 3.714857e+001
4.614649e+002, 3.732144e+001
4.619471e+002, 3.745402e+001
4.624292e+002, 3.754564e+001
4.629113e+002, 3.759381e+001
4.633934e+002, 3.749815e+001
4.638755e+002, 3.749280e+001
4.643576e+002, 3.760126e+001
4.648398e+002, 3.781417e+001
4.653219e+002, 3.814995e+001
4.658040e+002, 3.859872e+001
4.662861e+002, 3.908820e+001
4.667682e+002, 3.954824e+001
4.672503e+002, 3.998770e+001
4.677325e+002, 4.034153e+001
4.682146e+002, 4.035548e+001
4.686967e+002, 4.055838e+001
4.691788e+002, 4.122960e+001
4.696609e+002, 4.214394e+001
4.701430e+002, 4.291400e+001
4.706252e+002, 4.335919e+001
4.711073e+002, 4.375988e+001
4.715894e+002, 4.460646e+001
4.720715e+002, 4.594450e+001
4.725536e+002, 4.752342e+001
4.730357e+002, 4.950906e+001
4.735179e+002, 5.156264e+001
4.740000e+002, 5.347155e+001
4.744821e+002, 5.525849e+001
4.749642e+002, 5.711522e+001
4.754463e+002, 5.919005e+001
4.759284e+002, 6.138555e+001
4.764106e+002, 6.352187e+001
4.768927e+002, 6.558807e+001
4.773748e+002, 6.761614e+001
4.778569e+002, 6.967587e+001
4.783390e+002, 7.166811e+001
4.788211e+002, 7.338161e+001
4.793033e+002, 7.469095e+001
4.797854e+002, 7.614053e+001
4.802675e+002, 7.798780e+001
4.807496e+002, 8.016281e+001
4.812317e+002, 8.255214e+001
4.817138e+002, 8.513644e+001
4.821959e+002, 8.790349e+001
4.826780e+002, 9.079074e+001
4.831602e+002, 9.383103e+001
4.836423e+002, 9.749822e+001
4.841244e+002, 1.020295e+002
4.846065e+002, 1.068720e+002
4.850886e+002, 1.117753e+002
4.855707e+002, 1.168680e+002
4.860529e+002, 1.223377e+002
4.865350e+002, 1.282721e+002
4.870171e+002, 1.346862e+002
4.874992e+002, 1.415928e+002
4.879813e+002, 1.492825e+002
4.884634e+002, 1.568218e+002
4.889456e+002, 1.648297e+002
4.894277e+002, 1.721193e+002
4.899098e+002, 1.786397e+002
4.903919e+002, 1.839340e+002
4.908740e+002, 1.872606e+002
4.913561e+002, 1.882101e+002
4.918383e+002, 1.867462e+002
4.923204e+002, 1.826218e+002
4.928025e+002, 1.754612e+002
4.932846e+002, 1.667081e+002
4.937667e+002, 1.552200e+002
4.942488e+002, 1.433185e+002
4.947310e+002, 1.322369e+002
4.952131e+002, 1.221796e+002
4.956952e+002, 1.130950e+002
4.961773e+002, 1.050682e+002
4.966594e+002, 9.804912e+001
4.971415e+002, 9.197250e+001
4.976237e+002, 8.684635e+001
4.981058e+002, 8.261237e+001
4.985879e+002, 7.947549e+001
4.990700e+002, 7.713029e+001
4.995521e+002, 7.493758e+001
5.000342e+002, 7.280003e+001
5.005164e+002, 7.095557e+001
5.009985e+002, 6.951551e+001
5.014806e+002, 6.843642e+001
5.019627e+002, 6.766250e+001
5.024448e+002, 6.718758e+001
5.029269e+002, 6.689353e+001
5.034091e+002, 6.668856e+001
5.038912e+002, 6.657529e+001
5.043733e+002, 6.648101e+001
5.048554e+002, 6.625540e+001
5.053375e+002, 6.621196e+001
5.058196e+002, 6.656959e+001
5.063018e+002, 6.714895e+001
5.067839e+002, 6.768400e+001
5.072660e+002, 6.807814e+001
5.077481e+002, 6.840269e+001
5.082302e+002, 6.873174e+001
5.087123e+002, 6.898736e+001
5.091945e+002, 6.953224e+001
5.096766e+002, 7.047035e+001
5.101587e+002, 7.159435e+001
5.106408e+002, 7.298914e+001
5.111229e+002, 7.449590e+001
5.116050e+002, 7.584291e+001
5.120872e+002, 7.688990e+001
5.125693e+002, 7.773636e+001
5.130514e+002, 7.853819e+001
5.135335e+002, 7.929099e+001
5.140156e+002, 8.007929e+001
5.144977e+002, 8.115177e+001
5.149799e+002, 8.201943e+001
5.154620e+002, 8.226787e+001
5.159441e+002, 8.194978e+001
5.164262e+002, 8.144221e+001
5.169083e+002, 8.090417e+001
5.173904e+002, 8.025951e+001
5.178726e+002, 7.946534e+001
5.183547e+002, 7.850713e+001
5.188368e+002, 7.720835e+001
5.193189e+002, 7.544358e+001
5.198010e+002, 7.333503e+001
5.202831e+002, 7.114742e+001
5.207653e+002, 6.881970e+001
5.212474e+002, 6.657955e+001
5.217295e+002, 6.449949e+001
5.222116e+002, 6.250715e+001
5.226937e+002, 6.049236e+001
5.231758e+002, 5.849974e+001
5.236580e+002, 5.670091e+001
5.241401e+002, 5.522701e+001
5.246222e+002, 5.406226e+001
5.251043e+002, 5.311688e+001
5.255864e+002, 5.279950e+001
5.260685e+002, 5.211509e+001
5.265507e+002, 5.063631e+001
5.270328e+002, 4.901084e+001
5.275149e+002, 4.773900e+001
5.279970e+002, 4.688929e+001
5.284791e+002, 4.626283e+001
5.289612e+002, 4.571653e+001
5.294434e+002, 4.524751e+001
5.299255e+002, 4.484395e+001
5.304076e+002, 4.454200e+001
5.308897e+002, 4.422450e+001
5.313718e+002, 4.381165e+001
5.318539e+002, 4.337253e+001
5.323361e+002, 4.295087e+001
5.328182e+002, 4.254172e+001
5.333003e+002, 4.223712e+001
5.337824e+002, 4.219646e+001
5.342645e+002, 4.228310e+001
5.347466e+002, 4.217815e+001
5.352288e+002, 4.182981e+001
5.357109e+002, 4.143620e+001
5.361930e+002, 4.111003e+001
5.366751e+002, 4.086725e+001
5.371572e+002, 4.077673e+001
5.376393e+002, 4.097408e+001
5.381215e+002, 4.114277e+001
5.386036e+002, 4.111134e+001
5.390857e+002, 4.103997e+001
5.395678e+002, 4.114935e+001
5.400499e+002, 4.147352e+001
5.405320e+002, 4.185879e+001
5.410142e+002, 4.212904e+001
5.414963e+002, 4.227600e+001
5.419784e+002, 4.259174e+001
5.424604e+002, 4.326451e+001
5.429426e+002, 4.388490e+001
5.434247e+002, 4.430067e+001
5.439068e+002, 4.465447e+001
5.443889e+002, 4.508164e+001
5.448710e+002, 4.562372e+001
5.453531e+002, 4.629496e+001
5.458353e+002, 4.715055e+001
5.463174e+002, 4.817537e+001
5.467995e+002, 4.912745e+001
5.472816e+002, 4.991508e+001
5.477637e+002, 5.079298e+001
5.482458e+002, 5.210862e+001
5.487280e+002, 5.357827e+001
5.492101e+002, 5.469823e+001
5.496922e+002, 5.517306e+001
5.501743e+002, 5.573497e+001
5.506564e+002, 5.692599e+001
5.511385e+002, 5.852324e+001
5.516207e+002, 6.009639e+001
5.521028e+002, 6.155763e+001
5.525849e+002, 6.292712e+001
5.530670e+002, 6.416125e+001
5.535491e+002, 6.526498e+001
5.540313e+002, 6.677028e+001
5.545134e+002, 6.878203e+001
5.549955e+002, 7.100202e+001
5.554776e+002, 7.341187e+001
5.559597e+002, 7.597018e+001
5.564418e+002, 7.860410e+001
5.569240e+002, 8.130775e+001
5.574061e+002, 8.409477e+001
5.578882e+002, 8.702003e+001
5.583703e+002, 9.007248e+001
5.588524e+002, 9.312356e+001
5.593345e+002, 9.624704e+001
5.598167e+002, 9.921734e+001
5.602988e+002, 1.021272e+002
5.607809e+002, 1.047936e+002
5.612630e+002, 1.071862e+002
5.617451e+002, 1.093470e+002
5.622272e+002, 1.105648e+002
5.627094e+002, 1.101006e+002
5.631915e+002, 1.081848e+002
5.636736e+002, 1.055459e+002
5.641557e+002, 1.022312e+002
5.646378e+002, 9.829507e+001
5.651199e+002, 9.358861e+001
5.656021e+002, 8.826418e+001
5.660842e+002, 8.308044e+001
5.665663e+002, 7.787950e+001
5.670484e+002, 7.304473e+001
5.675305e+002, 6.869254e+001
5.680126e+002, 6.479044e+001
5.684948e+002, 6.129322e+001
5.689769e+002, 5.819870e+001
5.694590e+002, 5.541312e+001
5.699411e+002, 5.287677e+001
5.704232e+002, 5.058939e+001
5.709053e+002, 4.873751e+001
5.713875e+002, 4.759491e+001
5.718696e+002, 4.653684e+001
5.723517e+002, 4.546667e+001
5.728338e+002, 4.442850e+001
5.733159e+002, 4.345660e+001
5.737980e+002, 4.255670e+001
5.742802e+002, 4.173764e+001
5.747623e+002, 4.099723e+001
5.752444e+002, 4.034151e+001
5.757265e+002, 3.981053e+001
5.762086e+002, 3.942501e+001
5.766907e+002, 3.907912e+001
5.771729e+002, 3.872820e+001
5.776550e+002, 3.839138e+001
5.781371e+002, 3.808579e+001
5.786192e+002, 3.780021e+001
5.791013e+002, 3.759848e+001
5.795834e+002, 3.760681e+001
5.800656e+002, 3.765138e+001
5.805477e+002, 3.749303e+001
5.810298e+002, 3.714685e+001
5.815119e+002, 3.683591e+001
5.819940e+002, 3.671115e+001
5.824761e+002, 3.670589e+001
5.829583e+002, 3.659146e+001
5.834404e+002, 3.628364e+001
5.839225e+002, 3.598799e+001
5.844046e+002, 3.562119e+001
5.848867e+002, 3.533761e+001
5.853688e+002, 3.533783e+001
5.858510e+002, 3.552365e+001
5.863331e+002, 3.557223e+001
5.868152e+002, 3.524089e+001
5.872973e+002, 3.472329e+001
5.877794e+002, 3.449223e+001
5.882615e+002, 3.459596e+001
5.887437e+002, 3.465849e+001
5.892258e+002, 3.461042e+001
5.897079e+002, 3.446505e+001
5.901900e+002, 3.418452e+001
5.906721e+002, 3.380012e+001
5.911542e+002, 3.352240e+001
5.916364e+002, 3.343763e+001
5.921185e+002, 3.346665e+001
5.926006e+002, 3.363165e+001
5.930827e+002, 3.386197e+001
5.935648e+002, 3.393343e+001
5.940469e+002, 3.375675e+001
5.945291e+002, 3.347849e+001
5.950112e+002, 3.329433e+001
5.954933e+002, 3.321147e+001
5.959754e+002, 3.319707e+001
5.964575e+002, 3.339230e+001
5.969396e+002, 3.349006e+001
5.974218e+002, 3.330037e+001
5.979039e+002, 3.297575e+001
5.983860e+002, 3.273366e+001
5.988681e+002, 3.264787e+001
5.993502e+002, 3.263725e+001
5.998323e+002, 3.260434e+001
6.003145e+002, 3.255087e+001
6.007966e+002, 3.255331e+001
6.012787e+002, 3.268378e+001
6.017608e+002, 3.272152e+001
6.022429e+002, 3.235131e+001
6.027250e+002, 3.186481e+001
6.032072e+002, 3.175615e+001
6.036893e+002, 3.220650e+001
6.041714e+002, 3.266465e+001
6.046535e+002, 3.287433e+001
6.051356e+002, 3.291220e+001
6.056177e+002, 3.282475e+001
6.060999e+002, 3.264417e+001
6.065820e+002, 3.254290e+001
6.070641e+002, 3.265287e+001
6.075462e+002, 3.293344e+001
6.080283e+002, 3.320485e+001
6.085104e+002, 3.349782e+001
6.089926e+002, 3.373279e+001
6.094747e+002, 3.380128e+001
6.099568e+002, 3.389851e+001
6.104389e+002, 3.419028e+001
6.109210e+002, 3.464399e+001
6.114031e+002, 3.509429e+001
6.118853e+002, 3.541244e+001
6.123674e+002, 3.570471e+001
6.128495e+002, 3.623016e+001
6.133316e+002, 3.701527e+001
6.138137e+002, 3.775154e+001
6.142958e+002, 3.833052e+001
6.147780e+002, 3.888576e+001
6.152601e+002, 3.956326e+001
6.157422e+002, 4.034516e+001
6.162243e+002, 4.112706e+001
6.167064e+002, 4.194828e+001
6.171885e+002, 4.270269e+001
6.176707e+002, 4.321345e+001
6.181528e+002, 4.362691e+001
6.186349e+002, 4.424303e+001
6.191170e+002, 4.514979e+001
6.195991e+002, 4.623098e+001
6.200812e+002, 4.737257e+001
6.205634e+002, 4.859090e+001
6.210455e+002, 4.968131e+001
6.215276e+002, 5.042539e+001
6.220097e+002, 5.131372e+001
6.224918e+002, 5.249474e+001
6.229739e+002, 5.383503e+001
6.234561e+002, 5.514015e+001
6.239382e+002, 5.638765e+001
6.244203e+002, 5.783101e+001
6.249023e+002, 5.972773e+001
6.253845e+002, 6.196224e+001
6.258666e+002, 6.430506e+001
6.263487e+002, 6.678306e+001
6.268308e+002, 6.903345e+001
6.273129e+002, 7.092771e+001
6.277950e+002, 7.247731e+001
6.282772e+002, 7.369711e+001
6.287593e+002, 7.460993e+001
6.292414e+002, 7.520927e+001
6.297235e+002, 7.574824e+001
6.302056e+002, 7.575178e+001
6.306877e+002, 7.487423e+001
6.311699e+002, 7.319249e+001
6.316520e+002, 7.084868e+001
6.321341e+002, 6.791733e+001
6.326162e+002, 6.463293e+001
6.330983e+002, 6.135897e+001
6.335804e+002, 5.805711e+001
6.340626e+002, 5.488306e+001
6.345447e+002, 5.177737e+001
6.350268e+002, 4.891830e+001
6.355089e+002, 4.635368e+001
6.359910e+002, 4.406921e+001
6.364731e+002, 4.204316e+001
6.369553e+002, 4.028279e+001
6.374374e+002, 3.876374e+001
6.379195e+002, 3.754836e+001
6.384016e+002, 3.655102e+001
6.388837e+002, 3.559624e+001
6.393658e+002, 3.466957e+001
6.398480e+002, 3.384094e+001
6.403301e+002, 3.317433e+001
6.408122e+002, 3.261926e+001
6.412943e+002, 3.199767e+001
6.417764e+002, 3.108472e+001
6.422585e+002, 3.045225e+001
6.427407e+002, 3.029139e+001
6.432228e+002, 3.024015e+001
6.437049e+002, 3.010456e+001
6.441870e+002, 2.988127e+001
6.446691e+002, 2.962203e+001
6.451512e+002, 2.934892e+001
6.456334e+002, 2.908212e+001
6.461155e+002, 2.885302e+001
6.465976e+002, 2.866163e+001
6.470797e+002, 2.850402e+001
6.475618e+002, 2.839151e+001
6.480439e+002, 2.828906e+001
6.485261e+002, 2.816086e+001
6.490082e+002, 2.802180e+001
6.494903e+002, 2.792759e+001
6.499724e+002, 2.795749e+001
6.504545e+002, 2.791656e+001
6.509366e+002, 2.766174e+001
6.514188e+002, 2.733142e+001
6.519009e+002, 2.706337e+001
6.523830e+002, 2.688894e+001
6.528651e+002, 2.683406e+001
6.533472e+002, 2.693901e+001
6.538293e+002, 2.713247e+001
6.543115e+002, 2.712683e+001
6.547936e+002, 2.680073e+001
6.552757e+002, 2.656989e+001
6.557578e+002, 2.659669e+001
6.562399e+002, 2.664262e+001
6.567220e+002, 2.653867e+001
6.572042e+002, 2.634187e+001
6.576863e+002, 2.624923e+001
6.581684e+002, 2.639421e+001
6.586505e+002, 2.657416e+001
6.591326e+002, 2.661041e+001
6.596147e+002, 2.652841e+001
6.600969e+002, 2.637312e+001
6.605790e+002, 2.615140e+001
6.610611e+002, 2.595323e+001
6.615432e+002, 2.585921e+001
6.620253e+002, 2.586131e+001
6.625074e+002, 2.587327e+001
6.629896e+002, 2.592588e+001
6.634717e+002, 2.594729e+001
6.639538e+002, 2.585168e+001
6.644359e+002, 2.578384e+001
6.649180e+002, 2.593354e+001
6.654001e+002, 2.623539e+001
6.658823e+002, 2.640719e+001
6.663644e+002, 2.623461e+001
6.668465e+002, 2.590185e+001
6.673286e+002, 2.573577e+001
6.678107e+002, 2.573257e+001
6.682928e+002, 2.576321e+001
6.687750e+002, 2.580292e+001
6.692571e+002, 2.586443e+001
6.697392e+002, 2.600958e+001
6.702213e+002, 2.620926e+001
6.707034e+002, 2.621051e+001
6.711855e+002, 2.579880e+001
6.716677e+002, 2.544758e+001
6.721498e+002, 2.533612e+001
6.726319e+002, 2.534464e+001
6.731140e+002, 2.535719e+001
6.735961e+002, 2.535097e+001
6.740782e+002, 2.534710e+001
6.745604e+002, 2.536345e+001
6.750425e+002, 2.539111e+001
6.755246e+002, 2.539779e+001
6.760067e+002, 2.537615e+001
6.764888e+002, 2.536822e+001
6.769709e+002, 2.540193e+001
6.774531e+002, 2.542923e+001
6.779352e+002, 2.538100e+001
6.784173e+002, 2.529022e+001
6.788994e+002, 2.528283e+001
6.793815e+002, 2.551445e+001
6.798636e+002, 2.567344e+001
6.803458e+002, 2.547620e+001
6.808279e+002, 2.512659e+001
6.813100e+002, 2.494573e+001
6.817921e+002, 2.498490e+001
6.822742e+002, 2.511574e+001
6.827563e+002, 2.524966e+001
6.832385e+002, 2.536860e+001
6.837206e+002, 2.537104e+001
6.842027e+002, 2.516989e+001
6.846848e+002, 2.504259e+001
6.851669e+002, 2.507051e+001
6.856490e+002, 2.514383e+001
6.861312e+002, 2.522131e+001
6.866133e+002, 2.529302e+001
6.870954e+002, 2.534527e+001
6.875775e+002, 2.537725e+001
6.880596e+002, 2.537988e+001
6.885417e+002, 2.529308e+001
6.890239e+002, 2.517891e+001
6.895060e+002, 2.521644e+001
6.899881e+002, 2.543374e+001
6.904702e+002, 2.564640e+001
6.909523e+002, 2.571562e+001
6.914344e+002, 2.565725e+001
6.919166e+002, 2.554629e+001
6.923987e+002, 2.528778e+001
6.928808e+002, 2.513114e+001
6.933629e+002, 2.507284e+001
6.938450e+002, 2.512585e+001
6.943271e+002, 2.541347e+001
6.948093e+002, 2.581291e+001
6.952914e+002, 2.603330e+001
6.957735e+002, 2.593235e+001
6.962556e+002, 2.565726e+001
6.967377e+002, 2.526276e+001
6.972198e+002, 2.482306e+001
6.977020e+002, 2.462310e+001
6.981841e+002, 2.471726e+001
6.986662e+002, 2.490335e+001
6.991483e+002, 2.506142e+001
6.996304e+002, 2.518941e+001
7.001125e+002, 2.527711e+001
7.005947e+002, 2.532765e+001
7.010768e+002, 2.532986e+001
7.015589e+002, 2.521183e+001
7.020410e+002, 2.511233e+001
7.025231e+002, 2.515267e+001
7.030052e+002, 2.527308e+001
7.034874e+002, 2.532379e+001
7.039695e+002, 2.523312e+001
7.044516e+002, 2.512403e+001
7.049337e+002, 2.516039e+001
7.054158e+002, 2.531375e+001
7.058979e+002, 2.546549e+001
7.063801e+002, 2.561563e+001
7.068622e+002, 2.567665e+001
7.073442e+002, 2.556384e+001
7.078264e+002, 2.535217e+001
7.083085e+002, 2.523192e+001
7.087906e+002, 2.522645e+001
7.092727e+002, 2.524592e+001
7.097548e+002, 2.530597e+001
7.102369e+002, 2.536824e+001
7.107191e+002, 2.545061e+001
7.112012e+002, 2.550768e+001
7.116833e+002, 2.541924e+001
7.121654e+002, 2.514782e+001
7.126475e+002, 2.491130e+001
7.131296e+002, 2.502102e+001
7.136118e+002, 2.540283e+001
7.140939e+002, 2.564611e+001
7.145760e+002, 2.572697e+001
7.150581e+002, 2.574088e+001
7.155402e+002, 2.571630e+001
7.160223e+002, 2.566197e+001
7.165045e+002, 2.555995e+001
7.169866e+002, 2.537362e+001
7.174687e+002, 2.535688e+001
7.179508e+002, 2.568273e+001
7.184329e+002, 2.602127e+001
7.189150e+002, 2.618965e+001
7.193972e+002, 2.627443e+001
7.198793e+002, 2.643561e+001
7.203614e+002, 2.670127e+001
7.208435e+002, 2.692929e+001
7.213256e+002, 2.694702e+001
7.218077e+002, 2.682179e+001
7.222899e+002, 2.683933e+001
7.227720e+002, 2.702190e+001
7.232541e+002, 2.715542e+001
7.237362e+002, 2.714087e+001
7.242183e+002, 2.709680e+001
7.247004e+002, 2.716778e+001
7.251826e+002, 2.735215e+001
7.256647e+002, 2.752295e+001
7.261468e+002, 2.768979e+001
7.266289e+002, 2.782386e+001
7.271110e+002, 2.786531e+001
7.275931e+002, 2.789824e+001
7.280753e+002, 2.801520e+001
7.285574e+002, 2.822570e+001
7.290395e+002, 2.849147e+001
7.295216e+002, 2.880156e+001
7.300037e+002, 2.911718e+001
7.304858e+002, 2.934446e+001
7.309680e+002, 2.948036e+001
7.314501e+002, 2.960752e+001
7.319322e+002, 2.976007e+001
7.324143e+002, 2.986328e+001
7.328964e+002, 2.984568e+001
7.333785e+002, 2.972195e+001
7.338607e+002, 2.958553e+001
7.343428e+002, 2.938048e+001
7.348249e+002, 2.924987e+001
7.353070e+002, 2.940645e+001
7.357891e+002, 2.950029e+001
7.362712e+002, 2.915475e+001
7.367534e+002, 2.848968e+001
7.372355e+002, 2.788119e+001
7.377176e+002, 2.750684e+001
7.381997e+002, 2.730522e+001
7.386818e+002, 2.724103e+001
7.391639e+002, 2.729251e+001
7.396461e+002, 2.723594e+001
7.401282e+002, 2.703647e+001
7.406103e+002, 2.680349e+001
7.410924e+002, 2.656583e+001
7.415745e+002, 2.635673e+001
7.420566e+002, 2.626969e+001
7.425388e+002, 2.635642e+001
7.430209e+002, 2.637579e+001
7.435030e+002, 2.625646e+001
7.439851e+002, 2.611945e+001
7.444672e+002, 2.605081e+001
7.449493e+002, 2.599815e+001
7.454315e+002, 2.583977e+001
7.459136e+002, 2.555764e+001
7.463957e+002, 2.532333e+001
7.468778e+002, 2.536861e+001
7.473599e+002, 2.558060e+001
7.478420e+002, 2.559204e+001
7.483242e+002, 2.539780e+001
7.488063e+002, 2.520037e+001
7.492884e+002, 2.505136e+001
7.497705e+002, 2.496470e+001
7.502526e+002, 2.497615e+001
7.507347e+002, 2.509419e+001
7.512169e+002, 2.514378e+001
7.516990e+002, 2.504309e+001
7.521811e+002, 2.498599e+001
7.526632e+002, 2.511047e+001
7.531453e+002, 2.522726e+001
7.536274e+002, 2.509777e+001
7.541096e+002, 2.477798e+001
7.545917e+002, 2.456912e+001
7.550738e+002, 2.467864e+001
7.555559e+002, 2.489895e+001
7.560380e+002, 2.492424e+001
7.565201e+002, 2.480314e+001
7.570023e+002, 2.476784e+001
7.574844e+002, 2.486319e+001
7.579665e+002, 2.492107e+001
7.584486e+002, 2.480506e+001
7.589307e+002, 2.457871e+001
7.594128e+002, 2.445411e+001
7.598950e+002, 2.446073e+001
7.603771e+002, 2.451951e+001
7.608592e+002, 2.474039e+001
7.613413e+002, 2.489401e+001
7.618234e+002, 2.483149e+001
7.623055e+002, 2.464435e+001
7.627877e+002, 2.446439e+001
7.632698e+002, 2.432561e+001
7.637519e+002, 2.425224e+001
7.642340e+002, 2.428150e+001
7.647161e+002, 2.437753e+001
7.651982e+002, 2.453179e+001
7.656804e+002, 2.471479e+001
7.661625e+002, 2.476557e+001
7.666446e+002, 2.461624e+001
7.671267e+002, 2.439499e+001
7.676088e+002, 2.427172e+001
7.680909e+002, 2.425042e+001
7.685731e+002, 2.420144e+001
7.690552e+002, 2.411134e+001
7.695373e+002, 2.401453e+001
7.700194e+002, 2.386243e+001
7.705015e+002, 2.375033e+001
7.709836e+002, 2.378963e+001
7.714658e+002, 2.395077e+001
7.719479e+002, 2.406966e+001
7.724300e+002, 2.406447e+001
7.729121e+002, 2.403389e+001
7.733942e+002, 2.402304e+001
7.738763e+002, 2.404127e+001
7.743585e+002, 2.411209e+001
7.748406e+002, 2.423189e+001
7.753227e+002, 2.437208e+001
7.758048e+002, 2.451884e+001
7.762869e+002, 2.465326e+001
7.767690e+002, 2.473250e+001
7.772512e+002, 2.475620e+001
7.777333e+002, 2.472471e+001
7.782154e+002, 2.461147e+001
7.786975e+002, 2.449166e+001
7.791796e+002, 2.440125e+001
7.796617e+002, 2.433199e+001
7.801439e+002, 2.426612e+001
7.806260e+002, 2.419550e+001
7.811081e+002, 2.416320e+001
7.815902e+002, 2.424126e+001
7.820723e+002, 2.429883e+001
7.825544e+002, 2.423675e+001
7.830366e+002, 2.410093e+001
7.835187e+002, 2.392089e+001
7.840008e+002, 2.373193e+001
7.844829e+002, 2.369109e+001
7.849650e+002, 2.401924e+001
7.854471e+002, 2.455875e+001
7.859293e+002, 2.484017e+001
7.864114e+002, 2.486052e+001
7.868935e+002, 2.468394e+001
7.873756e+002, 2.420012e+001
7.878577e+002, 2.391900e+001
7.883398e+002, 2.441790e+001
7.888220e+002, 2.557645e+001
7.893040e+002, 2.635280e+001
7.897861e+002, 2.679593e+001
7.902682e+002, 2.681028e+001
7.907504e+002, 2.602540e+001
7.912325e+002, 2.514505e+001
7.917146e+002, 2.454994e+001
7.921967e+002, 2.423086e+001
7.926788e+002, 2.409218e+001
7.931609e+002, 2.411340e+001
7.936431e+002, 2.420017e+001
7.941252e+002, 2.428627e+001
7.946073e+002, 2.437483e+001
7.950894e+002, 2.449786e+001
7.955715e+002, 2.464071e+001
7.960536e+002, 2.467933e+001
7.965358e+002, 2.455390e+001
7.970179e+002, 2.439850e+001
7.975000e+002, 2.441103e+001
7.979821e+002, 2.460241e+001
7.984642e+002, 2.467990e+001
7.989464e+002, 2.450721e+001
7.994285e+002, 2.446793e+001
7.999106e+002, 2.484560e+001
8.003927e+002, 2.524156e+001
8.008748e+002, 2.530561e+001
8.013569e+002, 2.510376e+001
8.018391e+002, 2.499791e+001
8.023212e+002, 2.513203e+001
8.028033e+002, 2.530847e+001
8.032854e+002, 2.549211e+001
8.037675e+002, 2.561965e+001
8.042496e+002, 2.553951e+001
8.047318e+002, 2.532015e+001
8.052139e+002, 2.524484e+001
8.056960e+002, 2.547639e+001
8.061781e+002, 2.579814e+001
8.066602e+002, 2.581967e+001
8.071423e+002, 2.557211e+001
8.076245e+002, 2.550169e+001
8.081066e+002, 2.565409e+001
8.085887e+002, 2.584897e+001
8.090708e+002, 2.603501e+001
8.095529e+002, 2.618388e+001
8.100350e+002, 2.624978e+001
8.105172e+002, 2.622331e+001
8.109993e+002, 2.616382e+001
8.114814e+002, 2.600472e+001
8.119635e+002, 2.589791e+001
8.124456e+002, 2.595962e+001
8.129277e+002, 2.603854e+001
8.134099e+002, 2.594656e+001
8.138920e+002, 2.572138e+001
8.143741e+002, 2.559893e+001
8.148562e+002, 2.575739e+001
8.153383e+002, 2.593381e+001
8.158204e+002, 2.582529e+001
8.163026e+002, 2.553455e+001
8.167847e+002, 2.526188e+001
8.172668e+002, 2.503994e+001
8.177489e+002, 2.488163e+001
8.182310e+002, 2.479428e+001
8.187131e+002, 2.477579e+001
8.191953e+002, 2.484778e+001
8.196774e+002, 2.504705e+001
8.201595e+002, 2.508739e+001
8.206416e+002, 2.485459e+001
8.211237e+002, 2.468064e+001
8.216058e+002, 2.478174e+001
8.220880e+002, 2.493717e+001
8.225701e+002, 2.484936e+001
8.230522e+002, 2.452943e+001
8.235343e+002, 2.438015e+001
8.240164e+002, 2.463799e+001
8.244985e+002, 2.489401e+001
8.249807e+002, 2.498456e+001
8.254628e+002, 2.497144e+001
8.259449e+002, 2.492298e+001
8.264270e+002, 2.484400e+001
8.269091e+002, 2.468005e+001
8.273912e+002, 2.437356e+001
8.278734e+002, 2.409521e+001
8.283555e+002, 2.414666e+001
8.288376e+002, 2.444078e+001
8.293197e+002, 2.461693e+001
8.298018e+002, 2.464259e+001
8.302839e+002, 2.459386e+001
8.307661e+002, 2.449053e+001
8.312482e+002, 2.438391e+001
8.317303e+002, 2.436170e+001
8.322124e+002, 2.443652e+001
8.326945e+002, 2.450654e+001
8.331766e+002, 2.463018e+001
8.336588e+002, 2.466088e+001
8.341409e+002, 2.445264e+001
8.346230e+002, 2.423475e+001
8.351051e+002, 2.423087e+001
8.355872e+002, 2.440129e+001
8.360693e+002, 2.449864e+001
8.365515e+002, 2.438717e+001
8.370336e+002, 2.428626e+001
8.375157e+002, 2.434129e+001
8.379978e+002, 2.445383e+001
8.384799e+002, 2.451023e+001
8.389620e+002, 2.451422e+001
8.394442e+002, 2.452968e+001
8.399263e+002, 2.458699e+001
8.404084e+002, 2.464123e+001
8.408905e+002, 2.461082e+001
8.413726e+002, 2.451754e+001
8.418547e+002, 2.449010e+001
8.423369e+002, 2.453306e+001
8.428190e+002, 2.460580e+001
8.433011e+002, 2.470292e+001
8.437832e+002, 2.479792e+001
8.442653e+002, 2.485762e+001
8.447474e+002, 2.488299e+001
8.452296e+002, 2.491411e+001
8.457117e+002, 2.500012e+001
8.461938e+002, 2.501736e+001
8.466759e+002, 2.487618e+001
8.471580e+002, 2.473974e+001
8.476401e+002, 2.465934e+001
8.481223e+002, 2.467145e+001
8.486044e+002, 2.488068e+001
8.490865e+002, 2.538040e+001
8.495686e+002, 2.577593e+001
8.500507e+002, 2.576591e+001
8.505328e+002, 2.562005e+001
8.510150e+002, 2.555487e+001
8.514971e+002, 2.559364e+001
8.519792e+002, 2.580713e+001
8.524613e+002, 2.618443e+001
8.529434e+002, 2.646712e+001
8.534255e+002, 2.634863e+001
8.539077e+002, 2.598273e+001
8.543898e+002, 2.586826e+001
8.548719e+002, 2.600461e+001
8.553540e+002, 2.611591e+001
8.558361e+002, 2.613344e+001
8.563182e+002, 2.619355e+001
8.568004e+002, 2.644897e+001
8.572825e+002, 2.678583e+001
8.577646e+002, 2.682426e+001
8.582467e+002, 2.636268e+001
8.587288e+002, 2.603886e+001
8.592109e+002, 2.590766e+001
8.596931e+002, 2.584566e+001
8.601752e+002, 2.586429e+001
8.606573e+002, 2.589733e+001
8.611394e+002, 2.585647e+001
8.616215e+002, 2.573639e+001
8.621036e+002, 2.563342e+001
8.625858e+002, 2.563046e+001
8.630679e+002, 2.560884e+001
8.635500e+002, 2.542460e+001
8.640321e+002, 2.520502e+001
8.645142e+002, 2.517521e+001
8.649963e+002, 2.531032e+001
8.654785e+002, 2.537067e+001
8.659606e+002, 2.520930e+001
8.664427e+002, 2.496783e+001
8.669248e+002, 2.488632e+001
8.674069e+002, 2.492425e+001
8.678890e+002, 2.484503e+001
8.683712e+002, 2.463104e+001
8.688533e+002, 2.442787e+001
8.693354e+002, 2.427628e+001
8.698175e+002, 2.423639e+001
8.702996e+002, 2.443359e+001
8.707817e+002, 2.487262e+001
8.712639e+002, 2.501262e+001
8.717459e+002, 2.460681e+001
8.722280e+002, 2.433656e+001
8.727101e+002, 2.445768e+001
8.731923e+002, 2.461213e+001
8.736744e+002, 2.456478e+001
8.741565e+002, 2.438898e+001
8.746386e+002, 2.426729e+001
8.751207e+002, 2.422085e+001
8.756028e+002, 2.425639e+001
8.760850e+002, 2.444190e+001
8.765671e+002, 2.464721e+001
8.770492e+002, 2.480227e+001
8.775313e+002, 2.489850e+001
8.780134e+002, 2.493617e+001
8.784955e+002, 2.491520e+001
8.789777e+002, 2.482580e+001
8.794598e+002, 2.459831e+001
8.799419e+002, 2.437153e+001
8.804240e+002, 2.441191e+001
8.809061e+002, 2.465215e+001
8.813882e+002, 2.485166e+001
8.818704e+002, 2.497167e+001
8.823525e+002, 2.507229e+001
8.828346e+002, 2.519643e+001
8.833167e+002, 2.529937e+001
8.837988e+002, 2.527026e+001
8.842809e+002, 2.508288e+001
8.847631e+002, 2.497280e+001
8.852452e+002, 2.499722e+001
8.857273e+002, 2.494430e+001
8.862094e+002, 2.461408e+001
8.866915e+002, 2.430536e+001
8.871736e+002, 2.441057e+001
8.876558e+002, 2.489861e+001
8.881379e+002, 2.527570e+001
8.886200e+002, 2.553558e+001
8.891021e+002, 2.567328e+001
8.895842e+002, 2.558291e+001
8.900663e+002, 2.546978e+001
8.905485e+002, 2.546399e+001
8.910306e+002, 2.554588e+001
8.915127e+002, 2.566552e+001
8.919948e+002, 2.581205e+001
8.924769e+002, 2.594339e+001
8.929590e+002, 2.604277e+001
8.934412e+002, 2.610565e+001
8.939233e+002, 2.611110e+001
8.944054e+002, 2.608054e+001
8.948875e+002, 2.604696e+001
8.953696e+002, 2.602342e+001
8.958517e+002, 2.602617e+001
8.963339e+002, 2.606575e+001
8.968160e+002, 2.614422e+001
8.972981e+002, 2.629600e+001
8.977802e+002, 2.650595e+001
8.982623e+002, 2.659986e+001
8.987444e+002, 2.654824e+001
8.992266e+002, 2.654458e+001
8.997087e+002, 2.667395e+001
9.001908e+002, 2.692051e+001
9.006729e+002, 2.728632e+001
9.011550e+002, 2.778257e+001
9.016371e+002, 2.813457e+001
9.021193e+002, 2.824817e+001
9.026014e+002, 2.839380e+001
9.030835e+002, 2.860004e+001
9.035656e+002, 2.887592e+001
9.040477e+002, 2.926599e+001
9.045298e+002, 2.972415e+001
9.050120e+002, 3.012815e+001
9.054941e+002, 3.045428e+001
9.059762e+002, 3.075398e+001
9.064583e+002, 3.101171e+001
9.069404e+002, 3.127481e+001
9.074225e+002, 3.157045e+001
9.079047e+002, 3.188663e+001
9.083868e+002, 3.218948e+001
9.088689e+002, 3.248486e+001
9.093510e+002, 3.284697e+001
9.098331e+002, 3.334290e+001
9.103152e+002, 3.388298e+001
9.107974e+002, 3.439020e+001
9.112795e+002, 3.487329e+001
9.117616e+002, 3.536572e+001
9.122437e+002, 3.585189e+001
9.127258e+002, 3.625195e+001
9.132079e+002, 3.652739e+001
9.136901e+002, 3.675342e+001
9.141722e+002, 3.706567e+001
9.146543e+002, 3.742056e+001
9.151364e+002, 3.753024e+001
9.156185e+002, 3.738344e+001
9.161006e+002, 3.732625e+001
9.165828e+002, 3.745855e+001
9.170649e+002, 3.764198e+001
9.175470e+002, 3.777377e+001
9.180291e+002, 3.785749e+001
9.185112e+002, 3.790153e+001
9.189933e+002, 3.787421e+001
9.194755e+002, 3.788579e+001
9.199576e+002, 3.788757e+001
9.204397e+002, 3.799978e+001
9.209218e+002, 3.826973e+001
9.214039e+002, 3.867610e+001
9.218860e+002, 3.928341e+001
9.223682e+002, 4.007204e+001
9.228503e+002, 4.063851e+001
9.233324e+002, 4.064978e+001
9.238145e+002, 4.080843e+001
9.242966e+002, 4.131283e+001
9.247787e+002, 4.203516e+001
9.252609e+002, 4.298360e+001
9.257430e+002, 4.403725e+001
9.262251e+002, 4.495420e+001
9.267072e+002, 4.565831e+001
9.271893e+002, 4.641843e+001
9.276714e+002, 4.746375e+001
9.281536e+002, 4.859629e+001
9.286357e+002, 4.966411e+001
9.291178e+002, 5.066005e+001
9.295999e+002, 5.164901e+001
9.300820e+002, 5.259848e+001
9.305641e+002, 5.329069e+001
9.310463e+002, 5.357741e+001
9.315284e+002, 5.359844e+001
9.320105e+002, 5.366768e+001
9.324926e+002, 5.366407e+001
9.329747e+002, 5.302726e+001
9.334568e+002, 5.175312e+001
9.339390e+002, 5.019472e+001
9.344211e+002, 4.846765e+001
9.349032e+002, 4.676667e+001
9.353853e+002, 4.533415e+001
9.358674e+002, 4.409957e+001
9.363495e+002, 4.259019e+001
9.368317e+002, 4.066506e+001
9.373138e+002, 3.907848e+001
9.377959e+002, 3.795215e+001
9.382780e+002, 3.708556e+001
9.387601e+002, 3.641811e+001
9.392422e+002, 3.589244e+001
9.397244e+002, 3.541097e+001
9.402065e+002, 3.497959e+001
9.406886e+002, 3.456107e+001
9.411707e+002, 3.416947e+001
9.416528e+002, 3.376882e+001
9.421349e+002, 3.331181e+001
9.426171e+002, 3.287952e+001
9.430992e+002, 3.246758e+001
9.435813e+002, 3.213573e+001
9.440634e+002, 3.206082e+001
9.445455e+002, 3.235988e+001
9.450276e+002, 3.259623e+001
9.455098e+002, 3.253851e+001
9.459919e+002, 3.245079e+001
9.464740e+002, 3.250361e+001
9.469561e+002, 3.263671e+001
9.474382e+002, 3.274674e+001
9.479203e+002, 3.283212e+001
9.484025e+002, 3.299727e+001
9.488846e+002, 3.336115e+001
9.493667e+002, 3.365907e+001
9.498488e+002, 3.346152e+001
9.503309e+002, 3.313745e+001
9.508130e+002, 3.333722e+001
9.512952e+002, 3.394681e+001
9.517773e+002, 3.442794e+001
9.522594e+002, 3.460766e+001
9.527415e+002, 3.476807e+001
9.532236e+002, 3.518935e+001
9.537057e+002, 3.577397e+001
9.541878e+002, 3.627644e+001
9.546699e+002, 3.671876e+001
9.551520e+002, 3.724262e+001
9.556342e+002, 3.787133e+001
9.561163e+002, 3.856945e+001
9.565984e+002, 3.931837e+001
9.570805e+002, 4.014599e+001
9.575626e+002, 4.110685e+001
9.580447e+002, 4.220451e+001
9.585269e+002, 4.320100e+001
9.590090e+002, 4.401421e+001
9.594911e+002, 4.512352e+001
9.599732e+002, 4.672333e+001
9.604553e+002, 4.842100e+001
9.609374e+002, 4.987508e+001
9.614196e+002, 5.122215e+001
9.619017e+002, 5.286679e+001
9.623838e+002, 5.495263e+001
9.628659e+002, 5.688069e+001
9.633480e+002, 5.835189e+001
9.638301e+002, 6.006409e+001
9.643123e+002, 6.247223e+001
9.647944e+002, 6.496406e+001
9.652765e+002, 6.693334e+001
9.657586e+002, 6.851110e+001
9.662407e+002, 7.034682e+001
9.667228e+002, 7.262552e+001
9.672050e+002, 7.496056e+001
9.676871e+002, 7.738710e+001
9.681692e+002, 7.972562e+001
9.686513e+002, 8.175808e+001
9.691334e+002, 8.369891e+001
9.696155e+002, 8.586880e+001
9.700977e+002, 8.826810e+001
9.705798e+002, 9.054981e+001
9.710619e+002, 9.264805e+001
9.715440e+002, 9.443896e+001
9.720261e+002, 9.565477e+001
9.725082e+002, 9.667439e+001
9.729904e+002, 9.796638e+001
9.734725e+002, 9.938126e+001
9.739546e+002, 1.003841e+002
9.744367e+002, 1.008734e+002
9.749188e+002, 1.015589e+002
9.754009e+002, 1.029724e+002
9.758831e+002, 1.049130e+002
9.763652e+002, 1.072754e+002
9.768473e+002, 1.099027e+002
9.773294e+002, 1.123465e+002
9.778115e+002, 1.146921e+002
9.782936e+002, 1.175596e+002
9.787758e+002, 1.212586e+002
9.792579e+002, 1.253438e+002
9.797400e+002, 1.292028e+002
9.802221e+002, 1.330397e+002
9.807042e+002, 1.374591e+002
9.811863e+002, 1.424137e+002
9.816685e+002, 1.477478e+002
9.821506e+002, 1.534072e+002
9.826327e+002, 1.587090e+002
9.831148e+002, 1.631216e+002
9.835969e+002, 1.672204e+002
9.840790e+002, 1.722396e+002
9.845612e+002, 1.781830e+002
9.850433e+002, 1.833295e+002
9.855254e+002, 1.876111e+002
9.860075e+002, 1.914025e+002
9.864896e+002, 1.946935e+002
9.869717e+002, 1.979339e+002
9.874539e+002, 2.016166e+002
9.879360e+002, 2.054099e+002
9.884181e+002, 2.082980e+002
9.889002e+002, 2.102525e+002
9.893823e+002, 2.113987e+002
9.898644e+002, 2.120405e+002
9.903466e+002, 2.112386e+002
9.908287e+002, 2.081558e+002
9.913108e+002, 2.041007e+002
9.917929e+002, 2.003423e+002
9.922750e+002, 1.967263e+002
9.927571e+002, 1.923680e+002
9.932393e+002, 1.874693e+002
9.937214e+002, 1.814997e+002
9.942035e+002, 1.735633e+002
9.946856e+002, 1.655737e+002
9.951677e+002, 1.582849e+002
9.956498e+002, 1.513251e+002
9.961320e+002, 1.443441e+002
9.966141e+002, 1.373009e+002
9.970962e+002, 1.302515e+002
9.975783e+002, 1.229064e+002
9.980604e+002, 1.160951e+002
9.985425e+002, 1.103155e+002
9.990247e+002, 1.048611e+002
9.995068e+002, 9.913478e+001
9.999889e+002, 9.359353e+001
1.000471e+003, 8.911189e+001
1.000953e+003, 8.568526e+001
1.001435e+003, 8.225162e+001
1.001917e+003, 7.817737e+001
1.002399e+003, 7.431913e+001
1.002882e+003, 7.119219e+001
1.003364e+003, 6.846120e+001
1.003846e+003, 6.579694e+001
1.004328e+003, 6.326315e+001
1.004810e+003, 6.103192e+001
1.005292e+003, 5.912897e+001
1.005774e+003, 5.735526e+001
1.006256e+003, 5.556016e+001
1.006739e+003, 5.385904e+001
1.007221e+003, 5.247129e+001
1.007703e+003, 5.118222e+001
1.008185e+003, 4.957339e+001
1.008667e+003, 4.779316e+001
1.009149e+003, 4.636458e+001
1.009631e+003, 4.546160e+001
1.010113e+003, 4.474370e+001
1.010595e+003, 4.397409e+001
1.011078e+003, 4.315829e+001
1.011560e+003, 4.223400e+001
1.012042e+003, 4.129219e+001
1.012524e+003, 4.058165e+001
1.013006e+003, 4.008269e+001
1.013488e+003, 3.956939e+001
1.013970e+003, 3.893975e+001
1.014452e+003, 3.825700e+001
1.014935e+003, 3.758498e+001
1.015417e+003, 3.691636e+001
1.015899e+003, 3.621497e+001
1.016381e+003, 3.549635e+001
1.016863e+003, 3.484448e+001
1.017345e+003, 3.427306e+001
1.017827e+003, 3.377735e+001
1.018309e+003, 3.336143e+001
1.018791e+003, 3.291447e+001
1.019274e+003, 3.224910e+001
1.019756e+003, 3.143152e+001
1.020238e+003, 3.074820e+001
1.020720e+003, 3.020258e+001
1.021202e+003, 2.987867e+001
1.021684e+003, 2.980621e+001
1.022166e+003, 2.964045e+001
1.022648e+003, 2.916287e+001
1.023130e+003, 2.858025e+001
1.023613e+003, 2.822975e+001
1.024095e+003, 2.809603e+001
1.024577e+003, 2.793030e+001
1.025059e+003, 2.772716e+001
1.025541e+003, 2.753523e+001
1.026023e+003, 2.735479e+001
1.026505e+003, 2.723020e+001
1.026987e+003, 2.720926e+001
1.027469e+003, 2.721516e+001
1.027952e+003, 2.709646e+001
1.028434e+003, 2.684461e+001
1.028916e+003, 2.665676e+001
1.029398e+003, 2.653874e+001
1.029880e+003, 2.646683e+001
1.030362e+003, 2.645288e+001
1.030844e+003, 2.644027e+001
1.031326e+003, 2.636591e+001
1.031809e+003, 2.630097e+001
1.032291e+003, 2.641831e+001
1.032773e+003, 2.676486e+001
1.033255e+003, 2.687996e+001
1.033737e+003, 2.659312e+001
1.034219e+003, 2.645467e+001
1.034701e+003, 2.663773e+001
1.035183e+003, 2.688805e+001
1.035666e+003, 2.707002e+001
1.036148e+003, 2.718590e+001
1.036630e+003, 2.723264e+001
1.037112e+003, 2.719822e+001
1.037594e+003, 2.715550e+001
1.038076e+003, 2.695729e+001
1.038558e+003, 2.699134e+001
1.039040e+003, 2.751224e+001
1.039522e+003, 2.807670e+001
1.040005e+003, 2.832411e+001
1.040487e+003, 2.843918e+001
1.040969e+003, 2.884855e+001
1.041451e+003, 2.964638e+001
1.041933e+003, 3.024457e+001
1.042415e+003, 3.044670e+001
1.042897e+003, 3.071239e+001
1.043379e+003, 3.117189e+001
1.043861e+003, 3.167477e+001
1.044344e+003, 3.207558e+001
1.044826e+003, 3.246578e+001
1.045308e+003, 3.306662e+001
1.045790e+003, 3.394296e+001
1.046272e+003, 3.464673e+001
1.046754e+003, 3.492634e+001
1.047236e+003, 3.531101e+001
1.047718e+003, 3.600043e+001
1.048201e+003, 3.676539e+001
1.048683e+003, 3.743990e+001
1.049165e+003, 3.807916e+001
1.049647e+003, 3.880210e+001
1.050129e+003, 3.961688e+001
1.050611e+003, 4.052408e+001
1.051093e+003, 4.171407e+001
1.051575e+003, 4.272985e+001
1.052057e+003, 4.323121e+001
1.052540e+003, 4.370886e+001
1.053022e+003, 4.453156e+001
1.053504e+003, 4.558335e+001
1.053986e+003, 4.668328e+001
1.054468e+003, 4.781561e+001
1.054950e+003, 4.868829e+001
1.055432e+003, 4.913929e+001
1.055914e+003, 4.943484e+001
1.056396e+003, 4.956842e+001
1.056879e+003, 4.967440e+001
1.057361e+003, 4.992843e+001
1.057843e+003, 5.019195e+001
1.058325e+003, 5.022777e+001
1.058807e+003, 4.999951e+001
1.059289e+003, 4.962050e+001
1.059771e+003, 4.922224e+001
1.060253e+003, 4.855172e+001
1.060736e+003, 4.729226e+001
1.061218e+003, 4.593806e+001
1.061700e+003, 4.489216e+001
1.062182e+003, 4.399523e+001
1.062664e+003, 4.293377e+001
1.063146e+003, 4.166943e+001
1.063628e+003, 4.043518e+001
1.064110e+003, 3.933797e+001
1.064593e+003, 3.824501e+001
1.065075e+003, 3.702728e+001
1.065557e+003, 3.586561e+001
1.066039e+003, 3.490728e+001
1.066521e+003, 3.409323e+001
1.067003e+003, 3.336014e+001
1.067485e+003, 3.268198e+001
1.067967e+003, 3.195770e+001
1.068449e+003, 3.109922e+001
1.068932e+003, 3.027725e+001
1.069414e+003, 2.955708e+001
1.069896e+003, 2.891323e+001
1.070378e+003, 2.833065e+001
1.070860e+003, 2.780662e+001
1.071342e+003, 2.730721e+001
1.071824e+003, 2.685025e+001
1.072306e+003, 2.655365e+001
1.072788e+003, 2.658484e+001
1.073271e+003, 2.649631e+001
1.073753e+003, 2.588251e+001
1.074235e+003, 2.527982e+001
1.074717e+003, 2.512053e+001
1.075199e+003, 2.518290e+001
1.075681e+003, 2.521026e+001
1.076163e+003, 2.514265e+001
1.076645e+003, 2.492463e+001
1.077127e+003, 2.445605e+001
1.077610e+003, 2.409833e+001
1.078092e+003, 2.417312e+001
1.078574e+003, 2.424555e+001
1.079056e+003, 2.396917e+001
1.079538e+003, 2.355841e+001
1.080020e+003, 2.323436e+001
1.080502e+003, 2.303554e+001
1.080984e+003, 2.299562e+001
1.081467e+003, 2.318443e+001
1.081949e+003, 2.323100e+001
1.082431e+003, 2.278899e+001
1.082913e+003, 2.236305e+001
1.083395e+003, 2.230438e+001
1.083877e+003, 2.238996e+001
1.084359e+003, 2.239857e+001
1.084841e+003, 2.232548e+001
1.085323e+003, 2.222619e+001
1.085806e+003, 2.210816e+001
1.086288e+003, 2.203708e+001
1.086770e+003, 2.208505e+001
1.087252e+003, 2.213177e+001
1.087734e+003, 2.208240e+001
1.088216e+003, 2.203094e+001
1.088698e+003, 2.212538e+001
1.089180e+003, 2.227031e+001
1.089662e+003, 2.223029e+001
1.090145e+003, 2.195600e+001
1.090627e+003, 2.172283e+001
1.091109e+003, 2.166956e+001
1.091591e+003, 2.162955e+001
1.092073e+003, 2.155526e+001
1.092555e+003, 2.144366e+001
1.093037e+003, 2.120939e+001
1.093519e+003, 2.097638e+001
1.094002e+003, 2.098969e+001
1.094484e+003, 2.126064e+001
1.094966e+003, 2.145311e+001
1.095448e+003, 2.141491e+001
1.095930e+003, 2.135115e+001
1.096412e+003, 2.130317e+001
1.096894e+003, 2.127795e+001
1.097376e+003, 2.128952e+001
1.097859e+003, 2.132025e+001
1.098341e+003, 2.138019e+001
1.098823e+003, 2.144728e+001
1.099305e+003, 2.139398e+001
1.099787e+003, 2.110375e+001
1.100269e+003, 2.087483e+001
1.100751e+003, 2.077375e+001
1.101233e+003, 2.076417e+001
1.101715e+003, 2.087767e+001
1.102198e+003, 2.103570e+001
1.102680e+003, 2.120546e+001
1.103162e+003, 2.134871e+001
1.103644e+003, 2.132892e+001
1.104126e+003, 2.102772e+001
1.104608e+003, 2.088157e+001
1.105090e+003, 2.111240e+001
1.105572e+003, 2.132131e+001
1.106054e+003, 2.136654e+001
1.106537e+003, 2.133952e+001
1.107019e+003, 2.127982e+001
1.107501e+003, 2.121621e+001
1.107983e+003, 2.121490e+001
1.108465e+003, 2.129538e+001
1.108947e+003, 2.135214e+001
1.109429e+003, 2.134034e+001
1.109911e+003, 2.135482e+001
1.110394e+003, 2.143920e+001
1.110876e+003, 2.152853e+001
1.111358e+003, 2.158203e+001
1.111840e+003, 2.161633e+001
1.112322e+003, 2.164460e+001
1.112804e+003, 2.166333e+001
1.113286e+003, 2.175781e+001
1.113768e+003, 2.210187e+001
1.114250e+003, 2.222827e+001
1.114733e+003, 2.193620e+001
1.115215e+003, 2.165142e+001
1.115697e+003, 2.152891e+001
1.116179e+003, 2.152636e+001
1.116661e+003, 2.161427e+001
1.117143e+003, 2.178292e+001
1.117625e+003, 2.197237e+001
1.118107e+003, 2.229436e+001
1.118589e+003, 2.235779e+001
1.119072e+003, 2.203363e+001
1.119554e+003, 2.169557e+001
1.120036e+003, 2.141749e+001
1.120518e+003, 2.123440e+001
1.121000e+003, 2.119486e+001
1.121482e+003, 2.125957e+001
1.121964e+003, 2.132297e+001
1.122446e+003, 2.139911e+001
1.122929e+003, 2.137999e+001
1.123411e+003, 2.123680e+001
1.123893e+003, 2.108560e+001
1.124375e+003, 2.092725e+001
1.124857e+003, 2.084208e+001
1.125339e+003, 2.089677e+001
1.125821e+003, 2.102345e+001
1.126303e+003, 2.111762e+001
1.126786e+003, 2.117612e+001
1.127268e+003, 2.111950e+001
1.127750e+003, 2.092733e+001
1.128232e+003, 2.081769e+001
1.128714e+003, 2.083139e+001
1.129196e+003, 2.082679e+001
1.129678e+003, 2.073136e+001
1.130160e+003, 2.064421e+001
1.130642e+003, 2.068229e+001
1.131125e+003, 2.081400e+001
1.131607e+003, 2.095220e+001
1.132089e+003, 2.109123e+001
1.132571e+003, 2.110740e+001
1.133053e+003, 2.099764e+001
1.133535e+003, 2.090175e+001
1.134017e+003, 2.086254e+001
1.134499e+003, 2.086370e+001
1.134981e+003, 2.090230e+001
1.135464e+003, 2.092261e+001
1.135946e+003, 2.080508e+001
1.136428e+003, 2.058472e+001
1.136910e+003, 2.035488e+001
1.137392e+003, 2.014400e+001
1.137874e+003, 2.009640e+001
1.138356e+003, 2.022128e+001
1.138838e+003, 2.039587e+001
1.139321e+003, 2.055815e+001
1.139803e+003, 2.067616e+001
1.140285e+003, 2.071037e+001
1.140767e+003, 2.068197e+001
1.141249e+003, 2.060421e+001
1.141731e+003, 2.050535e+001
1.142213e+003, 2.042481e+001
1.142695e+003, 2.038525e+001
1.143177e+003, 2.046556e+001
1.143660e+003, 2.067043e+001
1.144142e+003, 2.082630e+001
1.144624e+003, 2.077807e+001
1.145106e+003, 2.071043e+001
1.145588e+003, 2.090705e+001
1.146070e+003, 2.112332e+001
1.146552e+003, 2.097834e+001
1.147034e+003, 2.064911e+001
1.147516e+003, 2.048501e+001
1.147999e+003, 2.051746e+001
1.148481e+003, 2.058260e+001
1.148963e+003, 2.062577e+001
1.149445e+003, 2.060300e+001
1.149927e+003, 2.039692e+001
1.150409e+003, 2.021642e+001
1.150891e+003, 2.023438e+001
1.151373e+003, 2.033958e+001
1.151856e+003, 2.043208e+001
1.152338e+003, 2.050004e+001
1.152820e+003, 2.053567e+001
1.153302e+003, 2.053802e+001
1.153784e+003, 2.059847e+001
1.154266e+003, 2.090837e+001
1.154748e+003, 2.105286e+001
1.155230e+003, 2.067909e+001
1.155713e+003, 2.033635e+001
1.156195e+003, 2.047001e+001
1.156677e+003, 2.076822e+001
1.157159e+003, 2.077426e+001
1.157641e+003, 2.051929e+001
1.158123e+003, 2.042325e+001
1.158605e+003, 2.067001e+001
1.159087e+003, 2.076490e+001
1.159569e+003, 2.052623e+001
1.160052e+003, 2.034036e+001
1.160534e+003, 2.031912e+001
1.161016e+003, 2.037276e+001
1.161498e+003, 2.044251e+001
1.161980e+003, 2.053910e+001
1.162462e+003, 2.071414e+001
1.162944e+003, 2.099634e+001
1.163426e+003, 2.101780e+001
1.163908e+003, 2.059783e+001
1.164391e+003, 2.047340e+001
1.164873e+003, 2.084783e+001
1.165355e+003, 2.121748e+001
1.165837e+003, 2.136353e+001
1.166319e+003, 2.134714e+001
1.166801e+003, 2.121610e+001
1.167283e+003, 2.100938e+001
1.167765e+003, 2.088249e+001
1.168247e+003, 2.083649e+001
1.168730e+003, 2.085056e+001
1.169212e+003, 2.092583e+001
1.169694e+003, 2.099915e+001
1.170176e+003, 2.105478e+001
1.170658e+003, 2.101852e+001
1.171140e+003, 2.082438e+001
1.171622e+003, 2.061582e+001
1.172104e+003, 2.065131e+001
1.172587e+003, 2.084953e+001
1.173069e+003, 2.097079e+001
1.173551e+003, 2.101056e+001
1.174033e+003, 2.088838e+001
1.174515e+003, 2.065175e+001
1.174997e+003, 2.058607e+001
1.175479e+003, 2.078600e+001
1.175961e+003, 2.101511e+001
1.176443e+003, 2.109740e+001
1.176926e+003, 2.107010e+001
1.177408e+003, 2.088236e+001
1.177890e+003, 2.068604e+001
1.178372e+003, 2.073321e+001
1.178854e+003, 2.093443e+001
1.179336e+003, 2.113081e+001
1.179818e+003, 2.126944e+001
1.180300e+003, 2.128662e+001
1.180782e+003, 2.114179e+001
1.181265e+003, 2.099573e+001
1.181747e+003, 2.094869e+001
1.182229e+003, 2.093008e+001
1.182711e+003, 2.092319e+001
1.183193e+003, 2.089719e+001
1.183675e+003, 2.076120e+001
1.184157e+003, 2.061202e+001
1.184639e+003, 2.063619e+001
1.185122e+003, 2.085421e+001
1.185604e+003, 2.110948e+001
1.186086e+003, 2.152093e+001
1.186568e+003, 2.171867e+001
1.187050e+003, 2.150931e+001
1.187532e+003, 2.123883e+001
1.188014e+003, 2.097008e+001
1.188496e+003, 2.077748e+001
1.188979e+003, 2.073880e+001
1.189461e+003, 2.082357e+001
1.189943e+003, 2.097022e+001
1.190425e+003, 2.122393e+001
1.190907e+003, 2.124504e+001
1.191389e+003, 2.087592e+001
1.191871e+003, 2.073636e+001
1.192353e+003, 2.099839e+001
1.192835e+003, 2.128752e+001
1.193318e+003, 2.143143e+001
1.193800e+003, 2.146506e+001
1.194282e+003, 2.140793e+001
1.194764e+003, 2.130219e+001
1.195246e+003, 2.135598e+001
1.195728e+003, 2.155704e+001
1.196210e+003, 2.150698e+001
1.196692e+003, 2.120799e+001
1.197174e+003, 2.110870e+001
1.197657e+003, 2.131031e+001
1.198139e+003, 2.150605e+001
1.198621e+003, 2.150397e+001
1.199103e+003, 2.143048e+001
1.199585e+003, 2.143874e+001
1.200067e+003, 2.150420e+001
1.200549e+003, 2.160262e+001
1.201031e+003, 2.170979e+001
1.201514e+003, 2.177484e+001
1.201996e+003, 2.179821e+001
1.202478e+003, 2.179677e+001
1.202960e+003, 2.177747e+001
1.203442e+003, 2.174625e+001
1.203924e+003, 2.170299e+001
1.204406e+003, 2.166012e+001
1.204888e+003, 2.161493e+001
1.205370e+003, 2.158755e+001
1.205853e+003, 2.160696e+001
1.206335e+003, 2.164537e+001
1.206817e+003, 2.169042e+001
1.207299e+003, 2.172030e+001
1.207781e+003, 2.166522e+001
1.208263e+003, 2.150113e+001
1.208745e+003, 2.144376e+001
1.209227e+003, 2.167591e+001
1.209709e+003, 2.182257e+001
1.210192e+003, 2.170040e+001
1.210674e+003, 2.160085e+001
1.211156e+003, 2.169117e+001
1.211638e+003, 2.185660e+001
1.212120e+003, 2.201867e+001
1.212602e+003, 2.215290e+001
1.213084e+003, 2.214790e+001
1.213566e+003, 2.195057e+001
1.214049e+003, 2.189136e+001
1.214531e+003, 2.201115e+001
1.215013e+003, 2.210457e+001
1.215495e+003, 2.212793e+001
1.215977e+003, 2.214731e+001
1.216459e+003, 2.219639e+001
1.216941e+003, 2.227130e+001
1.217423e+003, 2.238969e+001
1.217906e+003, 2.249232e+001
1.218388e+003, 2.231052e+001
1.218870e+003, 2.193987e+001
1.219352e+003, 2.192133e+001
1.219834e+003, 2.220374e+001
1.220316e+003, 2.235437e+001
1.220798e+003, 2.229609e+001
1.221280e+003, 2.225806e+001
1.221762e+003, 2.236487e+001
1.222245e+003, 2.250346e+001
1.222727e+003, 2.257165e+001
1.223209e+003, 2.259968e+001
1.223691e+003, 2.262345e+001
1.224173e+003, 2.262705e+001
1.224655e+003, 2.257468e+001
1.225137e+003, 2.249156e+001
1.225619e+003, 2.241252e+001
1.226101e+003, 2.235425e+001
1.226584e+003, 2.235716e+001
1.227066e+003, 2.245704e+001
1.227548e+003, 2.255521e+001
1.228030e+003, 2.267456e+001
1.228512e+003, 2.271111e+001
1.228994e+003, 2.248149e+001
1.229476e+003, 2.228971e+001
1.229958e+003, 2.250947e+001
1.230441e+003, 2.285883e+001
1.230923e+003, 2.276523e+001
1.231405e+003, 2.224990e+001
1.231887e+003, 2.208593e+001
1.232369e+003, 2.244998e+001
1.232851e+003, 2.259659e+001
1.233333e+003, 2.239368e+001
1.233815e+003, 2.236206e+001
1.234297e+003, 2.271019e+001
1.234780e+003, 2.302148e+001
1.235262e+003, 2.297967e+001
1.235744e+003, 2.278723e+001
1.236226e+003, 2.279363e+001
1.236708e+003, 2.294604e+001
1.237190e+003, 2.303685e+001
1.237672e+003, 2.307096e+001
1.238154e+003, 2.305956e+001
1.238636e+003, 2.301405e+001
1.239119e+003, 2.296045e+001
1.239601e+003, 2.291580e+001
1.240083e+003, 2.293969e+001
1.240565e+003, 2.308496e+001
1.241047e+003, 2.323208e+001
1.241529e+003, 2.327713e+001
1.242011e+003, 2.325755e+001
1.242493e+003, 2.312087e+001
1.242975e+003, 2.301264e+001
1.243458e+003, 2.320141e+001
1.243940e+003, 2.352666e+001
1.244422e+003, 2.358596e+001
1.244904e+003, 2.333930e+001
1.245386e+003, 2.319733e+001
1.245868e+003, 2.330994e+001
1.246350e+003, 2.345331e+001
1.246832e+003, 2.371505e+001
1.247315e+003, 2.382895e+001
1.247797e+003, 2.356889e+001
1.248279e+003, 2.329762e+001
1.248761e+003, 2.327120e+001
1.249243e+003, 2.339397e+001
1.249725e+003, 2.349120e+001
1.250207e+003, 2.356906e+001
1.250689e+003, 2.379090e+001
1.251172e+003, 2.419685e+001
1.251654e+003, 2.424856e+001
1.252136e+003, 2.389039e+001
1.252618e+003, 2.359341e+001
1.253100e+003, 2.349939e+001
1.253582e+003, 2.357594e+001
1.254064e+003, 2.381563e+001
1.254546e+003, 2.405274e+001
1.255028e+003, 2.399712e+001
1.255510e+003, 2.382343e+001
1.255993e+003, 2.389109e+001
1.256475e+003, 2.406761e+001
1.256957e+003, 2.411416e+001
1.257439e+003, 2.404596e+001
1.257921e+003, 2.393381e+001
1.258403e+003, 2.381686e+001
1.258885e+003, 2.378640e+001
1.259367e+003, 2.390897e+001
1.259850e+003, 2.401562e+001
1.260332e+003, 2.403421e+001
1.260814e+003, 2.401021e+001
1.261296e+003, 2.391137e+001
1.261778e+003, 2.383293e+001
1.262260e+003, 2.381419e+001
1.262742e+003, 2.388392e+001
1.263224e+003, 2.414337e+001
1.263707e+003, 2.454879e+001
1.264189e+003, 2.471456e+001
1.264671e+003, 2.455079e+001
1.265153e+003, 2.445767e+001
1.265635e+003, 2.445852e+001
1.266117e+003, 2.441866e+001
1.266599e+003, 2.429102e+001
1.267081e+003, 2.425725e+001
1.267563e+003, 2.443041e+001
1.268046e+003, 2.463732e+001
1.268528e+003, 2.467428e+001
1.269010e+003, 2.459199e+001
1.269492e+003, 2.445433e+001
1.269974e+003, 2.431545e+001
1.270456e+003, 2.433124e+001
1.270938e+003, 2.446228e+001
1.271420e+003, 2.460883e+001
1.271902e+003, 2.473484e+001
1.272385e+003, 2.480165e+001
1.272867e+003, 2.479411e+001
1.273349e+003, 2.475529e+001
1.273831e+003, 2.463726e+001
1.274313e+003, 2.459689e+001
1.274795e+003, 2.481864e+001
1.275277e+003, 2.502392e+001
1.275759e+003, 2.493971e+001
1.276242e+003, 2.480802e+001
1.276724e+003, 2.499609e+001
1.277206e+003, 2.536250e+001
1.277688e+003, 2.538191e+001
1.278170e+003, 2.498779e+001
1.278652e+003, 2.487667e+001
1.279134e+003, 2.515443e+001
1.279616e+003, 2.533245e+001
1.280099e+003, 2.535321e+001
1.280581e+003, 2.529441e+001
1.281063e+003, 2.517425e+001
1.281545e+003, 2.506351e+001
1.282027e+003, 2.501488e+001
1.282509e+003, 2.502253e+001
1.282991e+003, 2.511760e+001
1.283473e+003, 2.523873e+001
1.283955e+003, 2.525955e+001
##END=



