##NAMES=Wagnerite
##RRUFFID=R050519
##IDEAL CHEMISTRY=Mg_2_PO_4_F
##LOCALITY=Kjorrestad, near Bamle, Norway
##OWNER=RRUFF
##SOURCE=University of Arizona Mineral Museum
##DESCRIPTION=Pale yellow lamellar fragments, associated with isokite, R070526.
##STATUS=The identification of this mineral is confirmed by single-crystal X-ray diffraction and chemical analysis.
##URL=rruff.info/R050519
##MEASURED CHEMISTRY=Mg_2.00_(P_1.00_O_4_)(F_0.80_(OH)_0.20_)_Σ=1_ ; = gray phase, and the light phase is isokite: Ca_1.00_Mg_1.00_(P_1.00_O_4_)(F_0.80_(OH)_0.20_)_Σ=1_
91.40820, 9.049030
91.89032, 8.997134
92.37244, 9.042872
92.85455, 9.165483
93.33667, 9.241063
93.81879, 9.115875
94.30090, 8.863539
94.78302, 8.718946
95.26514, 8.790616
95.74725, 8.953165
96.22937, 8.902376
96.71149, 8.623800
97.19360, 8.301388
97.67572, 8.108760
98.15784, 8.047265
98.63995, 7.997351
99.12207, 7.925026
99.60419, 7.835369
100.0863, 7.760675
100.5684, 7.691363
101.0505, 7.656325
101.5327, 7.701766
102.0148, 7.847154
102.4969, 8.009318
102.9790, 8.189972
103.4611, 8.417314
103.9432, 8.473331
104.4253, 8.235611
104.9075, 7.892544
105.3896, 7.836636
105.8717, 8.225583
106.3538, 8.687728
106.8359, 9.099310
107.3180, 9.476926
107.8002, 9.767698
108.2823, 9.953403
108.7644, 10.04894
109.2465, 10.11519
109.7286, 9.926397
110.2107, 9.870937
110.6929, 10.11415
111.1750, 10.77251
111.6571, 11.60279
112.1392, 12.69877
112.6213, 14.01297
113.1034, 15.21512
113.5856, 16.11021
114.0677, 16.96704
114.5498, 17.96905
115.0319, 18.97418
115.5140, 20.30627
115.9961, 22.07008
116.4783, 24.26613
116.9604, 26.75578
117.4425, 29.51146
117.9246, 32.56114
118.4067, 35.90591
118.8888, 39.92340
119.3710, 43.98964
119.8531, 47.79695
120.3352, 51.31174
120.8173, 54.56133
121.2994, 57.46624
121.7815, 60.09147
122.2637, 62.56044
122.7458, 64.76350
123.2279, 66.89433
123.7100, 69.09223
124.1921, 71.34551
124.6742, 73.77650
125.1564, 76.34067
125.6385, 79.13325
126.1206, 82.47115
126.6027, 86.65228
127.0848, 91.45845
127.5669, 96.49934
128.0491, 101.7282
128.5312, 107.1514
129.0133, 112.8912
129.4954, 118.8706
129.9775, 124.8581
130.4596, 131.0414
130.9418, 137.1494
131.4239, 142.2500
131.9060, 145.8691
132.3881, 148.6683
132.8702, 152.3531
133.3523, 157.0338
133.8345, 161.3825
134.3166, 164.1414
134.7987, 165.3358
135.2808, 166.1736
135.7629, 166.7428
136.2450, 167.1876
136.7272, 168.2049
137.2093, 169.8449
137.6914, 171.9119
138.1735, 174.3713
138.6556, 177.3403
139.1377, 180.0141
139.6199, 182.2129
140.1020, 183.9195
140.5841, 185.2603
141.0662, 185.9275
141.5483, 186.6198
142.0304, 188.1929
142.5126, 190.6972
142.9947, 193.8866
143.4768, 197.2653
143.9589, 200.6414
144.4410, 203.3123
144.9231, 205.0383
145.4053, 206.2742
145.8874, 207.7611
146.3695, 209.7363
146.8516, 211.6253
147.3337, 213.2404
147.8158, 214.6192
148.2980, 215.7285
148.7801, 216.3833
149.2622, 216.8154
149.7443, 217.4687
150.2264, 218.4466
150.7085, 219.5601
151.1907, 220.7747
151.6728, 222.5169
152.1549, 223.7015
152.6370, 223.7694
153.1191, 223.2390
153.6012, 223.3956
154.0834, 224.8980
154.5655, 226.6497
155.0476, 228.2242
155.5297, 229.6807
156.0118, 230.7693
156.4939, 231.1802
156.9761, 231.1370
157.4582, 231.3734
157.9403, 231.8499
158.4224, 232.7717
158.9045, 234.2681
159.3866, 236.5201
159.8688, 239.1322
160.3509, 242.0774
160.8330, 245.3161
161.3151, 248.6628
161.7972, 251.5566
162.2793, 254.7869
162.7615, 258.9597
163.2436, 264.8376
163.7257, 271.1148
164.2078, 278.1519
164.6899, 285.6373
165.1720, 291.2927
165.6541, 293.6927
166.1363, 293.8686
166.6184, 292.8366
167.1005, 290.9145
167.5826, 287.9197
168.0647, 283.3828
168.5468, 277.3968
169.0290, 271.1323
169.5111, 264.6411
169.9932, 258.4567
170.4753, 253.2657
170.9574, 249.9992
171.4395, 247.4649
171.9217, 244.7879
172.4038, 241.9606
172.8859, 238.9322
173.3680, 235.3475
173.8501, 231.5742
174.3322, 228.1903
174.8144, 225.3308
175.2965, 223.0177
175.7786, 221.4627
176.2607, 220.6614
176.7428, 220.1582
177.2249, 219.3890
177.7071, 218.5831
178.1892, 218.2874
178.6713, 219.2310
179.1534, 220.7016
179.6355, 221.4421
180.1176, 221.3609
180.5998, 221.1077
181.0819, 221.2395
181.5640, 221.7385
182.0461, 222.5570
182.5282, 223.9897
183.0103, 225.6916
183.4925, 226.7841
183.9746, 227.1564
184.4567, 227.2952
184.9388, 227.6878
185.4209, 228.3362
185.9030, 229.2258
186.3852, 230.4167
186.8673, 231.8531
187.3494, 233.4683
187.8315, 235.3312
188.3136, 237.1117
188.7957, 238.2293
189.2779, 238.7344
189.7600, 239.4418
190.2421, 240.8935
190.7242, 242.9457
191.2063, 244.8125
191.6884, 246.4204
192.1706, 247.9086
192.6527, 249.5225
193.1348, 251.2528
193.6169, 253.0589
194.0990, 254.9936
194.5811, 257.0305
195.0633, 258.8926
195.5454, 260.4798
196.0275, 262.0503
196.5096, 264.2444
196.9917, 267.1694
197.4738, 269.6460
197.9560, 270.7299
198.4381, 270.4156
198.9202, 270.8707
199.4023, 272.2456
199.8844, 274.3597
200.3665, 276.9672
200.8487, 280.1634
201.3308, 283.3840
201.8129, 286.2088
202.2950, 288.5695
202.7771, 291.5445
203.2592, 295.4267
203.7414, 299.7079
204.2235, 303.4388
204.7056, 306.6179
205.1877, 309.1186
205.6698, 311.0333
206.1519, 312.5001
206.6341, 312.3533
207.1162, 310.2653
207.5983, 306.8049
208.0804, 302.9703
208.5625, 298.4867
209.0446, 294.5767
209.5268, 291.8629
210.0089, 290.4638
210.4910, 289.7514
210.9731, 289.8684
211.4552, 290.5611
211.9373, 291.2480
212.4195, 291.9254
212.9016, 292.6098
213.3837, 293.3904
213.8658, 294.4322
214.3479, 294.9547
214.8300, 294.8336
215.3121, 294.2542
215.7943, 293.6637
216.2764, 293.1084
216.7585, 292.4450
217.2406, 291.6176
217.7227, 290.6589
218.2048, 289.4154
218.6870, 287.7596
219.1691, 285.8774
219.6512, 284.2155
220.1333, 282.9740
220.6154, 281.5641
221.0975, 279.5320
221.5797, 276.3281
222.0618, 274.2196
222.5439, 273.5833
223.0260, 273.8730
223.5081, 273.8093
223.9902, 273.0719
224.4724, 272.5584
224.9545, 272.7148
225.4366, 273.8613
225.9187, 274.7922
226.4008, 275.5606
226.8829, 276.1021
227.3651, 276.1876
227.8472, 275.3499
228.3293, 274.8334
228.8114, 275.1538
229.2935, 276.5280
229.7757, 278.0495
230.2578, 279.6847
230.7399, 281.4596
231.2220, 283.4634
231.7041, 285.7114
232.1862, 288.1337
232.6684, 290.7321
233.1505, 293.5724
233.6326, 296.3721
234.1147, 299.1605
234.5968, 301.8949
235.0789, 304.5288
235.5611, 307.4834
236.0432, 309.6547
236.5253, 310.7028
237.0074, 310.5396
237.4895, 309.4821
237.9716, 307.2871
238.4538, 304.3518
238.9359, 301.2864
239.4180, 297.9549
239.9001, 294.6493
240.3822, 291.2905
240.8643, 287.6784
241.3465, 285.1570
241.8286, 284.2672
242.3107, 284.0843
242.7928, 283.2668
243.2749, 281.3959
243.7570, 279.6029
244.2392, 278.1686
244.7213, 277.1075
245.2034, 276.2797
245.6855, 275.5976
246.1676, 275.2134
246.6497, 275.3697
247.1319, 276.3615
247.6140, 277.3645
248.0961, 278.1695
248.5782, 278.7523
249.0603, 279.4148
249.5424, 280.1536
250.0246, 280.9864
250.5067, 281.9929
250.9888, 283.4039
251.4709, 284.5216
251.9530, 285.0555
252.4351, 284.9595
252.9173, 285.3236
253.3994, 286.2526
253.8815, 287.5084
254.3636, 288.9087
254.8457, 290.5462
255.3278, 292.0598
255.8100, 293.2946
256.2921, 294.2679
256.7742, 295.5767
257.2563, 297.3807
257.7384, 299.3003
258.2205, 300.9738
258.7026, 302.2951
259.1848, 303.6883
259.6669, 305.2661
260.1490, 307.0014
260.6311, 308.5384
261.1132, 309.9303
261.5953, 311.0499
262.0775, 311.7477
262.5596, 311.9101
263.0417, 312.0460
263.5238, 312.3809
264.0059, 312.7380
264.4880, 312.1745
264.9702, 310.3785
265.4523, 308.2594
265.9344, 306.3837
266.4165, 304.7982
266.8986, 303.1978
267.3807, 301.4757
267.8629, 299.7386
268.3450, 298.2718
268.8271, 296.9987
269.3092, 296.1557
269.7913, 295.9927
270.2734, 296.7144
270.7556, 297.0956
271.2377, 296.9052
271.7198, 296.5049
272.2019, 296.8607
272.6840, 298.2385
273.1661, 299.4833
273.6483, 299.9348
274.1304, 299.4615
274.6125, 299.3094
275.0946, 299.6067
275.5767, 300.0696
276.0588, 300.2310
276.5410, 300.0773
277.0231, 299.6472
277.5052, 298.8394
277.9873, 297.6337
278.4694, 296.7160
278.9515, 296.1555
279.4337, 295.7152
279.9158, 295.0318
280.3979, 294.0768
280.8800, 293.1943
281.3621, 292.6972
281.8442, 292.4831
282.3264, 291.4534
282.8085, 289.4596
283.2906, 287.1859
283.7727, 285.3867
284.2548, 284.0692
284.7369, 282.9179
285.2191, 281.8638
285.7012, 280.9116
286.1833, 279.9873
286.6654, 279.0670
287.1475, 278.3354
287.6296, 278.1344
288.1118, 278.3946
288.5939, 278.3784
289.0760, 277.7515
289.5581, 276.8600
290.0402, 276.6681
290.5223, 277.1956
291.0045, 277.7573
291.4866, 277.6528
291.9687, 277.0663
292.4508, 276.9276
292.9329, 277.5296
293.4150, 278.4563
293.8972, 279.0011
294.3793, 279.1939
294.8614, 279.3540
295.3435, 279.7152
295.8256, 280.2115
296.3077, 280.6308
296.7899, 280.9125
297.2720, 281.2134
297.7541, 281.8510
298.2362, 282.7334
298.7183, 283.4576
299.2004, 283.7313
299.6826, 283.7050
300.1647, 283.5961
300.6468, 283.3854
301.1289, 283.2873
301.6110, 283.6125
302.0931, 284.2320
302.5753, 284.8203
303.0574, 285.0318
303.5395, 285.2056
304.0216, 285.9196
304.5037, 287.2055
304.9858, 288.3943
305.4680, 288.8976
305.9501, 288.9320
306.4322, 288.8618
306.9143, 288.7089
307.3964, 288.5996
307.8785, 288.7547
308.3607, 289.1363
308.8428, 289.3702
309.3249, 289.1870
309.8070, 288.7269
310.2891, 288.1110
310.7712, 287.0451
311.2534, 286.2401
311.7355, 286.4007
312.2176, 287.2992
312.6997, 288.0949
313.1818, 288.2849
313.6639, 288.2028
314.1461, 288.0866
314.6282, 287.9261
315.1103, 287.8612
315.5924, 287.9652
316.0745, 288.2139
316.5566, 288.5615
317.0388, 289.0026
317.5209, 289.5287
318.0030, 290.1659
318.4851, 290.9523
318.9672, 291.7113
319.4493, 292.5178
319.9315, 293.2281
320.4136, 293.6597
320.8957, 293.4177
321.3778, 293.1938
321.8599, 293.4151
322.3420, 294.1824
322.8242, 294.3874
323.3063, 293.5919
323.7884, 292.2336
324.2705, 290.6942
324.7526, 288.7650
325.2347, 286.9264
325.7169, 285.2184
326.1990, 283.6437
326.6811, 282.4434
327.1632, 282.0350
327.6453, 281.7315
328.1274, 281.1515
328.6096, 279.7349
329.0917, 278.7245
329.5738, 278.2988
330.0559, 278.3199
330.5380, 278.3535
331.0201, 278.5218
331.5023, 278.5701
331.9844, 278.3500
332.4665, 277.6285
332.9486, 277.2154
333.4307, 277.1807
333.9128, 277.4197
334.3950, 277.8351
334.8771, 278.7619
335.3592, 279.2257
335.8413, 278.7534
336.3234, 277.1962
336.8055, 276.1688
337.2877, 275.7049
337.7698, 275.7355
338.2519, 276.3637
338.7340, 277.8466
339.2161, 278.8806
339.6982, 279.0595
340.1803, 278.5383
340.6624, 278.2475
341.1446, 278.2090
341.6267, 278.3242
342.1088, 278.5986
342.5909, 279.0418
343.0730, 279.2768
343.5551, 279.1971
344.0373, 278.9427
344.5194, 278.7430
345.0015, 278.5845
345.4836, 278.7202
345.9657, 279.4702
346.4478, 280.7045
346.9300, 281.7209
347.4121, 282.4809
347.8942, 283.0479
348.3763, 283.4457
348.8584, 283.7052
349.3405, 284.0084
349.8227, 284.5082
350.3048, 285.0992
350.7869, 285.4487
351.2690, 285.5468
351.7511, 285.8368
352.2332, 286.9919
352.7154, 288.6343
353.1975, 289.9274
353.6796, 290.4005
354.1617, 290.6207
354.6438, 291.2370
355.1259, 292.1821
355.6081, 293.1081
356.0902, 293.7651
356.5723, 294.2895
357.0544, 294.7890
357.5365, 295.1572
358.0186, 295.7807
358.5008, 297.2950
358.9829, 299.2624
359.4650, 300.7461
359.9471, 300.8436
360.4292, 300.6647
360.9113, 300.9649
361.3935, 301.8918
361.8756, 302.7499
362.3577, 303.0963
362.8398, 303.2864
363.3219, 303.7242
363.8040, 304.4178
364.2862, 305.4862
364.7683, 307.3038
365.2504, 309.8080
365.7325, 311.6757
366.2146, 312.3354
366.6967, 312.4999
367.1789, 312.6124
367.6610, 312.5603
368.1431, 312.6510
368.6252, 313.1008
369.1073, 313.7359
369.5894, 314.0036
370.0716, 313.6682
370.5537, 313.2102
371.0358, 312.8428
371.5179, 312.7496
372.0000, 312.1459
372.4821, 310.7428
372.9643, 309.0307
373.4464, 307.6584
373.9285, 306.7070
374.4106, 305.9518
374.8927, 305.4161
375.3748, 305.0786
375.8570, 304.4126
376.3391, 303.2039
376.8212, 302.0927
377.3033, 301.8051
377.7854, 302.5356
378.2675, 302.5666
378.7497, 301.4315
379.2318, 299.6866
379.7139, 298.7526
380.1960, 298.6908
380.6781, 298.8295
381.1602, 298.8736
381.6424, 298.8182
382.1245, 298.5817
382.6066, 298.1320
383.0887, 297.6315
383.5708, 297.2521
384.0529, 296.9922
384.5351, 296.8283
385.0172, 296.9327
385.4993, 297.0449
385.9814, 296.5278
386.4635, 295.4198
386.9456, 294.4613
387.4278, 294.4356
387.9099, 294.9239
388.3920, 295.2450
388.8741, 295.1588
389.3562, 294.9683
389.8383, 295.0459
390.3205, 295.2498
390.8026, 295.1821
391.2847, 294.1458
391.7668, 293.0694
392.2489, 292.7212
392.7310, 293.3040
393.2132, 294.0411
393.6953, 294.8770
394.1774, 295.5463
394.6595, 295.7281
395.1416, 294.6958
395.6237, 293.7613
396.1059, 293.3839
396.5880, 293.5556
397.0701, 293.9143
397.5522, 294.5732
398.0343, 295.2719
398.5164, 295.8499
398.9986, 295.7803
399.4807, 296.2640
399.9628, 297.4276
400.4449, 299.1584
400.9270, 301.2666
401.4091, 304.3702
401.8913, 307.0310
402.3734, 308.8471
402.8555, 309.8220
403.3376, 309.8317
403.8197, 308.4270
404.3018, 306.5782
404.7840, 305.2589
405.2661, 304.4728
405.7482, 304.2258
406.2303, 304.6616
406.7124, 305.5986
407.1945, 306.2464
407.6767, 306.5301
408.1588, 306.8748
408.6409, 307.5672
409.1230, 308.5906
409.6051, 309.8470
410.0872, 311.4457
410.5694, 312.9622
411.0515, 313.5763
411.5336, 313.4296
412.0157, 313.3716
412.4978, 313.8098
412.9799, 314.5868
413.4621, 315.5153
413.9442, 316.5986
414.4263, 317.4739
414.9084, 317.6639
415.3905, 317.5029
415.8727, 317.5130
416.3548, 317.7844
416.8369, 318.3521
417.3190, 319.3703
417.8011, 320.7186
418.2832, 322.0981
418.7654, 323.6220
419.2475, 324.9258
419.7296, 325.5618
420.2117, 325.3372
420.6938, 325.4311
421.1759, 326.3779
421.6581, 327.8442
422.1402, 329.4928
422.6223, 331.6963
423.1044, 333.5796
423.5865, 334.6350
424.0686, 335.0067
424.5508, 335.8730
425.0329, 337.9838
425.5150, 340.0844
425.9971, 341.5797
426.4792, 342.0381
426.9613, 342.7876
427.4435, 343.8883
427.9256, 345.2495
428.4077, 346.7339
428.8898, 348.3945
429.3719, 350.1115
429.8540, 351.8796
430.3362, 353.6874
430.8183, 355.5504
431.3004, 357.5443
431.7825, 359.3457
432.2646, 360.5685
432.7467, 361.2061
433.2289, 362.0804
433.7110, 363.4109
434.1931, 364.7979
434.6752, 365.5058
435.1573, 365.5623
435.6394, 365.2939
436.1216, 364.7179
436.6037, 363.9581
437.0858, 363.1879
437.5679, 362.3967
438.0500, 361.9262
438.5321, 362.3122
439.0142, 363.1813
439.4963, 363.9020
439.9785, 364.2445
440.4606, 364.4455
440.9427, 364.4557
441.4248, 364.4406
441.9069, 364.8893
442.3890, 366.4977
442.8712, 368.3283
443.3533, 369.7303
443.8354, 370.5278
444.3175, 371.4334
444.7996, 372.2876
445.2817, 373.5199
445.7639, 375.5859
446.2460, 379.5625
446.7281, 383.2924
447.2102, 385.9883
447.6923, 387.8884
448.1744, 390.6495
448.6566, 394.9167
449.1387, 399.3704
449.6208, 403.3316
450.1029, 406.3925
450.5850, 410.3227
451.0671, 415.4613
451.5493, 421.0652
452.0314, 426.1580
452.5135, 430.7082
452.9956, 434.6785
453.4777, 437.8769
453.9598, 440.4796
454.4420, 443.2910
454.9241, 446.2954
455.4062, 449.4553
455.8883, 452.7971
456.3704, 456.2714
456.8525, 459.6499
457.3347, 462.8843
457.8168, 465.8823
458.2989, 468.7003
458.7810, 471.1851
459.2631, 472.7924
459.7452, 473.0085
460.2274, 472.4174
460.7095, 471.7395
461.1916, 470.9091
461.6737, 469.4523
462.1558, 467.1520
462.6379, 464.0361
463.1201, 460.0746
463.6022, 455.0238
464.0843, 449.5928
464.5664, 443.8165
465.0485, 437.8812
465.5306, 432.0854
466.0128, 426.5418
466.4949, 421.0991
466.9770, 415.4890
467.4591, 409.6833
467.9412, 405.0179
468.4233, 401.8037
468.9055, 399.4349
469.3876, 397.6070
469.8697, 396.6751
470.3518, 395.4474
470.8339, 393.4737
471.3160, 391.5004
471.7982, 391.0692
472.2803, 392.5433
472.7624, 394.1289
473.2445, 395.2725
473.7266, 396.0228
474.2087, 396.5449
474.6909, 396.7987
475.1730, 397.1164
475.6551, 397.7168
476.1372, 398.5976
476.6193, 399.9785
477.1014, 402.1366
477.5836, 403.9682
478.0657, 403.6914
478.5478, 401.8990
479.0299, 400.3102
479.5120, 400.3514
479.9941, 400.5352
480.4763, 399.2336
480.9584, 396.5777
481.4405, 394.0530
481.9226, 392.8696
482.4047, 391.9316
482.8868, 390.2715
483.3690, 387.2570
483.8511, 384.4821
484.3332, 382.9014
484.8153, 381.7525
485.2974, 379.7557
485.7795, 375.7375
486.2617, 371.9423
486.7438, 369.0532
487.2259, 367.0343
487.7080, 364.3365
488.1901, 360.2255
488.6722, 356.3613
489.1544, 353.8595
489.6365, 353.2331
490.1186, 352.0490
490.6007, 350.1266
491.0828, 347.7820
491.5649, 345.3325
492.0471, 342.7795
492.5292, 340.5380
493.0113, 338.8832
493.4934, 337.5864
493.9755, 335.8839
494.4576, 333.8143
494.9398, 331.9776
495.4219, 331.0183
495.9040, 330.5553
496.3861, 329.9831
496.8682, 329.2344
497.3503, 328.2804
497.8325, 326.9423
498.3146, 325.4138
498.7967, 323.9668
499.2788, 322.4903
499.7609, 321.3498
500.2430, 321.0049
500.7252, 321.2515
501.2073, 321.1611
501.6894, 319.8900
502.1715, 318.6927
502.6536, 318.2700
503.1357, 319.1516
503.6179, 319.4542
504.1000, 318.5737
504.5821, 317.4634
505.0642, 317.1078
505.5463, 317.9063
506.0284, 318.5631
506.5106, 318.8583
506.9927, 318.8859
507.4748, 318.9210
507.9569, 318.9338
508.4390, 319.0718
508.9211, 319.3577
509.4033, 319.8076
509.8854, 320.7307
510.3675, 322.1967
510.8496, 323.5358
511.3317, 324.0411
511.8138, 323.8951
512.2960, 323.5440
512.7781, 322.9949
513.2602, 322.4743
513.7423, 322.3956
514.2244, 322.5428
514.7065, 322.3871
515.1887, 321.6111
515.6708, 320.4963
516.1529, 318.9943
516.6350, 317.1376
517.1171, 315.7725
517.5992, 315.7820
518.0814, 316.0069
518.5635, 315.6725
519.0456, 314.2024
519.5277, 312.9629
520.0098, 312.0050
520.4919, 311.3194
520.9741, 310.9130
521.4562, 310.8557
521.9383, 310.9732
522.4204, 311.4060
522.9025, 312.0092
523.3846, 311.7296
523.8668, 310.3712
524.3489, 308.9456
524.8310, 307.9875
525.3131, 307.4824
525.7952, 307.4648
526.2773, 308.0142
526.7595, 308.5761
527.2416, 308.3890
527.7237, 307.7111
528.2058, 307.2035
528.6879, 307.1277
529.1700, 307.2225
529.6522, 307.2985
530.1343, 307.3502
530.6164, 307.3587
531.0985, 307.2780
531.5806, 307.1842
532.0627, 307.1412
532.5449, 307.1604
533.0270, 307.1288
533.5091, 306.8450
533.9912, 306.6043
534.4733, 306.6213
534.9554, 307.2191
535.4376, 307.6370
535.9197, 307.8260
536.4018, 307.8505
536.8839, 307.7879
537.3660, 307.5608
537.8481, 307.4590
538.3303, 307.6455
538.8124, 308.0166
539.2945, 307.8953
539.7766, 307.2035
540.2587, 306.6857
540.7408, 307.1368
541.2230, 308.2222
541.7051, 308.5178
542.1872, 307.8304
542.6693, 307.1679
543.1514, 307.7650
543.6335, 309.0667
544.1157, 310.0677
544.5978, 310.4432
545.0799, 310.4517
545.5620, 309.9683
546.0441, 309.2377
546.5262, 308.8640
547.0084, 309.4014
547.4905, 310.0429
547.9726, 310.4051
548.4547, 310.4297
548.9368, 310.6444
549.4189, 311.2491
549.9011, 311.9242
550.3832, 312.5253
550.8653, 313.2021
551.3474, 313.3701
551.8295, 312.7401
552.3116, 311.9231
552.7938, 311.9114
553.2759, 312.7949
553.7580, 313.6268
554.2401, 314.2345
554.7222, 314.5678
555.2043, 314.2505
555.6865, 313.3664
556.1686, 312.7988
556.6507, 313.4790
557.1328, 314.6688
557.6149, 315.2122
558.0970, 315.0457
558.5792, 314.7816
559.0613, 314.9505
559.5434, 315.1991
560.0255, 315.1081
560.5076, 314.1749
560.9897, 313.6415
561.4719, 314.2195
561.9540, 315.3940
562.4361, 316.2975
562.9182, 316.3045
563.4003, 316.6368
563.8824, 317.8098
564.3646, 319.6029
564.8467, 320.3787
565.3288, 319.5497
565.8109, 318.9095
566.2930, 319.7420
566.7751, 322.1427
567.2573, 322.8601
567.7394, 321.6177
568.2215, 319.9764
568.7036, 319.5532
569.1857, 320.0996
569.6678, 320.7196
570.1500, 321.2823
570.6321, 321.7155
571.1142, 321.8940
571.5963, 321.8762
572.0784, 321.7914
572.5605, 321.6026
573.0427, 321.4533
573.5248, 321.4457
574.0069, 321.5678
574.4890, 321.7147
574.9711, 321.5659
575.4532, 321.6729
575.9354, 322.3935
576.4175, 323.9719
576.8996, 325.3663
577.3817, 326.6425
577.8638, 327.6552
578.3459, 328.1367
578.8281, 327.7966
579.3102, 328.1212
579.7923, 329.4013
580.2744, 331.2119
580.7565, 332.7968
581.2386, 334.1595
581.7208, 335.3952
582.2029, 336.5550
582.6850, 337.6103
583.1671, 338.5144
583.6492, 339.2835
584.1313, 340.0094
584.6135, 340.4603
585.0956, 341.0852
585.5776, 342.3932
586.0598, 344.4951
586.5419, 346.7124
587.0240, 348.9746
587.5061, 351.1292
587.9882, 353.0463
588.4703, 354.4964
588.9525, 355.9998
589.4346, 357.6786
589.9167, 359.3751
590.3988, 360.7856
590.8809, 361.6801
591.3630, 362.8566
591.8452, 364.6077
592.3273, 366.7293
592.8094, 368.3886
593.2915, 369.5517
593.7736, 370.7294
594.2557, 372.1948
594.7379, 373.8949
595.2200, 375.7996
595.7021, 377.8925
596.1842, 379.9688
596.6663, 381.7908
597.1484, 383.5317
597.6306, 385.4591
598.1127, 387.6957
598.5948, 389.8042
599.0769, 391.4285
599.5590, 392.8600
600.0411, 394.4706
600.5233, 396.7782
601.0054, 398.7305
601.4875, 400.1014
601.9696, 401.0073
602.4517, 401.7649
602.9338, 402.2571
603.4160, 402.8751
603.8981, 403.8132
604.3802, 405.0319
604.8623, 406.0651
605.3444, 406.9048
605.8265, 407.6870
606.3087, 408.3351
606.7908, 409.0068
607.2729, 410.2799
607.7550, 412.2673
608.2371, 414.3021
608.7192, 415.7399
609.2014, 416.8811
609.6835, 418.1169
610.1656, 419.1928
610.6477, 420.9510
611.1298, 424.0741
611.6119, 428.0727
612.0941, 432.1407
612.5762, 436.2308
613.0583, 440.1983
613.5404, 444.0158
614.0225, 447.6612
614.5046, 451.4155
614.9868, 455.3388
615.4689, 459.1695
615.9510, 462.8617
616.4331, 466.3933
616.9152, 469.7747
617.3973, 473.0464
617.8795, 475.7359
618.3616, 477.4008
618.8437, 478.1177
619.3258, 478.0157
619.8079, 477.0977
620.2900, 475.4650
620.7722, 472.9825
621.2543, 469.8998
621.7364, 466.6065
622.2185, 463.3114
622.7006, 459.7021
623.1827, 455.5362
623.6649, 450.9662
624.1470, 446.3156
624.6291, 441.4132
625.1112, 436.6404
625.5933, 432.0005
626.0754, 427.5362
626.5576, 423.7957
627.0397, 420.8985
627.5218, 418.3164
628.0039, 415.6890
628.4860, 413.0756
628.9681, 411.1257
629.4503, 409.8725
629.9324, 408.7568
630.4145, 407.2863
630.8966, 405.5984
631.3787, 403.9076
631.8608, 402.2589
632.3430, 400.6691
632.8251, 399.0184
633.3072, 397.4957
633.7893, 396.3076
634.2714, 396.0189
634.7535, 395.4840
635.2357, 394.3470
635.7178, 392.8128
636.1999, 391.3522
636.6820, 390.0673
637.1641, 388.6848
637.6462, 387.1790
638.1284, 385.5130
638.6105, 383.6005
639.0926, 381.4315
639.5747, 378.9860
640.0568, 376.1596
640.5389, 373.0549
641.0211, 369.9116
641.5032, 366.7565
641.9853, 363.9886
642.4674, 362.2874
642.9495, 361.0023
643.4316, 359.2923
643.9138, 356.8175
644.3959, 354.8387
644.8780, 354.5065
645.3601, 354.6761
645.8422, 354.2261
646.3243, 352.1842
646.8065, 350.6068
647.2886, 349.5815
647.7707, 349.0352
648.2528, 348.9220
648.7349, 349.3853
649.2170, 349.6796
649.6992, 349.6042
650.1813, 349.2550
650.6634, 348.8079
651.1455, 348.2787
651.6276, 347.8183
652.1097, 347.3504
652.5919, 347.0803
653.0740, 347.5709
653.5561, 348.6798
654.0382, 349.2912
654.5203, 348.4576
655.0024, 347.1464
655.4846, 345.9166
655.9667, 344.8194
656.4488, 343.8953
656.9309, 343.1754
657.4130, 342.6183
657.8951, 342.2505
658.3773, 342.2534
658.8594, 341.9032
659.3415, 341.1382
659.8236, 340.0835
660.3057, 338.6904
660.7878, 337.0401
661.2700, 335.9418
661.7521, 335.6991
662.2342, 335.8288
662.7163, 335.8813
663.1984, 335.8018
663.6805, 335.4514
664.1627, 334.2830
664.6448, 333.2853
665.1269, 333.2594
665.6090, 333.9456
666.0911, 334.3345
666.5732, 333.7904
667.0554, 333.3254
667.5375, 333.3870
668.0196, 333.9624
668.5017, 334.0289
668.9838, 333.4087
669.4659, 332.6930
669.9481, 332.1239
670.4302, 331.7166
670.9123, 331.8530
671.3944, 332.5884
671.8765, 333.2741
672.3586, 333.1166
672.8408, 332.5349
673.3229, 332.2504
673.8050, 332.3993
674.2871, 332.7680
674.7692, 333.5405
675.2513, 334.3187
675.7335, 334.6571
676.2156, 333.9182
676.6977, 333.4174
677.1798, 333.5240
677.6619, 333.8877
678.1440, 333.9775
678.6262, 333.7049
679.1083, 333.3747
679.5904, 332.9591
680.0725, 332.5967
680.5546, 332.7143
681.0367, 333.2849
681.5189, 333.7950
682.0010, 333.9521
682.4831, 333.9405
682.9652, 334.0392
683.4473, 334.2220
683.9294, 334.3863
684.4116, 334.4588
684.8937, 334.5030
685.3758, 334.5302
685.8579, 334.5394
686.3400, 334.6500
686.8221, 335.0916
687.3043, 335.4547
687.7864, 335.5011
688.2685, 335.1324
688.7506, 335.0192
689.2327, 335.2128
689.7148, 335.5291
690.1970, 335.8991
690.6791, 336.2790
691.1612, 336.2542
691.6433, 335.6907
692.1254, 335.2307
692.6075, 335.8050
693.0897, 336.8397
693.5718, 337.3735
694.0539, 336.7487
694.5360, 336.3201
695.0181, 337.0003
695.5002, 338.1749
695.9824, 338.8897
696.4645, 338.4286
696.9466, 338.3229
697.4287, 338.9586
697.9108, 339.9666
698.3929, 340.2841
698.8751, 339.7314
699.3572, 339.6062
699.8393, 340.5074
700.3214, 341.9741
700.8035, 342.9606
701.2856, 343.5067
701.7678, 343.8495
702.2499, 343.8173
702.7320, 343.8621
703.2141, 344.6156
703.6962, 345.9572
704.1783, 346.9083
704.6605, 346.4016
705.1426, 346.0169
705.6247, 346.7309
706.1068, 348.7235
706.5889, 350.1033
707.0710, 350.6460
707.5532, 350.9359
708.0353, 351.3533
708.5174, 351.8990
708.9995, 352.2231
709.4816, 352.2884
709.9637, 352.3892
710.4459, 352.8166
710.9280, 353.4877
711.4101, 354.3271
711.8922, 355.4164
712.3743, 356.2439
712.8564, 356.1112
713.3386, 355.7280
713.8207, 355.8543
714.3028, 357.2700
714.7849, 358.2820
715.2670, 358.5439
715.7491, 358.4939
716.2313, 358.7226
716.7134, 359.3239
717.1955, 359.7707
717.6776, 359.9650
718.1597, 359.9648
718.6418, 359.6627
719.1240, 359.1904
719.6061, 359.2524
720.0882, 360.5597
720.5703, 361.9457
721.0524, 361.8457
721.5345, 360.8858
722.0167, 360.5717
722.4988, 362.5003
722.9809, 364.1201
723.4630, 364.2209
723.9451, 363.1319
724.4272, 362.6214
724.9094, 363.0620
725.3915, 363.3713
725.8736, 363.0235
726.3557, 362.2339
726.8378, 362.2734
727.3199, 363.1557
727.8021, 364.0999
728.2842, 364.7507
728.7663, 365.0889
729.2484, 364.7456
729.7305, 363.8257
730.2126, 363.4851
730.6948, 365.1732
731.1769, 367.0440
731.6590, 367.7909
732.1411, 367.1097
732.6232, 366.4253
733.1053, 365.7679
733.5875, 365.2140
734.0696, 364.8110
734.5517, 364.5590
735.0338, 364.4824
735.5159, 364.6199
735.9980, 364.7794
736.4802, 364.7854
736.9623, 364.6728
737.4444, 364.4580
737.9265, 364.1103
738.4086, 363.9735
738.8907, 364.4648
739.3729, 365.2381
739.8550, 365.9294
740.3371, 366.5041
740.8192, 366.9171
741.3013, 367.0070
741.7834, 367.0152
742.2656, 367.1538
742.7477, 367.4118
743.2298, 367.8224
743.7119, 368.3920
744.1940, 369.0844
744.6761, 369.8561
745.1583, 370.7068
745.6404, 371.6544
746.1225, 372.7809
746.6046, 373.8222
747.0867, 374.6153
747.5688, 375.1295
748.0510, 375.3034
748.5331, 374.4400
749.0152, 374.0267
749.4973, 375.0304
749.9794, 376.6360
750.4615, 377.1398
750.9437, 375.9893
751.4258, 375.1397
751.9079, 375.1358
752.3900, 375.5704
752.8721, 375.3443
753.3542, 374.5358
753.8364, 373.8524
754.3185, 373.6926
754.8006, 373.7114
755.2827, 373.6660
755.7648, 373.4801
756.2469, 372.9378
756.7291, 371.3820
757.2112, 370.0275
757.6933, 369.5025
758.1754, 369.6621
758.6575, 369.5438
759.1396, 368.9950
759.6218, 368.4591
760.1039, 368.0250
760.5860, 367.7329
761.0681, 367.9134
761.5502, 368.5457
762.0323, 368.8796
762.5145, 368.2290
762.9966, 367.1729
763.4787, 366.4863
763.9608, 366.1305
764.4429, 365.7694
764.9250, 365.0894
765.4072, 364.5026
765.8893, 364.2863
766.3714, 364.4658
766.8535, 364.4937
767.3356, 364.1981
767.8177, 364.0554
768.2999, 364.3960
768.7820, 365.1423
769.2641, 365.5331
769.7462, 365.5551
770.2283, 365.3973
770.7104, 364.9662
771.1926, 364.5483
771.6747, 364.6240
772.1568, 365.2038
772.6389, 365.7870
773.1210, 366.0379
773.6031, 366.2950
774.0853, 366.9417
774.5674, 368.2072
775.0495, 368.4438
775.5316, 367.0923
776.0137, 365.7003
776.4958, 365.3659
776.9780, 366.0327
777.4601, 366.3844
777.9422, 366.3986
778.4243, 366.2650
778.9064, 366.0734
779.3885, 365.8661
779.8707, 365.7289
780.3528, 365.6832
780.8349, 365.5262
781.3170, 364.9568
781.7991, 364.3910
782.2813, 364.1211
782.7633, 364.1620
783.2454, 364.4831
783.7275, 365.2214
784.2097, 365.9586
784.6918, 366.3087
785.1739, 366.3094
785.6560, 366.3722
786.1381, 366.5322
786.6202, 366.6500
787.1024, 366.6429
787.5845, 366.5001
788.0666, 366.1352
788.5487, 365.4512
789.0308, 364.9819
789.5129, 364.9342
789.9951, 365.1680
790.4772, 365.5883
790.9593, 366.2879
791.4414, 366.9173
791.9235, 367.5304
792.4056, 367.9600
792.8878, 367.8959
793.3699, 367.4606
793.8520, 367.2860
794.3341, 367.4276
794.8162, 367.8933
795.2983, 368.9689
795.7805, 370.2318
796.2626, 371.2486
796.7447, 371.9364
797.2268, 372.3564
797.7089, 372.0079
798.1910, 371.7878
798.6732, 372.4499
799.1553, 374.3477
799.6374, 375.8180
800.1195, 376.7487
800.6016, 377.5106
801.0837, 378.3916
801.5659, 379.4323
802.0480, 380.8153
802.5301, 382.5856
803.0122, 384.4362
803.4943, 385.9059
803.9764, 387.4853
804.4586, 389.7480
804.9407, 393.2330
805.4228, 396.2699
805.9049, 398.3097
806.3870, 400.2674
806.8691, 402.9725
807.3513, 406.4976
807.8334, 409.9942
808.3155, 413.3930
808.7976, 416.8841
809.2797, 420.5925
809.7618, 424.5707
810.2440, 428.9094
810.7261, 433.6807
811.2082, 438.5535
811.6903, 443.1392
812.1724, 447.8897
812.6545, 453.1635
813.1367, 459.1921
813.6188, 465.3666
814.1009, 471.6534
814.5830, 478.0380
815.0651, 484.6470
815.5472, 491.4330
816.0294, 497.6498
816.5115, 503.1865
816.9936, 508.3366
817.4757, 513.1490
817.9578, 517.7667
818.4399, 522.4249
818.9221, 527.1985
819.4042, 531.5657
819.8863, 535.2893
820.3684, 538.5685
820.8505, 541.6412
821.3326, 544.6263
821.8148, 547.0209
822.2969, 548.9221
822.7790, 549.8781
823.2611, 549.3676
823.7432, 547.5677
824.2253, 544.9806
824.7075, 541.6376
825.1896, 537.6340
825.6717, 532.7489
826.1538, 527.4385
826.6359, 522.1600
827.1180, 517.1441
827.6002, 511.3476
828.0823, 504.2183
828.5644, 496.9570
829.0465, 490.2666
829.5286, 484.2438
830.0107, 478.3452
830.4929, 472.6286
830.9750, 467.0305
831.4571, 461.3238
831.9392, 455.8534
832.4213, 451.3055
832.9034, 447.7516
833.3856, 444.5042
833.8677, 441.4607
834.3498, 438.5068
834.8319, 435.4949
835.3140, 432.4137
835.7961, 429.6356
836.2783, 427.1486
836.7604, 424.9922
837.2425, 423.3743
837.7246, 422.0984
838.2067, 420.2457
838.6888, 417.8656
839.1710, 415.6441
839.6531, 414.1380
840.1352, 412.8728
840.6173, 411.6037
841.0994, 410.2787
841.5815, 408.6568
842.0637, 406.4601
842.5458, 404.1887
843.0279, 401.9229
843.5100, 399.6968
843.9921, 397.7842
844.4742, 396.2166
844.9564, 394.6158
845.4385, 392.6322
845.9206, 390.6318
846.4027, 389.2899
846.8848, 388.4394
847.3669, 387.4903
847.8491, 385.8908
848.3312, 384.4574
848.8133, 383.5444
849.2954, 383.0602
849.7775, 382.7578
850.2596, 382.7614
850.7418, 382.5185
851.2239, 381.7630
851.7060, 380.7878
852.1881, 380.4373
852.6702, 380.4901
853.1523, 380.0730
853.6345, 378.1574
854.1166, 376.4714
854.5987, 376.5339
855.0808, 377.5886
855.5629, 378.1888
856.0450, 377.7337
856.5272, 377.2510
857.0093, 376.6364
857.4914, 376.2563
857.9735, 376.9821
858.4556, 378.7435
858.9377, 380.2719
859.4199, 381.4196
859.9020, 381.7818
860.3841, 380.3989
860.8662, 378.1125
861.3483, 376.0616
861.8304, 374.2265
862.3126, 373.3094
862.7947, 374.3883
863.2768, 375.8817
863.7589, 376.3403
864.2410, 375.5368
864.7231, 374.8307
865.2053, 374.2469
865.6874, 373.9359
866.1695, 374.3561
866.6516, 375.0822
867.1337, 375.0675
867.6158, 374.0104
868.0980, 373.4394
868.5801, 374.8027
869.0622, 376.5134
869.5443, 377.3140
870.0264, 377.0244
870.5085, 376.6145
870.9907, 376.0320
871.4728, 375.5105
871.9549, 375.2630
872.4370, 375.2335
872.9191, 375.1216
873.4012, 374.9403
873.8834, 374.9771
874.3655, 375.6613
874.8476, 376.4529
875.3297, 376.9049
875.8118, 376.9980
876.2939, 377.2545
876.7761, 377.6949
877.2582, 378.3321
877.7403, 379.3416
878.2224, 380.5302
878.7045, 380.6851
879.1866, 379.9027
879.6688, 379.4677
880.1509, 380.4454
880.6330, 381.7820
881.1151, 382.5294
881.5972, 382.7805
882.0793, 382.7922
882.5615, 382.2016
883.0436, 381.9536
883.5257, 382.4465
884.0078, 383.2826
884.4899, 383.5587
884.9720, 383.2556
885.4542, 382.7087
885.9363, 381.7816
886.4184, 381.1796
886.9005, 382.4115
887.3826, 384.4887
887.8647, 385.6283
888.3469, 384.6363
888.8290, 383.7732
889.3111, 383.9403
889.7932, 384.4269
890.2753, 384.4130
890.7574, 383.6027
891.2396, 383.8354
891.7217, 385.4721
892.2038, 387.0974
892.6859, 386.8364
893.1680, 385.5221
893.6501, 384.7761
894.1323, 384.8282
894.6144, 385.2852
895.0965, 386.5567
895.5786, 387.6898
896.0607, 387.9189
896.5428, 387.1313
897.0250, 386.4920
897.5071, 385.9727
897.9892, 385.7146
898.4713, 386.0576
898.9534, 386.6919
899.4355, 386.5047
899.9177, 385.6458
900.3998, 385.1281
900.8819, 385.9406
901.3640, 386.9002
901.8461, 387.3227
902.3282, 387.2490
902.8104, 387.2134
903.2925, 387.2671
903.7746, 387.2085
904.2567, 386.8991
904.7388, 386.5269
905.2209, 386.6855
905.7031, 387.2113
906.1852, 387.3968
906.6673, 386.5849
907.1494, 385.9619
907.6315, 386.6396
908.1136, 387.9303
908.5958, 388.7411
909.0779, 388.7999
909.5600, 388.6861
910.0421, 388.4164
910.5242, 388.0274
911.0063, 387.4040
911.4885, 386.6584
911.9706, 386.2939
912.4527, 386.3637
912.9348, 386.9929
913.4169, 389.0151
913.8990, 391.1631
914.3812, 392.1344
914.8633, 391.3525
915.3454, 391.2302
915.8275, 392.1465
916.3096, 393.1933
916.7917, 393.9055
917.2739, 394.2927
917.7560, 394.3023
918.2381, 393.9735
918.7202, 393.8286
919.2023, 394.5697
919.6844, 395.3194
920.1666, 395.2524
920.6487, 394.5272
921.1308, 394.0893
921.6129, 394.2953
922.0950, 394.4230
922.5771, 394.2968
923.0593, 394.0089
923.5414, 393.7708
924.0235, 393.5829
924.5056, 393.3685
924.9877, 392.9902
925.4698, 392.8340
925.9520, 393.6443
926.4341, 394.7450
926.9162, 395.1787
927.3983, 393.8023
927.8804, 393.1971
928.3625, 393.6815
928.8447, 394.5113
929.3268, 394.9204
929.8089, 394.9605
930.2910, 395.0769
930.7731, 395.3058
931.2552, 395.5666
931.7374, 395.6270
932.2195, 395.8091
932.7016, 396.5552
933.1837, 397.9680
933.6658, 398.8392
934.1479, 398.8434
934.6301, 398.7116
935.1122, 398.6062
935.5943, 398.6510
936.0764, 399.7119
936.5585, 401.6137
937.0406, 402.9659
937.5228, 402.3427
938.0049, 401.5494
938.4870, 402.0139
938.9691, 403.3359
939.4512, 404.5790
939.9333, 405.9914
940.4155, 406.5569
940.8976, 405.6862
941.3797, 404.6098
941.8618, 405.6353
942.3439, 408.2840
942.8260, 410.1492
943.3082, 410.7248
943.7903, 410.9410
944.2724, 411.1830
944.7545, 411.6136
945.2366, 412.4559
945.7188, 413.9380
946.2009, 415.0894
946.6830, 415.7750
947.1651, 416.4501
947.6472, 417.3246
948.1293, 418.4306
948.6115, 420.1542
949.0936, 422.3856
949.5757, 424.2857
950.0578, 424.8375
950.5399, 425.3769
951.0220, 426.7720
951.5042, 428.8696
951.9863, 430.8636
952.4684, 432.7631
952.9505, 434.5092
953.4326, 436.1043
953.9147, 437.5242
954.3969, 438.5822
954.8790, 439.4563
955.3611, 440.5913
955.8432, 441.9905
956.3253, 443.9643
956.8074, 447.0777
957.2896, 450.5879
957.7717, 453.7517
958.2538, 456.2954
958.7359, 459.4286
959.2180, 463.1834
959.7001, 467.2307
960.1823, 471.3179
960.6644, 475.5116
961.1465, 479.6514
961.6286, 483.8361
962.1107, 488.6455
962.5928, 494.4947
963.0750, 500.8869
963.5571, 507.5242
964.0392, 514.5872
964.5213, 522.8298
965.0034, 532.3579
965.4855, 542.0680
965.9677, 551.4583
966.4498, 561.4405
966.9319, 572.2674
967.4140, 584.7975
967.8961, 600.4152
968.3782, 621.0631
968.8604, 642.2733
969.3425, 662.4785
969.8246, 683.9266
970.3067, 708.9511
970.7888, 737.4202
971.2709, 767.4135
971.7531, 798.7383
972.2352, 831.7686
972.7173, 866.0847
973.1994, 902.7769
973.6815, 942.5645
974.1636, 985.2723
974.6458, 1030.662
975.1279, 1077.516
975.6100, 1128.137
976.0921, 1182.593
976.5742, 1241.678
977.0563, 1307.489
977.5385, 1380.303
978.0206, 1458.585
978.5027, 1542.515
978.9848, 1630.491
979.4669, 1723.410
979.9490, 1818.730
980.4311, 1913.791
980.9132, 2014.674
981.3953, 2102.983
981.8774, 2180.417
982.3596, 2240.808
982.8417, 2282.009
983.3238, 2300.581
983.8059, 2284.599
984.2880, 2234.366
984.7701, 2159.409
985.2523, 2053.215
985.7344, 1935.150
986.2165, 1808.612
986.6986, 1678.010
987.1807, 1559.424
987.6628, 1453.564
988.1450, 1361.236
988.6271, 1282.749
989.1092, 1218.127
989.5913, 1169.389
990.0734, 1134.075
990.5555, 1107.771
991.0377, 1090.277
991.5198, 1080.276
992.0019, 1079.217
992.4840, 1084.046
992.9661, 1093.124
993.4482, 1106.486
993.9304, 1123.045
994.4125, 1142.952
994.8946, 1166.331
995.3767, 1193.776
995.8588, 1224.880
996.3409, 1259.805
996.8231, 1298.059
997.3052, 1338.631
997.7873, 1380.959
998.2694, 1426.562
998.7515, 1476.160
999.2336, 1528.694
999.7158, 1582.510
1000.198, 1636.741
1000.680, 1688.568
1001.162, 1738.538
1001.644, 1780.020
1002.126, 1810.454
1002.608, 1828.069
1003.091, 1831.213
1003.573, 1821.449
1004.055, 1792.011
1004.537, 1741.299
1005.019, 1677.567
1005.501, 1601.803
1005.983, 1518.675
1006.465, 1429.896
1006.948, 1338.343
1007.430, 1251.172
1007.912, 1171.126
1008.394, 1097.641
1008.876, 1030.621
1009.358, 969.9329
1009.840, 915.6425
1010.322, 867.7119
1010.804, 825.5116
1011.287, 788.8549
1011.769, 756.0472
1012.251, 725.3713
1012.733, 697.6145
1013.215, 673.8544
1013.697, 654.7219
1014.179, 637.2214
1014.661, 621.1464
1015.143, 606.8508
1015.626, 594.9382
1016.108, 584.8823
1016.590, 574.9836
1017.072, 565.5501
1017.554, 557.3934
1018.036, 551.2952
1018.518, 546.1118
1019.000, 541.5229
1019.483, 537.6114
1019.965, 534.5122
1020.447, 532.3154
1020.929, 530.3802
1021.411, 528.6505
1021.893, 527.1477
1022.375, 526.1855
1022.857, 525.2894
1023.339, 523.5959
1023.822, 521.1023
1024.304, 519.3732
1024.786, 519.3113
1025.268, 519.4336
1025.750, 519.6500
1026.232, 519.5377
1026.714, 517.7517
1027.196, 514.5034
1027.679, 510.7776
1028.161, 506.7408
1028.643, 502.7576
1029.125, 498.9658
1029.607, 495.3756
1030.089, 491.9951
1030.571, 488.7982
1031.053, 485.7263
1031.536, 482.6650
1032.018, 480.1146
1032.500, 478.5323
1032.982, 477.6281
1033.464, 476.9463
1033.946, 476.5286
1034.428, 476.5699
1034.910, 477.4178
1035.392, 478.4052
1035.875, 479.3025
1036.357, 480.3266
1036.839, 481.7774
1037.321, 483.6752
1037.803, 486.1654
1038.285, 489.3683
1038.767, 492.5923
1039.249, 495.0211
1039.731, 497.4240
1040.214, 500.4933
1040.696, 504.2814
1041.178, 508.1631
1041.660, 511.9184
1042.142, 516.5273
1042.624, 522.7040
1043.106, 529.7219
1043.588, 536.6569
1044.071, 543.5607
1044.553, 550.5623
1045.035, 557.1242
1045.517, 564.8739
1045.999, 574.8768
1046.481, 585.3878
1046.963, 594.6808
1047.445, 602.8392
1047.927, 610.5544
1048.410, 617.9018
1048.892, 624.4962
1049.374, 629.2722
1049.856, 633.9560
1050.338, 639.9156
1050.820, 646.9036
1051.302, 653.1808
1051.784, 658.3574
1052.266, 664.2706
1052.749, 671.6141
1053.231, 678.9037
1053.713, 685.3039
1054.195, 689.7488
1054.677, 690.6849
1055.159, 687.7593
1055.641, 681.4370
1056.123, 670.2229
1056.606, 657.3901
1057.088, 644.0096
1057.570, 630.1560
1058.052, 616.5002
1058.534, 603.1054
1059.016, 589.9677
1059.498, 576.5370
1059.980, 564.1349
1060.463, 553.6797
1060.945, 544.7659
1061.427, 536.5913
1061.909, 528.8224
1062.391, 523.3699
1062.873, 520.6437
1063.355, 518.4283
1063.837, 514.6396
1064.319, 510.2939
1064.802, 506.8671
1065.284, 504.2972
1065.766, 501.7094
1066.248, 499.0903
1066.730, 496.0307
1067.212, 492.1283
1067.694, 488.1180
1068.176, 485.3998
1068.658, 483.7702
1069.141, 482.6826
1069.623, 482.1090
1070.105, 481.5199
1070.587, 480.6044
1071.069, 479.5861
1071.551, 478.7409
1072.033, 478.0207
1072.515, 476.5172
1072.998, 474.2503
1073.480, 471.3095
1073.962, 467.5196
1074.444, 463.4355
1074.926, 459.5576
1075.408, 455.8564
1075.890, 452.3509
1076.372, 448.9517
1076.854, 445.9340
1077.337, 443.3329
1077.819, 441.0338
1078.301, 439.0388
1078.783, 437.2721
1079.265, 435.5951
1079.747, 434.0190
1080.229, 432.6166
1080.711, 431.3602
1081.193, 430.3726
1081.676, 429.6559
1082.158, 429.2032
1082.640, 428.9639
1083.122, 428.9594
1083.604, 429.5738
1084.086, 430.9155
1084.568, 432.1146
1085.050, 432.1721
1085.532, 432.1216
1086.015, 432.7835
1086.497, 434.1070
1086.979, 435.4131
1087.461, 436.7116
1087.943, 437.9572
1088.425, 439.1214
1088.907, 440.2752
1089.389, 441.3646
1089.872, 442.5688
1090.354, 444.1479
1090.836, 446.2246
1091.318, 448.5258
1091.800, 450.9084
1092.282, 453.7691
1092.764, 457.4727
1093.246, 461.7924
1093.729, 466.0158
1094.211, 470.2738
1094.693, 474.8671
1095.175, 479.6191
1095.657, 485.2511
1096.139, 492.3782
1096.621, 500.0917
1097.103, 507.8210
1097.585, 515.5256
1098.068, 521.7858
1098.550, 526.5017
1099.032, 529.2709
1099.514, 530.0182
1099.996, 528.5021
1100.478, 524.6213
1100.960, 518.1931
1101.442, 508.7330
1101.924, 495.5579
1102.407, 482.6426
1102.889, 470.3593
1103.371, 459.5884
1103.853, 451.7428
1104.335, 445.5484
1104.817, 439.2568
1105.299, 432.5131
1105.781, 427.3941
1106.264, 424.4651
1106.746, 421.9951
1107.228, 419.3710
1107.710, 416.7219
1108.192, 413.9661
1108.674, 411.4060
1109.156, 409.7577
1109.638, 409.7527
1110.120, 409.4603
1110.603, 408.0693
1111.085, 406.6678
1111.567, 405.9413
1112.049, 405.8090
1112.531, 405.6950
1113.013, 405.5986
1113.495, 405.4938
1113.977, 405.1312
1114.459, 405.0310
1114.942, 405.6296
1115.424, 406.5430
1115.906, 407.3102
1116.388, 407.9416
1116.870, 408.2528
1117.352, 408.2196
1117.834, 408.2838
1118.316, 408.9544
1118.799, 409.7311
1119.281, 410.3259
1119.763, 410.6632
1120.245, 410.5337
1120.727, 409.8407
1121.209, 408.9801
1121.691, 407.9196
1122.173, 407.0620
1122.656, 407.1788
1123.138, 407.6286
1123.620, 407.1447
1124.102, 405.5262
1124.584, 405.8917
1125.066, 410.1987
1125.548, 412.9047
1126.030, 411.6894
1126.512, 408.7639
1126.995, 408.6162
1127.477, 410.2524
1127.959, 411.3663
1128.441, 411.3112
1128.923, 411.0793
1129.405, 410.7442
1129.887, 410.5787
1130.369, 410.7367
1130.851, 411.1776
1131.334, 411.6279
1131.816, 412.1609
1132.298, 413.1794
1132.780, 415.2323
1133.262, 417.1964
1133.744, 418.1476
1134.226, 419.0824
1134.708, 420.9685
1135.191, 423.8530
1135.673, 426.8058
1136.155, 429.8408
1136.637, 432.7299
1137.119, 435.6260
1137.601, 438.0863
1138.083, 439.7475
1138.565, 440.7274
1139.047, 441.4008
1139.530, 441.9140
1140.012, 441.4754
1140.494, 440.0186
1140.976, 437.7525
1141.458, 434.2212
1141.940, 430.4845
1142.422, 427.7716
1142.904, 425.9425
1143.386, 423.7204
1143.869, 420.4048
1144.351, 418.5960
1144.833, 418.9742
1145.315, 420.2334
1145.797, 420.7731
1146.279, 421.1015
1146.761, 421.8881
1147.243, 423.2115
1147.726, 425.0356
1148.208, 427.4727
1148.690, 430.1039
1149.172, 432.9475
1149.654, 435.7471
1150.136, 437.4466
1150.618, 438.8450
1151.100, 441.7219
1151.583, 446.7336
1152.065, 451.9823
1152.547, 457.1745
1153.029, 462.1574
1153.511, 466.3058
1153.993, 470.4308
1154.475, 478.2237
1154.957, 488.5229
1155.439, 497.5302
1155.922, 504.1844
1156.404, 508.7798
1156.886, 512.0126
1157.368, 512.5389
1157.850, 509.1552
1158.332, 502.0894
1158.814, 492.7407
1159.296, 481.4368
1159.778, 470.3049
1160.261, 459.9533
1160.743, 450.5601
1161.225, 442.5061
1161.707, 435.5174
1162.189, 429.4713
1162.671, 424.3710
1163.153, 419.8604
1163.635, 415.9280
1164.118, 412.6046
1164.600, 410.2200
1165.082, 408.1748
1165.564, 406.1180
1166.046, 404.1819
1166.528, 402.6029
1167.010, 401.3776
1167.492, 400.6041
1167.974, 400.3046
1168.457, 400.1728
1168.939, 400.1606
1169.421, 400.0271
1169.903, 399.4905
1170.385, 398.6424
1170.867, 397.8738
1171.349, 397.0985
1171.831, 397.0874
1172.313, 398.1556
1172.796, 398.9061
1173.278, 397.2363
1173.760, 395.0302
1174.242, 394.2879
1174.724, 395.1016
1175.206, 395.3062
1175.688, 394.7366
1176.170, 394.1828
1176.653, 393.8461
1177.135, 393.6230
1177.617, 393.1933
1178.099, 392.9144
1178.581, 393.4956
1179.063, 395.1852
1179.545, 395.5548
1180.027, 394.0663
1180.510, 392.9882
1180.992, 393.3160
1181.474, 394.1540
1181.956, 394.0755
1182.438, 393.6366
1182.920, 393.8327
1183.402, 395.2216
1183.884, 395.5783
1184.366, 394.3600
1184.849, 393.5141
1185.331, 394.3797
1185.813, 395.7588
1186.295, 395.2580
1186.777, 393.6655
1187.259, 392.4301
1187.741, 391.9676
1188.223, 391.8848
1188.705, 392.3395
1189.188, 392.7088
1189.670, 392.5087
1190.152, 391.9948
1190.634, 391.4846
1191.116, 391.1244
1191.598, 391.2726
1192.080, 392.6372
1192.562, 393.5956
1193.045, 394.0363
1193.527, 394.1199
1194.009, 393.7820
1194.491, 393.2564
1194.973, 393.1450
1195.455, 393.3412
1195.937, 393.4675
1196.419, 393.0270
1196.901, 393.1231
1197.384, 394.1502
1197.866, 395.1835
1198.348, 395.2103
1198.830, 394.6154
1199.312, 394.3065
1199.794, 394.2688
1200.276, 394.2305
1200.758, 393.9024
1201.240, 393.9141
1201.723, 394.5978
1202.205, 395.2186
1202.687, 394.5219
1203.169, 393.1733
1203.651, 392.9174
1204.133, 393.7548
1204.615, 394.5666
1205.097, 395.2949
1205.580, 395.3374
1206.062, 394.2470
1206.544, 392.9997
1207.026, 393.2550
1207.508, 394.4130
1207.990, 394.9261
1208.472, 394.6710
1208.954, 394.5434
1209.437, 395.1734
1209.919, 395.5106
1210.401, 395.1486
1210.883, 394.6393
1211.365, 395.0972
1211.847, 396.0961
1212.329, 396.5914
1212.811, 396.4256
1213.293, 396.2964
1213.776, 396.3777
1214.258, 396.6625
1214.740, 397.3051
1215.222, 397.9415
1215.704, 397.4909
1216.186, 396.5698
1216.668, 396.8716
1217.150, 398.8544
1217.632, 400.0002
1218.115, 398.9663
1218.597, 397.9777
1219.079, 397.8000
1219.561, 398.0104
1220.043, 397.6241
1220.525, 396.9757
1221.007, 396.8490
1221.489, 397.4875
1221.972, 398.1308
1222.454, 398.5948
1222.936, 399.0973
1223.418, 399.8496
1223.900, 400.5398
1224.382, 400.2097
1224.864, 399.3802
1225.346, 399.2632
1225.828, 400.4461
1226.311, 400.9945
1226.793, 400.4744
1227.275, 399.6549
1227.757, 398.7142
1228.239, 397.8929
1228.721, 397.8336
1229.203, 398.2423
1229.685, 398.4913
1230.167, 398.2816
1230.650, 398.4822
1231.132, 399.4384
1231.614, 400.0826
1232.096, 399.6790
1232.578, 398.8390
1233.060, 398.6137
1233.542, 398.8748
1234.024, 399.4587
1234.507, 400.6862
1234.989, 401.1726
1235.471, 400.6825
1235.953, 400.0190
1236.435, 399.4893
1236.917, 399.2097
1237.399, 399.6143
1237.881, 400.3361
1238.364, 400.6788
1238.846, 400.2010
1239.328, 400.1135
1239.810, 400.5086
1240.292, 400.9427
1240.774, 401.1206
1241.256, 401.2122
1241.738, 401.5083
1242.220, 401.8744
1242.703, 402.0685
1243.185, 402.0342
1243.667, 401.8127
1244.149, 401.3354
1244.631, 401.0663
1245.113, 401.6068
1245.595, 402.2176
1246.077, 401.8835
1246.559, 401.1023
1247.042, 400.7963
1247.524, 401.2413
1248.006, 401.2204
1248.488, 400.6859
1248.970, 400.3050
1249.452, 400.8584
1249.934, 401.4344
1250.416, 400.9403
1250.899, 400.1068
1251.381, 400.1632
1251.863, 401.3825
1252.345, 401.9884
1252.827, 401.9740
1253.309, 402.0607
1253.791, 403.1402
1254.273, 404.0312
1254.755, 403.6762
1255.238, 402.7685
1255.720, 402.3287
1256.202, 402.3747
1256.684, 402.0844
1257.166, 401.4761
1257.648, 401.1913
1258.130, 402.0014
1258.612, 402.7963
1259.094, 402.9521
1259.577, 402.8280
1260.059, 402.8217
1260.541, 402.9085
1261.023, 402.5027
1261.505, 401.7035
1261.987, 401.3419
1262.469, 402.3720
1262.951, 403.2757
1263.434, 403.4891
1263.916, 403.4481
1264.398, 403.6260
1264.880, 403.9161
1265.362, 403.6671
1265.844, 403.0126
1266.326, 402.7633
1266.808, 404.0064
1267.291, 404.5456
1267.773, 403.6241
1268.255, 402.6390
1268.737, 403.5107
1269.219, 405.2144
1269.701, 404.7108
1270.183, 402.5956
1270.665, 401.4863
1271.147, 403.5004
1271.630, 404.5859
1272.112, 404.2834
1272.594, 403.5453
1273.076, 403.1051
1273.558, 402.8957
1274.040, 402.8295
1274.522, 402.8885
1275.004, 403.0133
1275.486, 403.0193
1275.969, 403.5175
1276.451, 404.5519
1276.933, 406.0162
1277.415, 408.8371
1277.897, 411.1459
1278.379, 410.3297
1278.861, 407.4957
1279.343, 405.4209
1279.825, 404.2093
1280.308, 403.8700
1280.790, 404.4347
1281.272, 405.1897
1281.754, 406.0008
1282.236, 406.3908
1282.718, 405.5191
1283.200, 404.2353
1283.682, 403.9948
1284.165, 404.8371
1284.647, 405.2341
1285.129, 405.1666
1285.611, 405.3479
1286.093, 406.7628
1286.575, 407.8762
1287.057, 407.7676
1287.539, 407.1928
1288.021, 406.8686
1288.504, 406.7677
1288.986, 406.7108
1289.468, 406.6994
1289.950, 406.7665
1290.432, 406.8036
1290.914, 407.1704
1291.396, 408.1915
1291.878, 409.0797
1292.360, 408.9645
1292.843, 408.1938
1293.325, 407.3275
1293.807, 406.5537
1294.289, 406.4404
1294.771, 408.0475
1295.253, 408.8332
1295.735, 408.4488
1296.217, 408.0514
1296.700, 408.7861
1297.182, 409.9732
1297.664, 410.7906
1298.146, 411.2469
1298.628, 411.4894
1299.110, 411.7007
1299.592, 411.3368
1300.074, 410.3117
1300.557, 409.3516
1301.039, 408.7943
1301.521, 408.6734
1302.003, 409.7367
1302.485, 410.8826
1302.967, 410.7799
1303.449, 409.6677
##END=



