##NAMES=Wakabayashilite
##RRUFFID=R150064
##IDEAL CHEMISTRY=(As,Sb)_6_As_4_S_14_
##LOCALITY=Jas Roux, La Chapelle En Valgaudemard, Hautes-Alpes, Provence-Alpes-Côte D'Azur, France
##OWNER=RRUFF
##SOURCE=Rock Currier
##DESCRIPTION=Yellow braded or fibrous crystals, associated with black metallic chabournéite with conchoidal fracture (R140106), red realgar, and colorless massive or tabular celestine.
##STATUS=The identification of this mineral has been confirmed by single-crystal X-ray diffraction.
##URL=rruff.info/R150064
9.059570e+001, 4.038926e+003
9.107782e+001, 3.969491e+003
9.155994e+001, 3.944996e+003
9.204205e+001, 4.001257e+003
9.252417e+001, 4.078028e+003
9.300629e+001, 4.157901e+003
9.348840e+001, 4.211617e+003
9.397052e+001, 4.207565e+003
9.445264e+001, 4.129217e+003
9.493475e+001, 4.027783e+003
9.541687e+001, 3.919443e+003
9.589898e+001, 3.807071e+003
9.638110e+001, 3.693093e+003
9.686321e+001, 3.577531e+003
9.734533e+001, 3.457635e+003
9.782745e+001, 3.330512e+003
9.830956e+001, 3.219088e+003
9.879168e+001, 3.117038e+003
9.927380e+001, 3.031446e+003
9.975591e+001, 2.964057e+003
1.002380e+002, 2.912574e+003
1.007201e+002, 2.873651e+003
1.012023e+002, 2.845210e+003
1.016844e+002, 2.829081e+003
1.021665e+002, 2.823569e+003
1.026486e+002, 2.830456e+003
1.031307e+002, 2.845813e+003
1.036128e+002, 2.864529e+003
1.040950e+002, 2.885046e+003
1.045771e+002, 2.915987e+003
1.050592e+002, 2.966735e+003
1.055413e+002, 3.029923e+003
1.060234e+002, 3.097101e+003
1.065055e+002, 3.176155e+003
1.069877e+002, 3.258408e+003
1.074698e+002, 3.310424e+003
1.079519e+002, 3.339661e+003
1.084340e+002, 3.321644e+003
1.089161e+002, 3.234257e+003
1.093982e+002, 3.093812e+003
1.098804e+002, 2.938044e+003
1.103625e+002, 2.793328e+003
1.108446e+002, 2.655577e+003
1.113267e+002, 2.555148e+003
1.118088e+002, 2.500716e+003
1.122909e+002, 2.471696e+003
1.127731e+002, 2.464885e+003
1.132552e+002, 2.477053e+003
1.137373e+002, 2.501926e+003
1.142194e+002, 2.530538e+003
1.147015e+002, 2.563124e+003
1.151836e+002, 2.600898e+003
1.156658e+002, 2.644713e+003
1.161479e+002, 2.693067e+003
1.166300e+002, 2.744719e+003
1.171121e+002, 2.799399e+003
1.175942e+002, 2.857077e+003
1.180763e+002, 2.918947e+003
1.185584e+002, 2.990937e+003
1.190406e+002, 3.054953e+003
1.195227e+002, 3.105444e+003
1.200048e+002, 3.143827e+003
1.204869e+002, 3.173584e+003
1.209690e+002, 3.193742e+003
1.214511e+002, 3.206936e+003
1.219333e+002, 3.219559e+003
1.224154e+002, 3.229394e+003
1.228975e+002, 3.242322e+003
1.233796e+002, 3.262106e+003
1.238617e+002, 3.288542e+003
1.243438e+002, 3.323645e+003
1.248260e+002, 3.368122e+003
1.253081e+002, 3.421999e+003
1.257902e+002, 3.487268e+003
1.262723e+002, 3.563805e+003
1.267544e+002, 3.652401e+003
1.272365e+002, 3.755029e+003
1.277187e+002, 3.878452e+003
1.282008e+002, 4.006754e+003
1.286829e+002, 4.141103e+003
1.291650e+002, 4.275856e+003
1.296471e+002, 4.403800e+003
1.301292e+002, 4.521241e+003
1.306114e+002, 4.628038e+003
1.310935e+002, 4.721156e+003
1.315756e+002, 4.794836e+003
1.320577e+002, 4.859988e+003
1.325398e+002, 4.914657e+003
1.330219e+002, 4.962083e+003
1.335041e+002, 5.007352e+003
1.339862e+002, 5.054382e+003
1.344683e+002, 5.102630e+003
1.349504e+002, 5.159847e+003
1.354325e+002, 5.231021e+003
1.359146e+002, 5.305323e+003
1.363968e+002, 5.387372e+003
1.368789e+002, 5.473418e+003
1.373610e+002, 5.541827e+003
1.378431e+002, 5.569894e+003
1.383252e+002, 5.554390e+003
1.388073e+002, 5.488220e+003
1.392895e+002, 5.359460e+003
1.397716e+002, 5.184075e+003
1.402537e+002, 4.971435e+003
1.407358e+002, 4.718552e+003
1.412179e+002, 4.451175e+003
1.417000e+002, 4.194656e+003
1.421821e+002, 3.947173e+003
1.426643e+002, 3.727030e+003
1.431464e+002, 3.541462e+003
1.436285e+002, 3.389491e+003
1.441106e+002, 3.266987e+003
1.445927e+002, 3.178558e+003
1.450748e+002, 3.117940e+003
1.455570e+002, 3.073919e+003
1.460391e+002, 3.046474e+003
1.465212e+002, 3.035441e+003
1.470033e+002, 3.041283e+003
1.474854e+002, 3.064335e+003
1.479675e+002, 3.101575e+003
1.484497e+002, 3.167110e+003
1.489318e+002, 3.238610e+003
1.494139e+002, 3.311184e+003
1.498960e+002, 3.382012e+003
1.503781e+002, 3.440331e+003
1.508602e+002, 3.469224e+003
1.513424e+002, 3.463175e+003
1.518245e+002, 3.436218e+003
1.523066e+002, 3.388529e+003
1.527887e+002, 3.326447e+003
1.532708e+002, 3.252574e+003
1.537529e+002, 3.168582e+003
1.542351e+002, 3.076708e+003
1.547172e+002, 2.982492e+003
1.551993e+002, 2.879972e+003
1.556814e+002, 2.782974e+003
1.561635e+002, 2.690706e+003
1.566456e+002, 2.604483e+003
1.571278e+002, 2.525967e+003
1.576099e+002, 2.455777e+003
1.580920e+002, 2.394295e+003
1.585741e+002, 2.344510e+003
1.590562e+002, 2.303708e+003
1.595383e+002, 2.275118e+003
1.600205e+002, 2.261825e+003
1.605026e+002, 2.261741e+003
1.609847e+002, 2.269984e+003
1.614668e+002, 2.283334e+003
1.619489e+002, 2.304004e+003
1.624310e+002, 2.337282e+003
1.629131e+002, 2.388626e+003
1.633953e+002, 2.445760e+003
1.638774e+002, 2.502638e+003
1.643595e+002, 2.559420e+003
1.648416e+002, 2.616662e+003
1.653237e+002, 2.675488e+003
1.658058e+002, 2.734844e+003
1.662880e+002, 2.792584e+003
1.667701e+002, 2.849984e+003
1.672522e+002, 2.904814e+003
1.677343e+002, 2.958205e+003
1.682164e+002, 3.013209e+003
1.686985e+002, 3.051729e+003
1.691807e+002, 3.062867e+003
1.696628e+002, 3.051474e+003
1.701449e+002, 3.018206e+003
1.706270e+002, 2.958987e+003
1.711091e+002, 2.880582e+003
1.715912e+002, 2.796313e+003
1.720734e+002, 2.700094e+003
1.725555e+002, 2.609628e+003
1.730376e+002, 2.526331e+003
1.735197e+002, 2.452212e+003
1.740018e+002, 2.390369e+003
1.744839e+002, 2.344022e+003
1.749661e+002, 2.311473e+003
1.754482e+002, 2.283237e+003
1.759303e+002, 2.260545e+003
1.764124e+002, 2.241546e+003
1.768945e+002, 2.229381e+003
1.773766e+002, 2.220287e+003
1.778588e+002, 2.208130e+003
1.783409e+002, 2.188041e+003
1.788230e+002, 2.159901e+003
1.793051e+002, 2.132680e+003
1.797872e+002, 2.099933e+003
1.802693e+002, 2.074254e+003
1.807515e+002, 2.059380e+003
1.812336e+002, 2.054983e+003
1.817157e+002, 2.058872e+003
1.821978e+002, 2.068690e+003
1.826799e+002, 2.083687e+003
1.831620e+002, 2.115066e+003
1.836441e+002, 2.161545e+003
1.841263e+002, 2.220924e+003
1.846084e+002, 2.295559e+003
1.850905e+002, 2.383508e+003
1.855726e+002, 2.478429e+003
1.860547e+002, 2.575810e+003
1.865368e+002, 2.676476e+003
1.870190e+002, 2.766652e+003
1.875011e+002, 2.844806e+003
1.879832e+002, 2.913552e+003
1.884653e+002, 2.969943e+003
1.889474e+002, 3.014284e+003
1.894296e+002, 3.059357e+003
1.899117e+002, 3.115374e+003
1.903938e+002, 3.182908e+003
1.908759e+002, 3.264928e+003
1.913580e+002, 3.380521e+003
1.918401e+002, 3.501882e+003
1.923223e+002, 3.608823e+003
1.928044e+002, 3.704411e+003
1.932865e+002, 3.757531e+003
1.937686e+002, 3.719867e+003
1.942507e+002, 3.612052e+003
1.947328e+002, 3.475921e+003
1.952150e+002, 3.300966e+003
1.956971e+002, 3.109376e+003
1.961792e+002, 2.940538e+003
1.966613e+002, 2.793150e+003
1.971434e+002, 2.680978e+003
1.976255e+002, 2.609969e+003
1.981077e+002, 2.576278e+003
1.985898e+002, 2.579060e+003
1.990719e+002, 2.618475e+003
1.995540e+002, 2.694131e+003
2.000361e+002, 2.803330e+003
2.005182e+002, 2.946879e+003
2.010004e+002, 3.129508e+003
2.014825e+002, 3.358868e+003
2.019646e+002, 3.623593e+003
2.024467e+002, 3.895041e+003
2.029288e+002, 4.169196e+003
2.034109e+002, 4.443243e+003
2.038930e+002, 4.657765e+003
2.043752e+002, 4.801999e+003
2.048573e+002, 4.886335e+003
2.053394e+002, 4.899164e+003
2.058215e+002, 4.855268e+003
2.063036e+002, 4.787065e+003
2.067857e+002, 4.725696e+003
2.072679e+002, 4.674225e+003
2.077500e+002, 4.569200e+003
2.082321e+002, 4.398701e+003
2.087142e+002, 4.180818e+003
2.091963e+002, 3.894333e+003
2.096784e+002, 3.559501e+003
2.101606e+002, 3.218795e+003
2.106427e+002, 2.904669e+003
2.111248e+002, 2.616374e+003
2.116069e+002, 2.380318e+003
2.120890e+002, 2.206433e+003
2.125711e+002, 2.069452e+003
2.130533e+002, 1.968665e+003
2.135354e+002, 1.898243e+003
2.140175e+002, 1.846045e+003
2.144996e+002, 1.802194e+003
2.149817e+002, 1.767351e+003
2.154638e+002, 1.737270e+003
2.159460e+002, 1.716356e+003
2.164281e+002, 1.695133e+003
2.169102e+002, 1.667046e+003
2.173923e+002, 1.633343e+003
2.178744e+002, 1.600653e+003
2.183565e+002, 1.575426e+003
2.188387e+002, 1.558806e+003
2.193208e+002, 1.540990e+003
2.198029e+002, 1.517739e+003
2.202850e+002, 1.496719e+003
2.207671e+002, 1.481515e+003
2.212492e+002, 1.472642e+003
2.217314e+002, 1.469714e+003
2.222135e+002, 1.471369e+003
2.226956e+002, 1.478729e+003
2.231777e+002, 1.499526e+003
2.236598e+002, 1.531375e+003
2.241419e+002, 1.577912e+003
2.246240e+002, 1.643547e+003
2.251062e+002, 1.728136e+003
2.255883e+002, 1.824850e+003
2.260704e+002, 1.931520e+003
2.265525e+002, 2.047095e+003
2.270346e+002, 2.162562e+003
2.275167e+002, 2.282623e+003
2.279989e+002, 2.398895e+003
2.284810e+002, 2.503301e+003
2.289631e+002, 2.595324e+003
2.294452e+002, 2.677156e+003
2.299273e+002, 2.759534e+003
2.304094e+002, 2.830939e+003
2.308916e+002, 2.860180e+003
2.313737e+002, 2.853408e+003
2.318558e+002, 2.795343e+003
2.323379e+002, 2.657746e+003
2.328200e+002, 2.433572e+003
2.333021e+002, 2.179182e+003
2.337843e+002, 1.899613e+003
2.342664e+002, 1.616992e+003
2.347485e+002, 1.366688e+003
2.352306e+002, 1.156603e+003
2.357127e+002, 9.836508e+002
2.361948e+002, 8.459015e+002
2.366770e+002, 7.460647e+002
2.371591e+002, 6.677327e+002
2.376412e+002, 6.097792e+002
2.381233e+002, 5.660638e+002
2.386054e+002, 5.320944e+002
2.390875e+002, 5.080106e+002
2.395697e+002, 4.909178e+002
2.400518e+002, 4.769176e+002
2.405339e+002, 4.663372e+002
2.410160e+002, 4.577308e+002
2.414981e+002, 4.514168e+002
2.419802e+002, 4.463195e+002
2.424624e+002, 4.414119e+002
2.429445e+002, 4.362327e+002
2.434266e+002, 4.315206e+002
2.439087e+002, 4.287584e+002
2.443908e+002, 4.286401e+002
2.448729e+002, 4.286247e+002
2.453550e+002, 4.278069e+002
2.458372e+002, 4.268788e+002
2.463193e+002, 4.266199e+002
2.468014e+002, 4.273391e+002
2.472835e+002, 4.282362e+002
2.477656e+002, 4.276320e+002
2.482477e+002, 4.243262e+002
2.487299e+002, 4.224571e+002
2.492120e+002, 4.239033e+002
2.496941e+002, 4.261956e+002
2.501762e+002, 4.273372e+002
2.506583e+002, 4.267440e+002
2.511404e+002, 4.254814e+002
2.516226e+002, 4.254386e+002
2.521047e+002, 4.274289e+002
2.525868e+002, 4.288015e+002
2.530689e+002, 4.282903e+002
2.535510e+002, 4.278331e+002
2.540331e+002, 4.289732e+002
2.545153e+002, 4.320309e+002
2.549974e+002, 4.360133e+002
2.554795e+002, 4.394420e+002
2.559616e+002, 4.419911e+002
2.564437e+002, 4.446508e+002
2.569258e+002, 4.475158e+002
2.574080e+002, 4.504230e+002
2.578901e+002, 4.532552e+002
2.583722e+002, 4.559977e+002
2.588543e+002, 4.587706e+002
2.593364e+002, 4.618088e+002
2.598185e+002, 4.655128e+002
2.603007e+002, 4.684102e+002
2.607828e+002, 4.694014e+002
2.612649e+002, 4.706170e+002
2.617470e+002, 4.733233e+002
2.622291e+002, 4.776697e+002
2.627112e+002, 4.830450e+002
2.631934e+002, 4.888796e+002
2.636755e+002, 4.954290e+002
2.641576e+002, 5.014824e+002
2.646397e+002, 5.072234e+002
2.651218e+002, 5.124152e+002
2.656039e+002, 5.163434e+002
2.660861e+002, 5.193363e+002
2.665682e+002, 5.227173e+002
2.670503e+002, 5.278304e+002
2.675324e+002, 5.349384e+002
2.680145e+002, 5.421722e+002
2.684966e+002, 5.490004e+002
2.689788e+002, 5.563839e+002
2.694609e+002, 5.651474e+002
2.699430e+002, 5.749861e+002
2.704251e+002, 5.846979e+002
2.709072e+002, 5.931709e+002
2.713893e+002, 6.002581e+002
2.718715e+002, 6.090790e+002
2.723536e+002, 6.200485e+002
2.728357e+002, 6.318984e+002
2.733178e+002, 6.439471e+002
2.737999e+002, 6.563813e+002
2.742820e+002, 6.698651e+002
2.747642e+002, 6.849883e+002
2.752463e+002, 7.016000e+002
2.757284e+002, 7.174952e+002
2.762105e+002, 7.306819e+002
2.766926e+002, 7.454670e+002
2.771747e+002, 7.633573e+002
2.776568e+002, 7.840170e+002
2.781389e+002, 8.067957e+002
2.786211e+002, 8.316598e+002
2.791032e+002, 8.579106e+002
2.795853e+002, 8.827372e+002
2.800674e+002, 9.037186e+002
2.805495e+002, 9.264553e+002
2.810316e+002, 9.532928e+002
2.815138e+002, 9.827275e+002
2.819959e+002, 1.011902e+003
2.824780e+002, 1.039381e+003
2.829601e+002, 1.066526e+003
2.834422e+002, 1.096398e+003
2.839243e+002, 1.129680e+003
2.844065e+002, 1.164017e+003
2.848886e+002, 1.197791e+003
2.853707e+002, 1.232643e+003
2.858528e+002, 1.270986e+003
2.863349e+002, 1.313723e+003
2.868170e+002, 1.359918e+003
2.872992e+002, 1.408840e+003
2.877813e+002, 1.460321e+003
2.882634e+002, 1.513939e+003
2.887455e+002, 1.568305e+003
2.892276e+002, 1.625071e+003
2.897097e+002, 1.684903e+003
2.901919e+002, 1.747848e+003
2.906740e+002, 1.816208e+003
2.911561e+002, 1.894832e+003
2.916382e+002, 1.984574e+003
2.921203e+002, 2.076813e+003
2.926024e+002, 2.168829e+003
2.930846e+002, 2.264081e+003
2.935667e+002, 2.366649e+003
2.940488e+002, 2.477391e+003
2.945309e+002, 2.591827e+003
2.950130e+002, 2.707213e+003
2.954951e+002, 2.823480e+003
2.959773e+002, 2.936659e+003
2.964594e+002, 3.046217e+003
2.969415e+002, 3.152902e+003
2.974236e+002, 3.258379e+003
2.979057e+002, 3.361960e+003
2.983878e+002, 3.460738e+003
2.988700e+002, 3.552068e+003
2.993521e+002, 3.636003e+003
2.998342e+002, 3.717937e+003
3.003163e+002, 3.799980e+003
3.007984e+002, 3.877521e+003
3.012805e+002, 3.949708e+003
3.017627e+002, 4.015869e+003
3.022448e+002, 4.074288e+003
3.027269e+002, 4.123805e+003
3.032090e+002, 4.164950e+003
3.036911e+002, 4.201611e+003
3.041732e+002, 4.237449e+003
3.046554e+002, 4.264330e+003
3.051375e+002, 4.277738e+003
3.056196e+002, 4.279431e+003
3.061017e+002, 4.273882e+003
3.065838e+002, 4.262853e+003
3.070659e+002, 4.245130e+003
3.075481e+002, 4.216255e+003
3.080302e+002, 4.173711e+003
3.085123e+002, 4.133024e+003
3.089944e+002, 4.095225e+003
3.094765e+002, 4.063342e+003
3.099586e+002, 4.042412e+003
3.104408e+002, 4.033416e+003
3.109229e+002, 4.037080e+003
3.114050e+002, 4.057027e+003
3.118871e+002, 4.092681e+003
3.123692e+002, 4.136296e+003
3.128513e+002, 4.186380e+003
3.133335e+002, 4.243638e+003
3.138156e+002, 4.311434e+003
3.142977e+002, 4.390390e+003
3.147798e+002, 4.472516e+003
3.152619e+002, 4.551523e+003
3.157440e+002, 4.627619e+003
3.162262e+002, 4.702609e+003
3.167083e+002, 4.776750e+003
3.171904e+002, 4.849732e+003
3.176725e+002, 4.919687e+003
3.181546e+002, 4.987280e+003
3.186367e+002, 5.056991e+003
3.191188e+002, 5.131522e+003
3.196010e+002, 5.210992e+003
3.200831e+002, 5.294538e+003
3.205652e+002, 5.383126e+003
3.210473e+002, 5.475038e+003
3.215294e+002, 5.571374e+003
3.220115e+002, 5.670603e+003
3.224937e+002, 5.769047e+003
3.229758e+002, 5.864375e+003
3.234579e+002, 5.957767e+003
3.239400e+002, 6.050718e+003
3.244221e+002, 6.146697e+003
3.249042e+002, 6.236155e+003
3.253864e+002, 6.319142e+003
3.258685e+002, 6.393085e+003
3.263506e+002, 6.455191e+003
3.268327e+002, 6.505548e+003
3.273148e+002, 6.540234e+003
3.277969e+002, 6.548843e+003
3.282791e+002, 6.529168e+003
3.287612e+002, 6.504958e+003
3.292433e+002, 6.483536e+003
3.297254e+002, 6.458410e+003
3.302075e+002, 6.419101e+003
3.306896e+002, 6.363798e+003
3.311718e+002, 6.305519e+003
3.316539e+002, 6.256659e+003
3.321360e+002, 6.218252e+003
3.326181e+002, 6.180372e+003
3.331002e+002, 6.138588e+003
3.335823e+002, 6.100612e+003
3.340645e+002, 6.070078e+003
3.345466e+002, 6.047950e+003
3.350287e+002, 6.037921e+003
3.355108e+002, 6.046933e+003
3.359929e+002, 6.070435e+003
3.364750e+002, 6.075445e+003
3.369572e+002, 6.060836e+003
3.374393e+002, 6.031684e+003
3.379214e+002, 5.993093e+003
3.384035e+002, 5.941646e+003
3.388856e+002, 5.871423e+003
3.393677e+002, 5.781344e+003
3.398499e+002, 5.667528e+003
3.403320e+002, 5.514644e+003
3.408141e+002, 5.310179e+003
3.412962e+002, 5.097393e+003
3.417783e+002, 4.876276e+003
3.422604e+002, 4.653911e+003
3.427426e+002, 4.438222e+003
3.432247e+002, 4.232254e+003
3.437068e+002, 4.038882e+003
3.441889e+002, 3.862162e+003
3.446710e+002, 3.703521e+003
3.451531e+002, 3.565135e+003
3.456353e+002, 3.450874e+003
3.461174e+002, 3.355427e+003
3.465995e+002, 3.276250e+003
3.470816e+002, 3.212865e+003
3.475637e+002, 3.163039e+003
3.480458e+002, 3.125489e+003
3.485280e+002, 3.100444e+003
3.490101e+002, 3.090930e+003
3.494922e+002, 3.096513e+003
3.499743e+002, 3.114882e+003
3.504564e+002, 3.146981e+003
3.509385e+002, 3.191068e+003
3.514207e+002, 3.244731e+003
3.519028e+002, 3.306889e+003
3.523849e+002, 3.376183e+003
3.528670e+002, 3.447813e+003
3.533491e+002, 3.527818e+003
3.538312e+002, 3.602496e+003
3.543134e+002, 3.672795e+003
3.547955e+002, 3.735788e+003
3.552776e+002, 3.793608e+003
3.557597e+002, 3.846023e+003
3.562418e+002, 3.880637e+003
3.567239e+002, 3.877399e+003
3.572061e+002, 3.833215e+003
3.576882e+002, 3.749364e+003
3.581703e+002, 3.620242e+003
3.586524e+002, 3.459876e+003
3.591345e+002, 3.269478e+003
3.596166e+002, 3.054005e+003
3.600987e+002, 2.828975e+003
3.605808e+002, 2.605597e+003
3.610630e+002, 2.381506e+003
3.615451e+002, 2.182981e+003
3.620272e+002, 2.012833e+003
3.625093e+002, 1.863606e+003
3.629914e+002, 1.735104e+003
3.634735e+002, 1.625311e+003
3.639557e+002, 1.534151e+003
3.644378e+002, 1.461598e+003
3.649199e+002, 1.406326e+003
3.654020e+002, 1.362788e+003
3.658841e+002, 1.332672e+003
3.663662e+002, 1.313898e+003
3.668484e+002, 1.307712e+003
3.673305e+002, 1.311221e+003
3.678126e+002, 1.322593e+003
3.682947e+002, 1.340942e+003
3.687768e+002, 1.364864e+003
3.692589e+002, 1.391772e+003
3.697411e+002, 1.419612e+003
3.702232e+002, 1.456557e+003
3.707053e+002, 1.505160e+003
3.711874e+002, 1.560357e+003
3.716695e+002, 1.619805e+003
3.721516e+002, 1.683519e+003
3.726338e+002, 1.754146e+003
3.731159e+002, 1.833682e+003
3.735980e+002, 1.921890e+003
3.740801e+002, 2.017231e+003
3.745622e+002, 2.122923e+003
3.750443e+002, 2.232813e+003
3.755265e+002, 2.342558e+003
3.760086e+002, 2.455405e+003
3.764907e+002, 2.576208e+003
3.769728e+002, 2.709179e+003
3.774549e+002, 2.848951e+003
3.779370e+002, 2.984594e+003
3.784192e+002, 3.115712e+003
3.789013e+002, 3.243622e+003
3.793834e+002, 3.370104e+003
3.798655e+002, 3.492868e+003
3.803476e+002, 3.611566e+003
3.808297e+002, 3.726001e+003
3.813119e+002, 3.831488e+003
3.817940e+002, 3.928079e+003
3.822761e+002, 4.015623e+003
3.827582e+002, 4.073553e+003
3.832403e+002, 4.099373e+003
3.837224e+002, 4.090660e+003
3.842046e+002, 4.046028e+003
3.846867e+002, 3.969837e+003
3.851688e+002, 3.876151e+003
3.856509e+002, 3.766441e+003
3.861330e+002, 3.646200e+003
3.866151e+002, 3.523997e+003
3.870973e+002, 3.396938e+003
3.875794e+002, 3.279583e+003
3.880615e+002, 3.178391e+003
3.885436e+002, 3.092760e+003
3.890257e+002, 3.023154e+003
3.895078e+002, 2.968042e+003
3.899900e+002, 2.932010e+003
3.904721e+002, 2.920911e+003
3.909542e+002, 2.933586e+003
3.914363e+002, 2.963107e+003
3.919184e+002, 3.012926e+003
3.924005e+002, 3.072126e+003
3.928827e+002, 3.129487e+003
3.933648e+002, 3.186572e+003
3.938469e+002, 3.228991e+003
3.943290e+002, 3.260799e+003
3.948111e+002, 3.271294e+003
3.952932e+002, 3.244420e+003
3.957754e+002, 3.177668e+003
3.962575e+002, 3.073076e+003
3.967396e+002, 2.925652e+003
3.972217e+002, 2.735585e+003
3.977038e+002, 2.531503e+003
3.981859e+002, 2.296819e+003
3.986681e+002, 2.061828e+003
3.991501e+002, 1.838881e+003
3.996323e+002, 1.630535e+003
4.001144e+002, 1.443609e+003
4.005965e+002, 1.282145e+003
4.010786e+002, 1.143377e+003
4.015607e+002, 1.023984e+003
4.020428e+002, 9.272446e+002
4.025250e+002, 8.399921e+002
4.030071e+002, 7.621089e+002
4.034892e+002, 6.914937e+002
4.039713e+002, 6.261580e+002
4.044534e+002, 5.658859e+002
4.049355e+002, 5.113021e+002
4.054177e+002, 4.631903e+002
4.058998e+002, 4.221552e+002
4.063819e+002, 3.877281e+002
4.068640e+002, 3.616574e+002
4.073461e+002, 3.396895e+002
4.078282e+002, 3.200468e+002
4.083104e+002, 3.026885e+002
4.087925e+002, 2.882115e+002
4.092746e+002, 2.769655e+002
4.097567e+002, 2.685395e+002
4.102388e+002, 2.608093e+002
4.107209e+002, 2.538183e+002
4.112031e+002, 2.475970e+002
4.116852e+002, 2.421776e+002
4.121673e+002, 2.374851e+002
4.126494e+002, 2.336056e+002
4.131315e+002, 2.304905e+002
4.136136e+002, 2.277285e+002
4.140958e+002, 2.248667e+002
4.145779e+002, 2.219866e+002
4.150600e+002, 2.186165e+002
4.155421e+002, 2.140073e+002
4.160242e+002, 2.096138e+002
4.165063e+002, 2.061543e+002
4.169885e+002, 2.033706e+002
4.174706e+002, 2.006068e+002
4.179527e+002, 1.973731e+002
4.184348e+002, 1.938887e+002
4.189169e+002, 1.908032e+002
4.193990e+002, 1.880437e+002
4.198812e+002, 1.859126e+002
4.203633e+002, 1.851892e+002
4.208454e+002, 1.847398e+002
4.213275e+002, 1.834864e+002
4.218096e+002, 1.811636e+002
4.222917e+002, 1.784063e+002
4.227739e+002, 1.757391e+002
4.232560e+002, 1.731700e+002
4.237381e+002, 1.707585e+002
4.242202e+002, 1.684652e+002
4.247023e+002, 1.664213e+002
4.251844e+002, 1.647148e+002
4.256666e+002, 1.633050e+002
4.261487e+002, 1.620454e+002
4.266308e+002, 1.610434e+002
4.271129e+002, 1.600781e+002
4.275950e+002, 1.587890e+002
4.280771e+002, 1.571502e+002
4.285593e+002, 1.554725e+002
4.290414e+002, 1.538494e+002
4.295235e+002, 1.523441e+002
4.300056e+002, 1.510354e+002
4.304877e+002, 1.498993e+002
4.309698e+002, 1.490159e+002
4.314520e+002, 1.486433e+002
4.319341e+002, 1.485237e+002
4.324162e+002, 1.481714e+002
4.328983e+002, 1.474781e+002
4.333804e+002, 1.464599e+002
4.338625e+002, 1.450226e+002
4.343447e+002, 1.430809e+002
4.348268e+002, 1.414873e+002
4.353089e+002, 1.404459e+002
4.357910e+002, 1.396091e+002
4.362731e+002, 1.390839e+002
4.367552e+002, 1.386282e+002
4.372374e+002, 1.373801e+002
4.377195e+002, 1.346841e+002
4.382016e+002, 1.311333e+002
4.386837e+002, 1.290480e+002
4.391658e+002, 1.300862e+002
4.396479e+002, 1.304803e+002
4.401301e+002, 1.297037e+002
4.406122e+002, 1.283361e+002
4.410943e+002, 1.267312e+002
4.415764e+002, 1.250631e+002
4.420585e+002, 1.236057e+002
4.425406e+002, 1.227504e+002
4.430227e+002, 1.226263e+002
4.435049e+002, 1.221466e+002
4.439870e+002, 1.211397e+002
4.444691e+002, 1.199491e+002
4.449512e+002, 1.184841e+002
4.454333e+002, 1.169484e+002
4.459154e+002, 1.156332e+002
4.463976e+002, 1.147059e+002
4.468797e+002, 1.140470e+002
4.473618e+002, 1.133753e+002
4.478439e+002, 1.126160e+002
4.483260e+002, 1.120701e+002
4.488081e+002, 1.119758e+002
4.492903e+002, 1.119773e+002
4.497724e+002, 1.119448e+002
4.502545e+002, 1.118287e+002
4.507366e+002, 1.114933e+002
4.512187e+002, 1.106337e+002
4.517008e+002, 1.094284e+002
4.521830e+002, 1.087238e+002
4.526651e+002, 1.087198e+002
4.531472e+002, 1.087613e+002
4.536293e+002, 1.084712e+002
4.541114e+002, 1.079800e+002
4.545935e+002, 1.074451e+002
4.550757e+002, 1.068869e+002
4.555578e+002, 1.063195e+002
4.560399e+002, 1.056781e+002
4.565220e+002, 1.050155e+002
4.570041e+002, 1.045487e+002
4.574862e+002, 1.043391e+002
4.579684e+002, 1.043477e+002
4.584505e+002, 1.045786e+002
4.589326e+002, 1.050226e+002
4.594147e+002, 1.055166e+002
4.598968e+002, 1.062032e+002
4.603789e+002, 1.068044e+002
4.608611e+002, 1.070986e+002
4.613432e+002, 1.070810e+002
4.618253e+002, 1.067674e+002
4.623074e+002, 1.060848e+002
4.627895e+002, 1.051947e+002
4.632716e+002, 1.047647e+002
4.637538e+002, 1.054369e+002
4.642359e+002, 1.056986e+002
4.647180e+002, 1.053337e+002
4.652001e+002, 1.045031e+002
4.656822e+002, 1.031290e+002
4.661643e+002, 1.013137e+002
4.666465e+002, 9.967511e+001
4.671286e+002, 9.894336e+001
4.676107e+002, 9.923055e+001
4.680928e+002, 9.928880e+001
4.685749e+002, 9.753501e+001
4.690570e+002, 9.727559e+001
4.695392e+002, 1.017004e+002
4.700213e+002, 1.075691e+002
4.705034e+002, 1.096810e+002
4.709855e+002, 1.056376e+002
4.714676e+002, 9.875383e+001
4.719497e+002, 9.494760e+001
4.724319e+002, 9.496794e+001
4.729140e+002, 9.478475e+001
4.733961e+002, 9.348634e+001
4.738782e+002, 9.214933e+001
4.743603e+002, 9.130984e+001
4.748424e+002, 9.097173e+001
4.753246e+002, 9.097054e+001
4.758067e+002, 9.166524e+001
4.762888e+002, 9.247471e+001
4.767709e+002, 9.189396e+001
4.772530e+002, 8.968371e+001
4.777351e+002, 8.760075e+001
4.782173e+002, 8.643578e+001
4.786994e+002, 8.592097e+001
4.791815e+002, 8.529435e+001
4.796636e+002, 8.405653e+001
4.801457e+002, 8.443574e+001
4.806278e+002, 9.027419e+001
4.811100e+002, 9.780135e+001
4.815920e+002, 9.930947e+001
4.820742e+002, 9.325706e+001
4.825563e+002, 8.552013e+001
4.830384e+002, 8.101399e+001
4.835205e+002, 7.981793e+001
4.840026e+002, 7.902058e+001
4.844847e+002, 7.884329e+001
4.849669e+002, 7.879713e+001
4.854490e+002, 7.890171e+001
4.859311e+002, 7.895480e+001
4.864132e+002, 7.851897e+001
4.868953e+002, 7.743645e+001
4.873774e+002, 7.615800e+001
4.878596e+002, 7.545639e+001
4.883417e+002, 7.561938e+001
4.888238e+002, 7.556660e+001
4.893059e+002, 7.484176e+001
4.897880e+002, 7.437039e+001
4.902701e+002, 7.502795e+001
4.907523e+002, 7.629226e+001
4.912344e+002, 7.691978e+001
4.917165e+002, 7.609186e+001
4.921986e+002, 7.433455e+001
4.926807e+002, 7.303670e+001
4.931628e+002, 7.222260e+001
4.936450e+002, 7.181110e+001
4.941271e+002, 7.232142e+001
4.946092e+002, 7.284840e+001
4.950913e+002, 7.267870e+001
4.955734e+002, 7.183457e+001
4.960555e+002, 7.100450e+001
4.965377e+002, 7.073711e+001
4.970198e+002, 7.084216e+001
4.975019e+002, 7.076830e+001
4.979840e+002, 7.044641e+001
4.984661e+002, 7.023819e+001
4.989482e+002, 7.056478e+001
4.994304e+002, 7.103903e+001
4.999125e+002, 7.085992e+001
5.003946e+002, 6.965486e+001
5.008767e+002, 6.861229e+001
5.013588e+002, 6.846217e+001
5.018409e+002, 6.882958e+001
5.023231e+002, 6.912650e+001
5.028052e+002, 6.923627e+001
5.032873e+002, 6.906863e+001
5.037694e+002, 6.845553e+001
5.042515e+002, 6.737147e+001
5.047336e+002, 6.666644e+001
5.052158e+002, 6.643314e+001
5.056979e+002, 6.642621e+001
5.061800e+002, 6.692989e+001
5.066621e+002, 6.749309e+001
5.071442e+002, 6.729863e+001
5.076263e+002, 6.608759e+001
5.081085e+002, 6.457321e+001
5.085906e+002, 6.391207e+001
5.090727e+002, 6.443114e+001
5.095548e+002, 6.461774e+001
5.100369e+002, 6.389145e+001
5.105190e+002, 6.341282e+001
5.110012e+002, 6.390884e+001
5.114833e+002, 6.493956e+001
5.119654e+002, 6.567713e+001
5.124475e+002, 6.572807e+001
5.129296e+002, 6.522861e+001
5.134117e+002, 6.412233e+001
5.138939e+002, 6.220173e+001
5.143760e+002, 6.130033e+001
5.148581e+002, 6.249938e+001
5.153402e+002, 6.418412e+001
5.158223e+002, 6.506783e+001
5.163044e+002, 6.521149e+001
5.167866e+002, 6.513573e+001
5.172687e+002, 6.497513e+001
5.177508e+002, 6.476196e+001
5.182329e+002, 6.455159e+001
5.187150e+002, 6.433926e+001
5.191971e+002, 6.405274e+001
5.196793e+002, 6.365576e+001
5.201614e+002, 6.316563e+001
5.206435e+002, 6.255574e+001
5.211256e+002, 6.161712e+001
5.216077e+002, 6.115568e+001
5.220898e+002, 6.209321e+001
5.225720e+002, 6.301627e+001
5.230541e+002, 6.231569e+001
5.235362e+002, 6.021220e+001
5.240183e+002, 5.836380e+001
5.245004e+002, 5.801760e+001
5.249825e+002, 5.885289e+001
5.254647e+002, 5.919451e+001
5.259468e+002, 5.842545e+001
5.264289e+002, 5.803910e+001
5.269110e+002, 5.850974e+001
5.273931e+002, 5.915358e+001
5.278752e+002, 5.943069e+001
5.283574e+002, 5.927623e+001
5.288395e+002, 5.893671e+001
5.293216e+002, 5.858114e+001
5.298037e+002, 5.822170e+001
5.302858e+002, 5.795466e+001
5.307679e+002, 5.786348e+001
5.312501e+002, 5.767183e+001
5.317322e+002, 5.717449e+001
5.322143e+002, 5.655631e+001
5.326964e+002, 5.596315e+001
5.331785e+002, 5.540231e+001
5.336606e+002, 5.497251e+001
5.341428e+002, 5.489209e+001
5.346249e+002, 5.495766e+001
5.351070e+002, 5.468287e+001
5.355891e+002, 5.398545e+001
5.360712e+002, 5.321680e+001
5.365533e+002, 5.261271e+001
5.370355e+002, 5.216578e+001
5.375176e+002, 5.180425e+001
5.379997e+002, 5.169052e+001
5.384818e+002, 5.145543e+001
5.389639e+002, 5.087931e+001
5.394460e+002, 5.017608e+001
5.399282e+002, 4.954787e+001
5.404103e+002, 4.906481e+001
5.408924e+002, 4.883179e+001
5.413745e+002, 4.905215e+001
5.418566e+002, 4.975823e+001
5.423387e+002, 4.978235e+001
5.428209e+002, 4.809202e+001
5.433029e+002, 4.694791e+001
5.437850e+002, 4.726897e+001
5.442672e+002, 4.814274e+001
5.447493e+002, 4.850779e+001
5.452314e+002, 4.809081e+001
5.457135e+002, 4.744961e+001
5.461956e+002, 4.715078e+001
5.466777e+002, 4.717452e+001
5.471599e+002, 4.734585e+001
5.476420e+002, 4.778151e+001
5.481241e+002, 4.809632e+001
5.486062e+002, 4.785625e+001
5.490883e+002, 4.737647e+001
5.495704e+002, 4.720718e+001
5.500526e+002, 4.763223e+001
5.505347e+002, 4.796442e+001
5.510168e+002, 4.776253e+001
5.514989e+002, 4.715946e+001
5.519810e+002, 4.630607e+001
5.524631e+002, 4.522206e+001
5.529453e+002, 4.432066e+001
5.534274e+002, 4.402637e+001
5.539095e+002, 4.434300e+001
5.543916e+002, 4.458933e+001
5.548737e+002, 4.499414e+001
5.553558e+002, 4.507045e+001
5.558380e+002, 4.426507e+001
5.563201e+002, 4.324721e+001
5.568022e+002, 4.297315e+001
5.572843e+002, 4.362022e+001
5.577664e+002, 4.442616e+001
5.582485e+002, 4.446728e+001
5.587307e+002, 4.370871e+001
5.592128e+002, 4.320129e+001
5.596949e+002, 4.320914e+001
5.601770e+002, 4.309351e+001
5.606591e+002, 4.242042e+001
5.611412e+002, 4.161638e+001
5.616234e+002, 4.120569e+001
5.621055e+002, 4.133564e+001
5.625876e+002, 4.170597e+001
5.630697e+002, 4.226175e+001
5.635518e+002, 4.286034e+001
5.640339e+002, 4.291390e+001
5.645161e+002, 4.224666e+001
5.649982e+002, 4.159597e+001
5.654803e+002, 4.153737e+001
5.659624e+002, 4.193661e+001
5.664445e+002, 4.213837e+001
5.669266e+002, 4.213610e+001
5.674088e+002, 4.194984e+001
5.678909e+002, 4.138289e+001
5.683730e+002, 4.073195e+001
5.688551e+002, 4.041684e+001
5.693372e+002, 4.048316e+001
5.698193e+002, 4.062579e+001
5.703015e+002, 4.057546e+001
5.707836e+002, 4.033566e+001
5.712657e+002, 3.996721e+001
5.717478e+002, 3.907178e+001
5.722299e+002, 3.860052e+001
5.727120e+002, 3.919309e+001
5.731942e+002, 3.994627e+001
5.736763e+002, 3.988315e+001
5.741584e+002, 3.892976e+001
5.746405e+002, 3.796560e+001
5.751226e+002, 3.778250e+001
5.756047e+002, 3.822797e+001
5.760869e+002, 3.870923e+001
5.765690e+002, 3.925124e+001
5.770511e+002, 3.972668e+001
5.775332e+002, 4.011665e+001
5.780153e+002, 4.036613e+001
5.784974e+002, 4.032415e+001
5.789796e+002, 3.986385e+001
5.794617e+002, 3.967865e+001
5.799438e+002, 4.033038e+001
5.804259e+002, 4.121551e+001
5.809080e+002, 4.162531e+001
5.813901e+002, 4.154743e+001
5.818723e+002, 4.137998e+001
5.823544e+002, 4.137949e+001
5.828365e+002, 4.146258e+001
5.833186e+002, 4.132968e+001
5.838007e+002, 4.049177e+001
5.842828e+002, 4.020327e+001
5.847650e+002, 4.070384e+001
5.852471e+002, 4.153848e+001
5.857292e+002, 4.268948e+001
5.862113e+002, 4.392633e+001
5.866934e+002, 4.468866e+001
5.871755e+002, 4.450335e+001
5.876577e+002, 4.385735e+001
5.881398e+002, 4.398664e+001
5.886219e+002, 4.505883e+001
5.891040e+002, 4.573741e+001
5.895861e+002, 4.549722e+001
5.900682e+002, 4.497718e+001
5.905504e+002, 4.461280e+001
5.910325e+002, 4.443904e+001
5.915146e+002, 4.473417e+001
5.919967e+002, 4.620821e+001
5.924788e+002, 4.765656e+001
5.929609e+002, 4.785917e+001
5.934431e+002, 4.716438e+001
5.939252e+002, 4.661815e+001
5.944073e+002, 4.659577e+001
5.948894e+002, 4.687318e+001
5.953715e+002, 4.713064e+001
5.958536e+002, 4.730503e+001
5.963358e+002, 4.776512e+001
5.968179e+002, 4.882799e+001
5.973000e+002, 4.978106e+001
5.977821e+002, 5.036024e+001
5.982642e+002, 5.068040e+001
5.987463e+002, 5.082134e+001
5.992285e+002, 5.082963e+001
5.997106e+002, 5.100925e+001
6.001927e+002, 5.193902e+001
6.006748e+002, 5.357580e+001
6.011569e+002, 5.457042e+001
6.016390e+002, 5.466117e+001
6.021212e+002, 5.453803e+001
6.026033e+002, 5.449866e+001
6.030854e+002, 5.452062e+001
6.035675e+002, 5.458044e+001
6.040496e+002, 5.468444e+001
6.045317e+002, 5.479942e+001
6.050139e+002, 5.495193e+001
6.054960e+002, 5.508677e+001
6.059781e+002, 5.503866e+001
6.064602e+002, 5.482644e+001
6.069423e+002, 5.478344e+001
6.074244e+002, 5.517623e+001
6.079066e+002, 5.590084e+001
6.083887e+002, 5.649909e+001
6.088708e+002, 5.714632e+001
6.093529e+002, 5.738315e+001
6.098350e+002, 5.675496e+001
6.103171e+002, 5.608173e+001
6.107993e+002, 5.604554e+001
6.112814e+002, 5.652162e+001
6.117635e+002, 5.687008e+001
6.122456e+002, 5.662566e+001
6.127277e+002, 5.610898e+001
6.132098e+002, 5.605291e+001
6.136920e+002, 5.650886e+001
6.141741e+002, 5.678136e+001
6.146562e+002, 5.652333e+001
6.151383e+002, 5.626445e+001
6.156204e+002, 5.674074e+001
6.161025e+002, 5.778892e+001
6.165847e+002, 5.836189e+001
6.170668e+002, 5.757749e+001
6.175489e+002, 5.691787e+001
6.180310e+002, 5.743696e+001
6.185131e+002, 5.875105e+001
6.189952e+002, 6.023577e+001
6.194774e+002, 6.167457e+001
6.199595e+002, 6.270173e+001
6.204416e+002, 6.274001e+001
6.209237e+002, 6.166090e+001
6.214058e+002, 6.157242e+001
6.218879e+002, 6.341119e+001
6.223701e+002, 6.512785e+001
6.228522e+002, 6.645226e+001
6.233343e+002, 6.736366e+001
6.238164e+002, 6.771021e+001
6.242985e+002, 6.751360e+001
6.247806e+002, 6.726653e+001
6.252628e+002, 6.736509e+001
6.257448e+002, 6.771734e+001
6.262269e+002, 6.795670e+001
6.267090e+002, 6.802545e+001
6.271912e+002, 6.874474e+001
6.276733e+002, 7.099484e+001
6.281554e+002, 7.363460e+001
6.286375e+002, 7.416200e+001
6.291196e+002, 7.201949e+001
6.296017e+002, 7.084675e+001
6.300839e+002, 7.181773e+001
6.305660e+002, 7.334772e+001
6.310481e+002, 7.474261e+001
6.315302e+002, 7.576384e+001
6.320123e+002, 7.600560e+001
6.324944e+002, 7.527886e+001
6.329766e+002, 7.413984e+001
6.334587e+002, 7.345443e+001
6.339408e+002, 7.320586e+001
6.344229e+002, 7.354309e+001
6.349050e+002, 7.513513e+001
6.353871e+002, 7.643031e+001
6.358693e+002, 7.651986e+001
6.363514e+002, 7.599026e+001
6.368335e+002, 7.573180e+001
6.373156e+002, 7.598394e+001
6.377977e+002, 7.638322e+001
6.382798e+002, 7.679147e+001
6.387620e+002, 7.713123e+001
6.392441e+002, 7.720245e+001
6.397262e+002, 7.699303e+001
6.402083e+002, 7.677174e+001
6.406904e+002, 7.670060e+001
6.411725e+002, 7.676028e+001
6.416547e+002, 7.688788e+001
6.421368e+002, 7.713139e+001
6.426189e+002, 7.737501e+001
6.431010e+002, 7.769674e+001
6.435831e+002, 7.794881e+001
6.440652e+002, 7.775966e+001
6.445474e+002, 7.743330e+001
6.450295e+002, 7.781435e+001
6.455116e+002, 7.945940e+001
6.459937e+002, 8.145628e+001
6.464758e+002, 8.231717e+001
6.469579e+002, 8.204935e+001
6.474401e+002, 8.140657e+001
6.479222e+002, 8.018402e+001
6.484043e+002, 7.928000e+001
6.488864e+002, 7.970500e+001
6.493685e+002, 8.101100e+001
6.498506e+002, 8.177211e+001
6.503328e+002, 8.154247e+001
6.508149e+002, 8.128398e+001
6.512970e+002, 8.133595e+001
6.517791e+002, 8.158204e+001
6.522612e+002, 8.196138e+001
6.527433e+002, 8.241721e+001
6.532255e+002, 8.278387e+001
6.537076e+002, 8.293351e+001
6.541897e+002, 8.290974e+001
6.546718e+002, 8.282348e+001
6.551539e+002, 8.247820e+001
6.556360e+002, 8.254890e+001
6.561182e+002, 8.360124e+001
6.566003e+002, 8.469315e+001
6.570824e+002, 8.539826e+001
6.575645e+002, 8.571640e+001
6.580466e+002, 8.570824e+001
6.585287e+002, 8.522677e+001
6.590109e+002, 8.470119e+001
6.594930e+002, 8.454559e+001
6.599751e+002, 8.466991e+001
6.604572e+002, 8.491254e+001
6.609393e+002, 8.524905e+001
6.614214e+002, 8.528622e+001
6.619036e+002, 8.446008e+001
6.623857e+002, 8.297012e+001
6.628678e+002, 8.297710e+001
6.633499e+002, 8.698269e+001
6.638320e+002, 8.916312e+001
6.643141e+002, 8.728823e+001
6.647963e+002, 8.474162e+001
6.652784e+002, 8.440035e+001
6.657605e+002, 8.603132e+001
6.662426e+002, 8.749852e+001
6.667247e+002, 8.745911e+001
6.672068e+002, 8.655592e+001
6.676890e+002, 8.572736e+001
6.681711e+002, 8.498846e+001
6.686532e+002, 8.498296e+001
6.691353e+002, 8.610378e+001
6.696174e+002, 8.738307e+001
6.700995e+002, 8.779644e+001
6.705817e+002, 8.746389e+001
6.710638e+002, 8.764234e+001
6.715459e+002, 8.900552e+001
6.720280e+002, 9.007422e+001
6.725101e+002, 9.036238e+001
6.729922e+002, 9.012433e+001
6.734744e+002, 8.945901e+001
6.739565e+002, 8.850828e+001
6.744386e+002, 8.767262e+001
6.749207e+002, 8.729194e+001
6.754028e+002, 8.718656e+001
6.758849e+002, 8.668828e+001
6.763671e+002, 8.563266e+001
6.768492e+002, 8.491348e+001
6.773313e+002, 8.474329e+001
6.778134e+002, 8.492821e+001
6.782955e+002, 8.556200e+001
6.787776e+002, 8.644165e+001
6.792598e+002, 8.679740e+001
6.797419e+002, 8.591540e+001
6.802240e+002, 8.516061e+001
6.807061e+002, 8.550220e+001
6.811882e+002, 8.642604e+001
6.816703e+002, 8.724812e+001
6.821525e+002, 8.779428e+001
6.826346e+002, 8.796392e+001
6.831167e+002, 8.761253e+001
6.835988e+002, 8.688832e+001
6.840809e+002, 8.656167e+001
6.845630e+002, 8.694972e+001
6.850452e+002, 8.704249e+001
6.855273e+002, 8.598557e+001
6.860094e+002, 8.523766e+001
6.864915e+002, 8.600854e+001
6.869736e+002, 8.781697e+001
6.874557e+002, 8.918263e+001
6.879379e+002, 8.955413e+001
6.884200e+002, 8.929552e+001
6.889021e+002, 8.835707e+001
6.893842e+002, 8.709241e+001
6.898663e+002, 8.638345e+001
6.903484e+002, 8.637836e+001
6.908306e+002, 8.658776e+001
6.913127e+002, 8.664999e+001
6.917948e+002, 8.658913e+001
6.922769e+002, 8.652467e+001
6.927590e+002, 8.642582e+001
6.932411e+002, 8.637601e+001
6.937233e+002, 8.626839e+001
6.942054e+002, 8.630861e+001
6.946875e+002, 8.692747e+001
6.951696e+002, 8.778286e+001
6.956517e+002, 8.790206e+001
6.961339e+002, 8.658578e+001
6.966160e+002, 8.525441e+001
6.970981e+002, 8.582761e+001
6.975802e+002, 8.772997e+001
6.980623e+002, 8.892887e+001
6.985444e+002, 8.909571e+001
6.990266e+002, 8.881717e+001
6.995087e+002, 8.839518e+001
6.999908e+002, 8.790816e+001
7.004729e+002, 8.766505e+001
7.009550e+002, 8.787056e+001
7.014371e+002, 8.801199e+001
7.019193e+002, 8.812943e+001
7.024014e+002, 8.813753e+001
7.028835e+002, 8.790434e+001
7.033656e+002, 8.753328e+001
7.038477e+002, 8.723738e+001
7.043298e+002, 8.711229e+001
7.048120e+002, 8.706459e+001
7.052941e+002, 8.709657e+001
7.057762e+002, 8.713477e+001
7.062583e+002, 8.673683e+001
7.067404e+002, 8.580132e+001
7.072225e+002, 8.484133e+001
7.077046e+002, 8.407577e+001
7.081867e+002, 8.354053e+001
7.086688e+002, 8.338987e+001
7.091509e+002, 8.392074e+001
7.096331e+002, 8.405654e+001
7.101152e+002, 8.335242e+001
7.105973e+002, 8.259764e+001
7.110794e+002, 8.231483e+001
7.115615e+002, 8.230164e+001
7.120436e+002, 8.213994e+001
7.125258e+002, 8.167754e+001
7.130079e+002, 8.111014e+001
7.134900e+002, 8.062510e+001
7.139721e+002, 8.022410e+001
7.144542e+002, 8.003152e+001
7.149363e+002, 8.015984e+001
7.154185e+002, 7.976030e+001
7.159006e+002, 7.817844e+001
7.163827e+002, 7.613733e+001
7.168648e+002, 7.488789e+001
7.173469e+002, 7.455247e+001
7.178290e+002, 7.417847e+001
7.183112e+002, 7.357173e+001
7.187933e+002, 7.303694e+001
7.192754e+002, 7.302400e+001
7.197575e+002, 7.305540e+001
7.202396e+002, 7.216617e+001
7.207217e+002, 7.025829e+001
7.212039e+002, 6.861613e+001
7.216860e+002, 6.871365e+001
7.221681e+002, 7.004474e+001
7.226502e+002, 7.058147e+001
7.231323e+002, 7.024181e+001
7.236144e+002, 6.984855e+001
7.240966e+002, 6.977749e+001
7.245787e+002, 6.958049e+001
7.250608e+002, 6.860143e+001
7.255429e+002, 6.685295e+001
7.260250e+002, 6.541441e+001
7.265071e+002, 6.419936e+001
7.269893e+002, 6.346671e+001
7.274714e+002, 6.389971e+001
7.279535e+002, 6.451448e+001
7.284356e+002, 6.391342e+001
7.289177e+002, 6.218395e+001
7.293998e+002, 6.087785e+001
7.298820e+002, 6.137185e+001
7.303641e+002, 6.258657e+001
7.308462e+002, 6.172972e+001
7.313283e+002, 5.870739e+001
7.318104e+002, 5.632111e+001
7.322925e+002, 5.508147e+001
7.327747e+002, 5.466664e+001
7.332568e+002, 5.519104e+001
7.337389e+002, 5.638437e+001
7.342210e+002, 5.681873e+001
7.347031e+002, 5.607644e+001
7.351852e+002, 5.522686e+001
7.356674e+002, 5.437480e+001
7.361495e+002, 5.358262e+001
7.366316e+002, 5.274667e+001
7.371137e+002, 5.201586e+001
7.375958e+002, 5.184987e+001
7.380779e+002, 5.252479e+001
7.385601e+002, 5.337034e+001
7.390422e+002, 5.329907e+001
7.395243e+002, 5.241853e+001
7.400064e+002, 5.172753e+001
7.404885e+002, 5.128863e+001
7.409706e+002, 5.115249e+001
7.414528e+002, 5.152954e+001
7.419349e+002, 5.210092e+001
7.424170e+002, 5.207865e+001
7.428991e+002, 5.119466e+001
7.433812e+002, 5.069614e+001
7.438633e+002, 5.081010e+001
7.443455e+002, 5.120023e+001
7.448276e+002, 5.208398e+001
7.453097e+002, 5.297617e+001
7.457918e+002, 5.299477e+001
7.462739e+002, 5.197572e+001
7.467560e+002, 5.093309e+001
7.472382e+002, 5.105548e+001
7.477203e+002, 5.188389e+001
7.482024e+002, 5.184316e+001
7.486845e+002, 5.090344e+001
7.491666e+002, 5.039285e+001
7.496487e+002, 5.085151e+001
7.501309e+002, 5.166746e+001
7.506130e+002, 5.215699e+001
7.510951e+002, 5.229804e+001
7.515772e+002, 5.244059e+001
7.520593e+002, 5.276432e+001
7.525414e+002, 5.285607e+001
7.530236e+002, 5.223295e+001
7.535057e+002, 5.162190e+001
7.539878e+002, 5.191826e+001
7.544699e+002, 5.292310e+001
7.549520e+002, 5.353912e+001
7.554341e+002, 5.302253e+001
7.559163e+002, 5.208833e+001
7.563984e+002, 5.175674e+001
7.568805e+002, 5.188780e+001
7.573626e+002, 5.184986e+001
7.578447e+002, 5.152879e+001
7.583268e+002, 5.127777e+001
7.588090e+002, 5.146191e+001
7.592911e+002, 5.179188e+001
7.597732e+002, 5.127154e+001
7.602553e+002, 4.919148e+001
7.607374e+002, 4.754362e+001
7.612195e+002, 4.642126e+001
7.617017e+002, 4.560638e+001
7.621838e+002, 4.518858e+001
7.626659e+002, 4.494253e+001
7.631480e+002, 4.448679e+001
7.636301e+002, 4.370655e+001
7.641122e+002, 4.301222e+001
7.645944e+002, 4.281226e+001
7.650765e+002, 4.283532e+001
7.655586e+002, 4.275666e+001
7.660407e+002, 4.252080e+001
7.665228e+002, 4.184966e+001
7.670049e+002, 4.059917e+001
7.674871e+002, 3.932391e+001
7.679692e+002, 3.879178e+001
7.684513e+002, 3.903397e+001
7.689334e+002, 3.913361e+001
7.694155e+002, 3.906271e+001
7.698976e+002, 3.888987e+001
7.703798e+002, 3.865325e+001
7.708619e+002, 3.830662e+001
7.713440e+002, 3.775015e+001
7.718261e+002, 3.703106e+001
7.723082e+002, 3.638273e+001
7.727903e+002, 3.593339e+001
7.732725e+002, 3.551569e+001
7.737546e+002, 3.494205e+001
7.742367e+002, 3.435902e+001
7.747188e+002, 3.397474e+001
7.752009e+002, 3.382376e+001
7.756830e+002, 3.392347e+001
7.761652e+002, 3.432253e+001
7.766473e+002, 3.480176e+001
7.771294e+002, 3.481766e+001
7.776115e+002, 3.430890e+001
7.780936e+002, 3.370481e+001
7.785757e+002, 3.282248e+001
7.790579e+002, 3.223766e+001
7.795400e+002, 3.248415e+001
7.800221e+002, 3.313597e+001
7.805042e+002, 3.353799e+001
7.809863e+002, 3.370155e+001
7.814684e+002, 3.348121e+001
7.819506e+002, 3.226785e+001
7.824327e+002, 3.123461e+001
7.829148e+002, 3.143758e+001
7.833969e+002, 3.223167e+001
7.838790e+002, 3.246101e+001
7.843611e+002, 3.186046e+001
7.848433e+002, 3.108234e+001
7.853254e+002, 3.070148e+001
7.858075e+002, 3.061660e+001
7.862896e+002, 3.060469e+001
7.867717e+002, 3.066997e+001
7.872538e+002, 3.044893e+001
7.877360e+002, 2.972979e+001
7.882181e+002, 2.908032e+001
7.887002e+002, 2.909983e+001
7.891823e+002, 2.968525e+001
7.896644e+002, 2.995852e+001
7.901465e+002, 2.966114e+001
7.906286e+002, 2.943996e+001
7.911107e+002, 2.936027e+001
7.915928e+002, 2.935403e+001
7.920750e+002, 2.945838e+001
7.925571e+002, 2.958442e+001
7.930392e+002, 2.954287e+001
7.935213e+002, 2.924910e+001
7.940034e+002, 2.892772e+001
7.944855e+002, 2.865833e+001
7.949677e+002, 2.854323e+001
7.954498e+002, 2.900327e+001
7.959319e+002, 2.991392e+001
7.964140e+002, 3.027746e+001
7.968961e+002, 2.964776e+001
7.973782e+002, 2.867361e+001
7.978604e+002, 2.825109e+001
7.983425e+002, 2.840385e+001
7.988246e+002, 2.847828e+001
7.993067e+002, 2.828033e+001
7.997888e+002, 2.835545e+001
8.002709e+002, 2.947612e+001
8.007531e+002, 3.041099e+001
8.012352e+002, 3.000940e+001
8.017173e+002, 2.851732e+001
8.021994e+002, 2.724431e+001
8.026815e+002, 2.645472e+001
8.031636e+002, 2.606517e+001
8.036458e+002, 2.622240e+001
8.041279e+002, 2.664675e+001
8.046100e+002, 2.717163e+001
8.050921e+002, 2.765375e+001
8.055742e+002, 2.778625e+001
8.060563e+002, 2.739390e+001
8.065385e+002, 2.666403e+001
8.070206e+002, 2.579647e+001
8.075027e+002, 2.481433e+001
8.079848e+002, 2.402250e+001
8.084669e+002, 2.339108e+001
8.089490e+002, 2.319709e+001
8.094312e+002, 2.372993e+001
8.099133e+002, 2.453974e+001
8.103954e+002, 2.497197e+001
8.108775e+002, 2.497860e+001
8.113596e+002, 2.487685e+001
8.118417e+002, 2.452051e+001
8.123239e+002, 2.424401e+001
8.128060e+002, 2.432178e+001
8.132881e+002, 2.438868e+001
8.137702e+002, 2.386559e+001
8.142523e+002, 2.294586e+001
8.147344e+002, 2.258352e+001
8.152166e+002, 2.344877e+001
8.156987e+002, 2.463321e+001
8.161808e+002, 2.525086e+001
8.166629e+002, 2.545248e+001
8.171450e+002, 2.553705e+001
8.176271e+002, 2.555044e+001
8.181093e+002, 2.549072e+001
8.185914e+002, 2.535563e+001
8.190735e+002, 2.515108e+001
8.195556e+002, 2.485397e+001
8.200377e+002, 2.441459e+001
8.205198e+002, 2.421884e+001
8.210020e+002, 2.443432e+001
8.214841e+002, 2.456667e+001
8.219662e+002, 2.416416e+001
8.224483e+002, 2.378099e+001
8.229304e+002, 2.416167e+001
8.234125e+002, 2.527721e+001
8.238947e+002, 2.610656e+001
8.243768e+002, 2.656904e+001
8.248589e+002, 2.655995e+001
8.253410e+002, 2.557115e+001
8.258231e+002, 2.438937e+001
8.263052e+002, 2.396385e+001
8.267874e+002, 2.423888e+001
8.272695e+002, 2.450506e+001
8.277516e+002, 2.435048e+001
8.282337e+002, 2.408918e+001
8.287158e+002, 2.432061e+001
8.291979e+002, 2.484572e+001
8.296801e+002, 2.473220e+001
8.301622e+002, 2.389685e+001
8.306443e+002, 2.301529e+001
8.311264e+002, 2.236203e+001
8.316085e+002, 2.204277e+001
8.320906e+002, 2.235630e+001
8.325728e+002, 2.351635e+001
8.330549e+002, 2.370355e+001
8.335370e+002, 2.162367e+001
8.340191e+002, 2.044888e+001
8.345012e+002, 2.171283e+001
8.349833e+002, 2.344407e+001
8.354655e+002, 2.402382e+001
8.359476e+002, 2.356466e+001
8.364297e+002, 2.313870e+001
8.369118e+002, 2.316237e+001
8.373939e+002, 2.313176e+001
8.378760e+002, 2.246568e+001
8.383582e+002, 2.180078e+001
8.388403e+002, 2.209347e+001
8.393224e+002, 2.310607e+001
8.398045e+002, 2.385101e+001
8.402866e+002, 2.386221e+001
8.407687e+002, 2.347856e+001
8.412509e+002, 2.306032e+001
8.417330e+002, 2.263386e+001
8.422151e+002, 2.236250e+001
8.426972e+002, 2.225372e+001
8.431793e+002, 2.227008e+001
8.436614e+002, 2.245951e+001
8.441436e+002, 2.258980e+001
8.446257e+002, 2.233937e+001
8.451078e+002, 2.172220e+001
8.455899e+002, 2.137518e+001
8.460720e+002, 2.124889e+001
8.465541e+002, 2.148409e+001
8.470363e+002, 2.283401e+001
8.475184e+002, 2.383808e+001
8.480005e+002, 2.310560e+001
8.484826e+002, 2.140779e+001
8.489647e+002, 2.057024e+001
8.494468e+002, 2.118383e+001
8.499290e+002, 2.209525e+001
8.504111e+002, 2.309224e+001
8.508932e+002, 2.375759e+001
8.513753e+002, 2.331788e+001
8.518574e+002, 2.226495e+001
8.523395e+002, 2.185516e+001
8.528217e+002, 2.241305e+001
8.533038e+002, 2.304638e+001
8.537859e+002, 2.277842e+001
8.542680e+002, 2.200221e+001
8.547501e+002, 2.209597e+001
8.552322e+002, 2.305858e+001
8.557144e+002, 2.357446e+001
8.561965e+002, 2.329492e+001
8.566786e+002, 2.291973e+001
8.571607e+002, 2.298698e+001
8.576428e+002, 2.334299e+001
8.581249e+002, 2.351099e+001
8.586071e+002, 2.358867e+001
8.590892e+002, 2.325502e+001
8.595713e+002, 2.182121e+001
8.600534e+002, 2.079091e+001
8.605355e+002, 2.099908e+001
8.610176e+002, 2.172306e+001
8.614998e+002, 2.203603e+001
8.619819e+002, 2.185782e+001
8.624640e+002, 2.187662e+001
8.629461e+002, 2.276705e+001
8.634282e+002, 2.351913e+001
8.639103e+002, 2.326595e+001
8.643925e+002, 2.253835e+001
8.648746e+002, 2.208036e+001
8.653567e+002, 2.194057e+001
8.658388e+002, 2.174951e+001
8.663209e+002, 2.127870e+001
8.668030e+002, 2.075822e+001
8.672852e+002, 2.046786e+001
8.677673e+002, 2.042906e+001
8.682494e+002, 2.094271e+001
8.687315e+002, 2.205290e+001
8.692136e+002, 2.266621e+001
8.696957e+002, 2.221776e+001
8.701779e+002, 2.148510e+001
8.706600e+002, 2.156971e+001
8.711421e+002, 2.248316e+001
8.716242e+002, 2.281161e+001
8.721063e+002, 2.217740e+001
8.725884e+002, 2.162281e+001
8.730705e+002, 2.121145e+001
8.735526e+002, 2.103061e+001
8.740347e+002, 2.135632e+001
8.745168e+002, 2.192866e+001
8.749990e+002, 2.207269e+001
8.754811e+002, 2.148347e+001
8.759632e+002, 2.106969e+001
8.764453e+002, 2.132956e+001
8.769274e+002, 2.170388e+001
8.774095e+002, 2.180841e+001
8.778917e+002, 2.172246e+001
8.783738e+002, 2.158009e+001
8.788559e+002, 2.144023e+001
8.793380e+002, 2.140171e+001
8.798201e+002, 2.159562e+001
8.803022e+002, 2.187161e+001
8.807844e+002, 2.202280e+001
8.812665e+002, 2.204428e+001
8.817486e+002, 2.187254e+001
8.822307e+002, 2.151068e+001
8.827128e+002, 2.116160e+001
8.831949e+002, 2.095656e+001
8.836771e+002, 2.083426e+001
8.841592e+002, 2.068042e+001
8.846413e+002, 2.050055e+001
8.851234e+002, 2.020410e+001
8.856055e+002, 1.963017e+001
8.860876e+002, 1.934893e+001
8.865698e+002, 1.968524e+001
8.870519e+002, 2.026696e+001
8.875340e+002, 2.072742e+001
8.880161e+002, 2.106760e+001
8.884982e+002, 2.133185e+001
8.889803e+002, 2.170994e+001
8.894625e+002, 2.174603e+001
8.899446e+002, 2.089964e+001
8.904267e+002, 2.012219e+001
8.909088e+002, 2.010082e+001
8.913909e+002, 2.063821e+001
8.918730e+002, 2.138923e+001
8.923552e+002, 2.228867e+001
8.928373e+002, 2.278711e+001
8.933194e+002, 2.214721e+001
8.938015e+002, 2.125762e+001
8.942836e+002, 2.114681e+001
8.947657e+002, 2.150451e+001
8.952479e+002, 2.163017e+001
8.957300e+002, 2.139007e+001
8.962121e+002, 2.107222e+001
8.966942e+002, 2.087629e+001
8.971763e+002, 2.078519e+001
8.976584e+002, 2.091967e+001
8.981406e+002, 2.120724e+001
8.986227e+002, 2.071148e+001
8.991048e+002, 1.925048e+001
8.995869e+002, 1.829718e+001
9.000690e+002, 1.865528e+001
9.005511e+002, 1.956312e+001
9.010333e+002, 1.990669e+001
9.015154e+002, 1.966226e+001
9.019975e+002, 1.936271e+001
9.024796e+002, 1.883544e+001
9.029617e+002, 1.857301e+001
9.034438e+002, 1.876695e+001
9.039260e+002, 1.916032e+001
9.044081e+002, 1.977069e+001
9.048902e+002, 2.042255e+001
9.053723e+002, 2.059356e+001
9.058544e+002, 1.995145e+001
9.063365e+002, 1.962271e+001
9.068187e+002, 2.025260e+001
9.073008e+002, 2.087838e+001
9.077829e+002, 2.083189e+001
9.082650e+002, 2.046907e+001
9.087471e+002, 2.030845e+001
9.092292e+002, 2.042604e+001
9.097114e+002, 2.058718e+001
9.101935e+002, 2.074400e+001
9.106756e+002, 2.074225e+001
9.111577e+002, 2.019374e+001
9.116398e+002, 1.946903e+001
9.121219e+002, 1.930266e+001
9.126041e+002, 1.968336e+001
9.130862e+002, 2.017006e+001
9.135683e+002, 2.055457e+001
9.140504e+002, 2.085868e+001
9.145325e+002, 2.113699e+001
9.150146e+002, 2.136309e+001
9.154968e+002, 2.136975e+001
9.159789e+002, 2.115104e+001
9.164610e+002, 2.086329e+001
9.169431e+002, 2.052009e+001
9.174252e+002, 2.023080e+001
9.179073e+002, 2.010385e+001
9.183895e+002, 2.008338e+001
9.188716e+002, 1.995721e+001
9.193537e+002, 1.965230e+001
9.198358e+002, 1.941833e+001
9.203179e+002, 1.918108e+001
9.208000e+002, 1.912364e+001
9.212822e+002, 1.955738e+001
9.217643e+002, 2.005256e+001
9.222464e+002, 2.014536e+001
9.227285e+002, 1.983667e+001
9.232106e+002, 1.937309e+001
9.236927e+002, 1.856482e+001
9.241749e+002, 1.790818e+001
9.246570e+002, 1.734684e+001
9.251391e+002, 1.716562e+001
9.256212e+002, 1.796132e+001
9.261033e+002, 1.921486e+001
9.265854e+002, 1.977848e+001
9.270676e+002, 1.929732e+001
9.275497e+002, 1.885298e+001
9.280318e+002, 1.934796e+001
9.285139e+002, 2.005308e+001
9.289960e+002, 2.020603e+001
9.294781e+002, 2.002267e+001
9.299603e+002, 1.991377e+001
9.304424e+002, 1.996558e+001
9.309245e+002, 2.015710e+001
9.314066e+002, 2.051210e+001
9.318887e+002, 2.078368e+001
9.323708e+002, 2.040457e+001
9.328530e+002, 1.959545e+001
9.333351e+002, 1.937270e+001
9.338172e+002, 1.974970e+001
9.342993e+002, 1.996154e+001
9.347814e+002, 1.971215e+001
9.352635e+002, 1.934682e+001
9.357457e+002, 1.926348e+001
9.362278e+002, 1.938029e+001
9.367099e+002, 1.914312e+001
9.371920e+002, 1.837926e+001
9.376741e+002, 1.805661e+001
9.381563e+002, 1.847614e+001
9.386384e+002, 1.893448e+001
9.391205e+002, 1.916321e+001
9.396026e+002, 1.909623e+001
9.400847e+002, 1.849460e+001
9.405668e+002, 1.716026e+001
9.410490e+002, 1.647072e+001
9.415311e+002, 1.684086e+001
9.420132e+002, 1.725915e+001
9.424953e+002, 1.770754e+001
9.429774e+002, 1.798712e+001
9.434595e+002, 1.780149e+001
9.439417e+002, 1.735290e+001
9.444238e+002, 1.718573e+001
9.449059e+002, 1.749083e+001
9.453880e+002, 1.774704e+001
9.458701e+002, 1.766798e+001
9.463522e+002, 1.758908e+001
9.468344e+002, 1.781820e+001
9.473165e+002, 1.813631e+001
9.477986e+002, 1.817571e+001
9.482807e+002, 1.795332e+001
9.487628e+002, 1.787627e+001
9.492449e+002, 1.827777e+001
9.497271e+002, 1.859645e+001
9.502092e+002, 1.810877e+001
9.506913e+002, 1.730018e+001
9.511734e+002, 1.685977e+001
9.516555e+002, 1.680326e+001
9.521376e+002, 1.698204e+001
9.526198e+002, 1.733218e+001
9.531019e+002, 1.779946e+001
9.535840e+002, 1.842073e+001
9.540661e+002, 1.901404e+001
9.545482e+002, 1.905141e+001
9.550303e+002, 1.862026e+001
9.555124e+002, 1.825911e+001
9.559945e+002, 1.804385e+001
9.564766e+002, 1.805761e+001
9.569587e+002, 1.838268e+001
9.574409e+002, 1.874453e+001
9.579230e+002, 1.866597e+001
9.584051e+002, 1.815738e+001
9.588872e+002, 1.786924e+001
9.593693e+002, 1.785228e+001
9.598514e+002, 1.781615e+001
9.603336e+002, 1.763338e+001
9.608157e+002, 1.757916e+001
9.612978e+002, 1.793777e+001
9.617799e+002, 1.853128e+001
9.622620e+002, 1.886300e+001
9.627441e+002, 1.889206e+001
9.632263e+002, 1.878308e+001
9.637084e+002, 1.840382e+001
9.641905e+002, 1.806629e+001
9.646726e+002, 1.781626e+001
9.651547e+002, 1.767047e+001
9.656368e+002, 1.775877e+001
9.661190e+002, 1.798541e+001
9.666011e+002, 1.788875e+001
9.670832e+002, 1.699869e+001
9.675653e+002, 1.662563e+001
9.680474e+002, 1.755808e+001
9.685295e+002, 1.852989e+001
9.690117e+002, 1.891957e+001
9.694938e+002, 1.884968e+001
9.699759e+002, 1.835295e+001
9.704580e+002, 1.755048e+001
9.709401e+002, 1.704020e+001
9.714222e+002, 1.713992e+001
9.719044e+002, 1.751056e+001
9.723865e+002, 1.842500e+001
9.728686e+002, 1.912214e+001
9.733507e+002, 1.833442e+001
9.738328e+002, 1.674324e+001
9.743149e+002, 1.605502e+001
9.747971e+002, 1.672383e+001
9.752792e+002, 1.764728e+001
9.757613e+002, 1.812385e+001
9.762434e+002, 1.819043e+001
9.767255e+002, 1.758745e+001
9.772076e+002, 1.671367e+001
9.776898e+002, 1.651898e+001
9.781719e+002, 1.698544e+001
9.786540e+002, 1.737926e+001
9.791361e+002, 1.735354e+001
9.796182e+002, 1.725384e+001
9.801003e+002, 1.762895e+001
9.805825e+002, 1.823519e+001
9.810646e+002, 1.799352e+001
9.815467e+002, 1.707954e+001
9.820288e+002, 1.713140e+001
9.825109e+002, 1.846819e+001
9.829930e+002, 1.958795e+001
9.834752e+002, 1.947497e+001
9.839573e+002, 1.873485e+001
9.844394e+002, 1.853695e+001
9.849215e+002, 1.888660e+001
9.854036e+002, 1.898519e+001
9.858857e+002, 1.878872e+001
9.863679e+002, 1.860404e+001
9.868500e+002, 1.852556e+001
9.873321e+002, 1.842398e+001
9.878142e+002, 1.817267e+001
9.882963e+002, 1.783711e+001
9.887784e+002, 1.761171e+001
9.892606e+002, 1.747264e+001
9.897427e+002, 1.754681e+001
9.902248e+002, 1.796505e+001
9.907069e+002, 1.834880e+001
9.911890e+002, 1.862312e+001
9.916711e+002, 1.876995e+001
9.921533e+002, 1.873199e+001
9.926354e+002, 1.854166e+001
9.931175e+002, 1.839337e+001
9.935996e+002, 1.835383e+001
9.940817e+002, 1.823701e+001
9.945638e+002, 1.787619e+001
9.950460e+002, 1.763336e+001
9.955281e+002, 1.781557e+001
9.960102e+002, 1.806935e+001
9.964923e+002, 1.797909e+001
9.969744e+002, 1.757418e+001
9.974565e+002, 1.721282e+001
9.979387e+002, 1.670836e+001
9.984208e+002, 1.667666e+001
9.989029e+002, 1.788186e+001
9.993850e+002, 1.896884e+001
9.998671e+002, 1.896788e+001
1.000349e+003, 1.836597e+001
1.000831e+003, 1.779398e+001
1.001313e+003, 1.738791e+001
1.001796e+003, 1.723876e+001
1.002278e+003, 1.745532e+001
1.002760e+003, 1.783113e+001
1.003242e+003, 1.841177e+001
1.003724e+003, 1.896230e+001
1.004206e+003, 1.937848e+001
1.004688e+003, 1.955494e+001
1.005170e+003, 1.920539e+001
1.005653e+003, 1.833619e+001
1.006135e+003, 1.763453e+001
1.006617e+003, 1.757236e+001
1.007099e+003, 1.780204e+001
1.007581e+003, 1.824155e+001
1.008063e+003, 1.861515e+001
1.008545e+003, 1.833545e+001
1.009027e+003, 1.764084e+001
1.009509e+003, 1.734117e+001
1.009992e+003, 1.769864e+001
1.010474e+003, 1.819758e+001
1.010956e+003, 1.846379e+001
1.011438e+003, 1.852142e+001
1.011920e+003, 1.831021e+001
1.012402e+003, 1.794525e+001
1.012884e+003, 1.766531e+001
1.013366e+003, 1.750653e+001
1.013849e+003, 1.747326e+001
1.014331e+003, 1.756442e+001
1.014813e+003, 1.769608e+001
1.015295e+003, 1.778779e+001
1.015777e+003, 1.783954e+001
1.016259e+003, 1.781269e+001
1.016741e+003, 1.774002e+001
1.017223e+003, 1.785306e+001
1.017705e+003, 1.815018e+001
1.018188e+003, 1.819262e+001
1.018670e+003, 1.774133e+001
1.019152e+003, 1.716379e+001
1.019634e+003, 1.693654e+001
1.020116e+003, 1.702991e+001
1.020598e+003, 1.737690e+001
1.021080e+003, 1.796165e+001
1.021562e+003, 1.840779e+001
1.022044e+003, 1.865353e+001
1.022527e+003, 1.866281e+001
1.023009e+003, 1.838264e+001
1.023491e+003, 1.801789e+001
1.023973e+003, 1.793272e+001
1.024455e+003, 1.809670e+001
1.024937e+003, 1.795011e+001
1.025419e+003, 1.743596e+001
1.025901e+003, 1.710609e+001
1.026384e+003, 1.707885e+001
1.026866e+003, 1.718595e+001
1.027348e+003, 1.736798e+001
1.027830e+003, 1.752522e+001
1.028312e+003, 1.748487e+001
1.028794e+003, 1.724719e+001
1.029276e+003, 1.668113e+001
1.029758e+003, 1.548527e+001
1.030240e+003, 1.510966e+001
1.030723e+003, 1.619961e+001
1.031205e+003, 1.725935e+001
1.031687e+003, 1.723020e+001
1.032169e+003, 1.662475e+001
1.032651e+003, 1.648990e+001
1.033133e+003, 1.689152e+001
1.033615e+003, 1.721084e+001
1.034097e+003, 1.743148e+001
1.034579e+003, 1.761486e+001
1.035062e+003, 1.786015e+001
1.035544e+003, 1.792713e+001
1.036026e+003, 1.752121e+001
1.036508e+003, 1.690663e+001
1.036990e+003, 1.661186e+001
1.037472e+003, 1.663216e+001
1.037954e+003, 1.701417e+001
1.038436e+003, 1.822504e+001
1.038919e+003, 1.904165e+001
1.039401e+003, 1.914187e+001
1.039883e+003, 1.891043e+001
1.040365e+003, 1.851568e+001
1.040847e+003, 1.798341e+001
1.041329e+003, 1.720820e+001
1.041811e+003, 1.593820e+001
1.042293e+003, 1.574421e+001
1.042776e+003, 1.786254e+001
1.043258e+003, 1.935997e+001
1.043740e+003, 1.946750e+001
1.044222e+003, 1.902626e+001
1.044704e+003, 1.832814e+001
1.045186e+003, 1.754832e+001
1.045668e+003, 1.699595e+001
1.046150e+003, 1.671107e+001
1.046632e+003, 1.651911e+001
1.047115e+003, 1.623717e+001
1.047597e+003, 1.627303e+001
1.048079e+003, 1.725953e+001
1.048561e+003, 1.807479e+001
1.049043e+003, 1.772896e+001
1.049525e+003, 1.674386e+001
1.050007e+003, 1.612121e+001
1.050489e+003, 1.599518e+001
1.050971e+003, 1.597651e+001
1.051454e+003, 1.598563e+001
1.051936e+003, 1.610048e+001
1.052418e+003, 1.658447e+001
1.052900e+003, 1.694996e+001
1.053382e+003, 1.661970e+001
1.053864e+003, 1.600560e+001
1.054346e+003, 1.589498e+001
1.054828e+003, 1.640789e+001
1.055311e+003, 1.699349e+001
1.055793e+003, 1.788944e+001
1.056275e+003, 1.831700e+001
1.056757e+003, 1.753983e+001
1.057239e+003, 1.665388e+001
1.057721e+003, 1.651808e+001
1.058203e+003, 1.684529e+001
1.058685e+003, 1.712022e+001
1.059167e+003, 1.725142e+001
1.059650e+003, 1.713951e+001
1.060132e+003, 1.630661e+001
1.060614e+003, 1.582635e+001
1.061096e+003, 1.654491e+001
1.061578e+003, 1.733825e+001
1.062060e+003, 1.725278e+001
1.062542e+003, 1.668601e+001
1.063024e+003, 1.631825e+001
1.063506e+003, 1.627193e+001
1.063989e+003, 1.645711e+001
1.064471e+003, 1.725337e+001
1.064953e+003, 1.769013e+001
1.065435e+003, 1.699898e+001
1.065917e+003, 1.616317e+001
1.066399e+003, 1.588157e+001
1.066881e+003, 1.599168e+001
1.067363e+003, 1.624204e+001
1.067846e+003, 1.655363e+001
1.068328e+003, 1.676488e+001
1.068810e+003, 1.684175e+001
1.069292e+003, 1.676194e+001
1.069774e+003, 1.638980e+001
1.070256e+003, 1.598496e+001
1.070738e+003, 1.555275e+001
1.071220e+003, 1.531936e+001
1.071703e+003, 1.575267e+001
1.072185e+003, 1.675468e+001
1.072667e+003, 1.745563e+001
1.073149e+003, 1.741824e+001
1.073631e+003, 1.731076e+001
1.074113e+003, 1.744795e+001
1.074595e+003, 1.762214e+001
1.075077e+003, 1.767977e+001
1.075559e+003, 1.768407e+001
1.076042e+003, 1.779506e+001
1.076524e+003, 1.796115e+001
1.077006e+003, 1.788905e+001
1.077488e+003, 1.743160e+001
1.077970e+003, 1.688171e+001
1.078452e+003, 1.609579e+001
1.078934e+003, 1.556812e+001
1.079416e+003, 1.583385e+001
1.079898e+003, 1.640403e+001
1.080380e+003, 1.670916e+001
1.080863e+003, 1.674827e+001
1.081345e+003, 1.679786e+001
1.081827e+003, 1.695257e+001
1.082309e+003, 1.706897e+001
1.082791e+003, 1.723767e+001
1.083273e+003, 1.716896e+001
1.083755e+003, 1.658925e+001
1.084237e+003, 1.575386e+001
1.084720e+003, 1.464028e+001
1.085202e+003, 1.356606e+001
1.085684e+003, 1.333431e+001
1.086166e+003, 1.424657e+001
1.086648e+003, 1.507175e+001
1.087130e+003, 1.536540e+001
1.087612e+003, 1.534735e+001
1.088094e+003, 1.469853e+001
1.088577e+003, 1.416814e+001
1.089059e+003, 1.461806e+001
1.089541e+003, 1.568494e+001
1.090023e+003, 1.657086e+001
1.090505e+003, 1.711677e+001
1.090987e+003, 1.737832e+001
1.091469e+003, 1.719783e+001
1.091951e+003, 1.697978e+001
1.092433e+003, 1.686092e+001
1.092916e+003, 1.680667e+001
1.093398e+003, 1.687561e+001
1.093880e+003, 1.694960e+001
1.094362e+003, 1.676668e+001
1.094844e+003, 1.632579e+001
1.095326e+003, 1.610141e+001
1.095808e+003, 1.651057e+001
1.096290e+003, 1.676209e+001
1.096772e+003, 1.637992e+001
1.097255e+003, 1.599393e+001
1.097737e+003, 1.596724e+001
1.098219e+003, 1.620320e+001
1.098701e+003, 1.679121e+001
1.099183e+003, 1.756443e+001
1.099665e+003, 1.754903e+001
1.100147e+003, 1.585532e+001
1.100629e+003, 1.475861e+001
1.101112e+003, 1.538192e+001
1.101594e+003, 1.609960e+001
1.102076e+003, 1.602307e+001
1.102558e+003, 1.570588e+001
1.103040e+003, 1.583965e+001
1.103522e+003, 1.629354e+001
1.104004e+003, 1.636492e+001
1.104486e+003, 1.571544e+001
1.104969e+003, 1.544370e+001
1.105451e+003, 1.641310e+001
1.105933e+003, 1.691638e+001
1.106415e+003, 1.569096e+001
1.106897e+003, 1.438290e+001
1.107379e+003, 1.452649e+001
1.107861e+003, 1.558245e+001
1.108343e+003, 1.608049e+001
1.108825e+003, 1.576711e+001
1.109307e+003, 1.574920e+001
1.109790e+003, 1.656707e+001
1.110272e+003, 1.705465e+001
1.110754e+003, 1.673618e+001
1.111236e+003, 1.627957e+001
1.111718e+003, 1.600743e+001
1.112200e+003, 1.589134e+001
1.112682e+003, 1.592371e+001
1.113164e+003, 1.611665e+001
1.113647e+003, 1.618451e+001
1.114129e+003, 1.617515e+001
1.114611e+003, 1.595632e+001
1.115093e+003, 1.534817e+001
1.115575e+003, 1.475564e+001
1.116057e+003, 1.420534e+001
1.116539e+003, 1.389205e+001
1.117021e+003, 1.413748e+001
1.117504e+003, 1.485207e+001
1.117986e+003, 1.538619e+001
1.118468e+003, 1.581232e+001
1.118950e+003, 1.584894e+001
1.119432e+003, 1.521079e+001
1.119914e+003, 1.474892e+001
1.120396e+003, 1.474309e+001
1.120878e+003, 1.499613e+001
1.121360e+003, 1.546407e+001
1.121843e+003, 1.597270e+001
1.122325e+003, 1.596811e+001
1.122807e+003, 1.533632e+001
1.123289e+003, 1.485306e+001
1.123771e+003, 1.445436e+001
1.124253e+003, 1.447342e+001
1.124735e+003, 1.513175e+001
1.125217e+003, 1.575568e+001
1.125699e+003, 1.589483e+001
1.126182e+003, 1.579624e+001
1.126664e+003, 1.588513e+001
1.127146e+003, 1.614711e+001
1.127628e+003, 1.637968e+001
1.128110e+003, 1.662912e+001
1.128592e+003, 1.627284e+001
1.129074e+003, 1.509310e+001
1.129556e+003, 1.445434e+001
1.130039e+003, 1.506785e+001
1.130521e+003, 1.590275e+001
1.131003e+003, 1.569785e+001
1.131485e+003, 1.489949e+001
1.131967e+003, 1.524162e+001
1.132449e+003, 1.663437e+001
1.132931e+003, 1.749333e+001
1.133413e+003, 1.773352e+001
1.133896e+003, 1.756520e+001
1.134378e+003, 1.705471e+001
1.134860e+003, 1.655374e+001
1.135342e+003, 1.633490e+001
1.135824e+003, 1.628874e+001
1.136306e+003, 1.630445e+001
1.136788e+003, 1.631297e+001
1.137270e+003, 1.591969e+001
1.137752e+003, 1.524982e+001
1.138234e+003, 1.497730e+001
1.138717e+003, 1.517116e+001
1.139199e+003, 1.533080e+001
1.139681e+003, 1.519939e+001
1.140163e+003, 1.504076e+001
1.140645e+003, 1.514399e+001
1.141127e+003, 1.542325e+001
1.141609e+003, 1.590017e+001
1.142091e+003, 1.635845e+001
1.142574e+003, 1.616217e+001
1.143056e+003, 1.548083e+001
1.143538e+003, 1.507885e+001
1.144020e+003, 1.517459e+001
1.144502e+003, 1.534833e+001
1.144984e+003, 1.525563e+001
1.145466e+003, 1.523419e+001
1.145948e+003, 1.595429e+001
1.146431e+003, 1.669422e+001
1.146913e+003, 1.626992e+001
1.147395e+003, 1.529070e+001
1.147877e+003, 1.501201e+001
1.148359e+003, 1.547984e+001
1.148841e+003, 1.585834e+001
1.149323e+003, 1.581055e+001
1.149805e+003, 1.554335e+001
1.150287e+003, 1.472027e+001
1.150770e+003, 1.425555e+001
1.151252e+003, 1.540260e+001
1.151734e+003, 1.677570e+001
1.152216e+003, 1.666940e+001
1.152698e+003, 1.558068e+001
1.153180e+003, 1.491867e+001
1.153662e+003, 1.498006e+001
1.154144e+003, 1.525906e+001
1.154626e+003, 1.585336e+001
1.155109e+003, 1.625885e+001
1.155591e+003, 1.637591e+001
1.156073e+003, 1.618222e+001
1.156555e+003, 1.536781e+001
1.157037e+003, 1.442700e+001
1.157519e+003, 1.399028e+001
1.158001e+003, 1.403954e+001
1.158483e+003, 1.414637e+001
1.158966e+003, 1.414422e+001
1.159448e+003, 1.446939e+001
1.159930e+003, 1.577680e+001
1.160412e+003, 1.654523e+001
1.160894e+003, 1.599375e+001
1.161376e+003, 1.519928e+001
1.161858e+003, 1.492073e+001
1.162340e+003, 1.497328e+001
1.162822e+003, 1.492590e+001
1.163305e+003, 1.473446e+001
1.163787e+003, 1.497095e+001
1.164269e+003, 1.592644e+001
1.164751e+003, 1.640825e+001
1.165233e+003, 1.607502e+001
1.165715e+003, 1.582940e+001
1.166197e+003, 1.618073e+001
1.166679e+003, 1.657674e+001
1.167161e+003, 1.632642e+001
1.167644e+003, 1.561431e+001
1.168126e+003, 1.512688e+001
1.168608e+003, 1.485618e+001
1.169090e+003, 1.526039e+001
1.169572e+003, 1.639170e+001
1.170054e+003, 1.678509e+001
1.170536e+003, 1.602449e+001
1.171018e+003, 1.518666e+001
1.171500e+003, 1.500031e+001
1.171983e+003, 1.524306e+001
1.172465e+003, 1.576065e+001
1.172947e+003, 1.633868e+001
1.173429e+003, 1.609363e+001
1.173911e+003, 1.527448e+001
1.174393e+003, 1.476897e+001
1.174875e+003, 1.468563e+001
1.175357e+003, 1.497555e+001
1.175840e+003, 1.557209e+001
1.176322e+003, 1.589721e+001
1.176804e+003, 1.528605e+001
1.177286e+003, 1.460312e+001
1.177768e+003, 1.518840e+001
1.178250e+003, 1.619158e+001
1.178732e+003, 1.638536e+001
1.179214e+003, 1.600886e+001
1.179697e+003, 1.564037e+001
1.180179e+003, 1.538369e+001
1.180661e+003, 1.508691e+001
1.181143e+003, 1.466044e+001
1.181625e+003, 1.440784e+001
1.182107e+003, 1.466837e+001
1.182589e+003, 1.497877e+001
1.183071e+003, 1.494714e+001
1.183553e+003, 1.490059e+001
1.184036e+003, 1.530210e+001
1.184518e+003, 1.586858e+001
1.185000e+003, 1.600756e+001
1.185482e+003, 1.565487e+001
1.185964e+003, 1.531623e+001
1.186446e+003, 1.512253e+001
1.186928e+003, 1.492317e+001
1.187410e+003, 1.456638e+001
1.187892e+003, 1.435718e+001
1.188375e+003, 1.447998e+001
1.188857e+003, 1.476250e+001
1.189339e+003, 1.509700e+001
1.189821e+003, 1.544834e+001
1.190303e+003, 1.570065e+001
1.190785e+003, 1.583293e+001
1.191267e+003, 1.603252e+001
1.191749e+003, 1.652383e+001
1.192232e+003, 1.634210e+001
1.192714e+003, 1.497330e+001
1.193196e+003, 1.404917e+001
1.193678e+003, 1.454227e+001
1.194160e+003, 1.538624e+001
1.194642e+003, 1.521300e+001
1.195124e+003, 1.438202e+001
1.195606e+003, 1.435986e+001
1.196089e+003, 1.511341e+001
1.196571e+003, 1.589086e+001
1.197053e+003, 1.663179e+001
1.197535e+003, 1.685349e+001
1.198017e+003, 1.646623e+001
1.198499e+003, 1.620270e+001
1.198981e+003, 1.654190e+001
1.199463e+003, 1.685370e+001
1.199945e+003, 1.601553e+001
1.200427e+003, 1.478488e+001
1.200910e+003, 1.492218e+001
1.201392e+003, 1.575166e+001
1.201874e+003, 1.566712e+001
1.202356e+003, 1.486174e+001
1.202838e+003, 1.444255e+001
1.203320e+003, 1.468437e+001
1.203802e+003, 1.507758e+001
1.204284e+003, 1.536338e+001
1.204767e+003, 1.559765e+001
1.205249e+003, 1.590822e+001
1.205731e+003, 1.609170e+001
1.206213e+003, 1.589960e+001
1.206695e+003, 1.553851e+001
1.207177e+003, 1.505661e+001
1.207659e+003, 1.467306e+001
1.208141e+003, 1.503869e+001
1.208624e+003, 1.635917e+001
1.209106e+003, 1.698968e+001
1.209588e+003, 1.597636e+001
1.210070e+003, 1.507595e+001
1.210552e+003, 1.450678e+001
1.211034e+003, 1.430274e+001
1.211516e+003, 1.471388e+001
1.211998e+003, 1.529949e+001
1.212480e+003, 1.566007e+001
1.212963e+003, 1.582493e+001
1.213445e+003, 1.588653e+001
1.213927e+003, 1.581061e+001
1.214409e+003, 1.582813e+001
1.214891e+003, 1.601191e+001
1.215373e+003, 1.595917e+001
1.215855e+003, 1.552934e+001
1.216337e+003, 1.520952e+001
1.216819e+003, 1.529846e+001
1.217302e+003, 1.538426e+001
1.217784e+003, 1.490110e+001
1.218266e+003, 1.411980e+001
1.218748e+003, 1.384899e+001
1.219230e+003, 1.404281e+001
1.219712e+003, 1.471084e+001
1.220194e+003, 1.566018e+001
1.220676e+003, 1.589060e+001
1.221159e+003, 1.526521e+001
1.221641e+003, 1.448334e+001
1.222123e+003, 1.391163e+001
1.222605e+003, 1.350693e+001
1.223087e+003, 1.313314e+001
1.223569e+003, 1.299469e+001
1.224051e+003, 1.345838e+001
1.224533e+003, 1.419921e+001
1.225016e+003, 1.512335e+001
1.225498e+003, 1.583388e+001
1.225980e+003, 1.535451e+001
1.226462e+003, 1.382573e+001
1.226944e+003, 1.300340e+001
1.227426e+003, 1.379730e+001
1.227908e+003, 1.445299e+001
1.228390e+003, 1.400319e+001
1.228872e+003, 1.377656e+001
1.229354e+003, 1.454057e+001
1.229837e+003, 1.553820e+001
1.230319e+003, 1.645102e+001
1.230801e+003, 1.703744e+001
1.231283e+003, 1.679620e+001
1.231765e+003, 1.576010e+001
1.232247e+003, 1.506419e+001
1.232729e+003, 1.463335e+001
1.233211e+003, 1.490612e+001
1.233694e+003, 1.628969e+001
1.234176e+003, 1.690532e+001
1.234658e+003, 1.602915e+001
1.235140e+003, 1.495005e+001
1.235622e+003, 1.456680e+001
1.236104e+003, 1.466829e+001
1.236586e+003, 1.502336e+001
1.237068e+003, 1.548690e+001
1.237551e+003, 1.521115e+001
1.238033e+003, 1.448602e+001
1.238515e+003, 1.491988e+001
1.238997e+003, 1.629322e+001
1.239479e+003, 1.669972e+001
1.239961e+003, 1.570092e+001
1.240443e+003, 1.454118e+001
1.240925e+003, 1.395415e+001
1.241407e+003, 1.374946e+001
1.241890e+003, 1.381431e+001
1.242372e+003, 1.409660e+001
1.242854e+003, 1.487484e+001
1.243336e+003, 1.558189e+001
1.243818e+003, 1.533258e+001
1.244300e+003, 1.452684e+001
1.244782e+003, 1.414457e+001
1.245264e+003, 1.431818e+001
1.245746e+003, 1.441033e+001
1.246229e+003, 1.403598e+001
1.246711e+003, 1.397870e+001
1.247193e+003, 1.477048e+001
1.247675e+003, 1.535647e+001
1.248157e+003, 1.535150e+001
1.248639e+003, 1.504223e+001
1.249121e+003, 1.440462e+001
1.249603e+003, 1.381756e+001
1.250085e+003, 1.405805e+001
1.250568e+003, 1.505510e+001
1.251050e+003, 1.553919e+001
1.251532e+003, 1.545901e+001
1.252014e+003, 1.541226e+001
1.252496e+003, 1.544457e+001
1.252978e+003, 1.547424e+001
1.253460e+003, 1.547727e+001
1.253942e+003, 1.560415e+001
1.254425e+003, 1.597449e+001
1.254907e+003, 1.633945e+001
1.255389e+003, 1.634806e+001
1.255871e+003, 1.611267e+001
1.256353e+003, 1.564211e+001
1.256835e+003, 1.519735e+001
1.257317e+003, 1.554994e+001
1.257799e+003, 1.628605e+001
1.258281e+003, 1.610386e+001
1.258764e+003, 1.496404e+001
1.259246e+003, 1.438409e+001
1.259728e+003, 1.520016e+001
1.260210e+003, 1.590299e+001
1.260692e+003, 1.574491e+001
1.261174e+003, 1.537008e+001
1.261656e+003, 1.500475e+001
1.262138e+003, 1.461929e+001
1.262620e+003, 1.395413e+001
1.263103e+003, 1.338556e+001
1.263585e+003, 1.370032e+001
1.264067e+003, 1.473147e+001
1.264549e+003, 1.501993e+001
1.265031e+003, 1.424353e+001
1.265513e+003, 1.385213e+001
1.265995e+003, 1.396795e+001
1.266477e+003, 1.389736e+001
1.266960e+003, 1.342177e+001
1.267442e+003, 1.326248e+001
1.267924e+003, 1.386514e+001
1.268406e+003, 1.453899e+001
1.268888e+003, 1.435239e+001
1.269370e+003, 1.385792e+001
1.269852e+003, 1.468800e+001
1.270334e+003, 1.608187e+001
1.270817e+003, 1.584123e+001
1.271299e+003, 1.453501e+001
1.271781e+003, 1.396446e+001
1.272263e+003, 1.429328e+001
1.272745e+003, 1.472412e+001
1.273227e+003, 1.495369e+001
1.273709e+003, 1.507650e+001
1.274191e+003, 1.517301e+001
1.274673e+003, 1.514586e+001
1.275156e+003, 1.461666e+001
1.275638e+003, 1.432159e+001
1.276120e+003, 1.523895e+001
1.276602e+003, 1.627131e+001
1.277084e+003, 1.585771e+001
1.277566e+003, 1.453692e+001
1.278048e+003, 1.428281e+001
1.278530e+003, 1.527583e+001
1.279012e+003, 1.565268e+001
1.279495e+003, 1.515112e+001
1.279977e+003, 1.503586e+001
1.280459e+003, 1.554683e+001
1.280941e+003, 1.587751e+001
1.281423e+003, 1.573668e+001
1.281905e+003, 1.530355e+001
1.282387e+003, 1.468234e+001
1.282869e+003, 1.405335e+001
1.283352e+003, 1.369168e+001
1.283834e+003, 1.356801e+001
1.284316e+003, 1.362077e+001
1.284798e+003, 1.385075e+001
##END=



