##NAMES=Walstromite
##RRUFFID=R150079
##IDEAL CHEMISTRY=BaCa_2_Si_3_O_9_
##LOCALITY=Gun Claim, Yukon Territory, Canada
##OWNER=RRUFF
##SOURCE=Gunnar Farber
##DESCRIPTION=Colorless granular or short prismatic crystals with good cleavage, associated with suzukiite (R150039), pellyite (R150078), and bavsiite.
##STATUS=The identification of this mineral has been confirmed only by single crystal X-ray diffraction.
##URL=rruff.info/R150079
8.930109e+001, 0.000000e+000
8.978320e+001, 8.936340e+002
9.026532e+001, 9.259537e+002
9.074744e+001, 9.329545e+002
9.122955e+001, 9.084909e+002
9.171167e+001, 8.687472e+002
9.219379e+001, 8.274557e+002
9.267590e+001, 7.857094e+002
9.315802e+001, 7.472892e+002
9.364014e+001, 7.139609e+002
9.412225e+001, 6.861840e+002
9.460437e+001, 6.660018e+002
9.508649e+001, 6.555349e+002
9.556860e+001, 6.515264e+002
9.605072e+001, 6.469760e+002
9.653284e+001, 6.423136e+002
9.701495e+001, 6.387460e+002
9.749707e+001, 6.370389e+002
9.797919e+001, 6.370895e+002
9.846130e+001, 6.391605e+002
9.894342e+001, 6.444286e+002
9.942554e+001, 6.524775e+002
9.990765e+001, 6.570066e+002
1.003898e+002, 6.574783e+002
1.008719e+002, 6.559548e+002
1.013540e+002, 6.545829e+002
1.018361e+002, 6.524551e+002
1.023182e+002, 6.533139e+002
1.028004e+002, 6.590519e+002
1.032825e+002, 6.707281e+002
1.037646e+002, 6.824780e+002
1.042467e+002, 6.959757e+002
1.047288e+002, 7.088884e+002
1.052109e+002, 7.151044e+002
1.056931e+002, 7.117816e+002
1.061752e+002, 7.066174e+002
1.066573e+002, 7.028236e+002
1.071394e+002, 7.002090e+002
1.076215e+002, 6.992330e+002
1.081036e+002, 6.998531e+002
1.085858e+002, 7.020527e+002
1.090679e+002, 7.058856e+002
1.095500e+002, 7.094775e+002
1.100321e+002, 7.159039e+002
1.105142e+002, 7.267197e+002
1.109963e+002, 7.421747e+002
1.114785e+002, 7.614337e+002
1.119606e+002, 7.849844e+002
1.124427e+002, 8.126833e+002
1.129248e+002, 8.418126e+002
1.134069e+002, 8.786039e+002
1.138890e+002, 9.134559e+002
1.143712e+002, 9.390555e+002
1.148533e+002, 9.544600e+002
1.153354e+002, 9.600243e+002
1.158175e+002, 9.527609e+002
1.162996e+002, 9.315264e+002
1.167817e+002, 9.113086e+002
1.172639e+002, 8.941150e+002
1.177460e+002, 8.815254e+002
1.182281e+002, 8.755800e+002
1.187102e+002, 8.763094e+002
1.191923e+002, 8.842083e+002
1.196744e+002, 8.997985e+002
1.201566e+002, 9.233190e+002
1.206387e+002, 9.535114e+002
1.211208e+002, 9.900936e+002
1.216029e+002, 1.032591e+003
1.220850e+002, 1.079825e+003
1.225671e+002, 1.146241e+003
1.230493e+002, 1.210532e+003
1.235314e+002, 1.252012e+003
1.240135e+002, 1.267750e+003
1.244956e+002, 1.259228e+003
1.249777e+002, 1.216629e+003
1.254598e+002, 1.146829e+003
1.259420e+002, 1.076414e+003
1.264241e+002, 1.017825e+003
1.269062e+002, 9.709098e+002
1.273883e+002, 9.355704e+002
1.278704e+002, 9.122090e+002
1.283525e+002, 8.998362e+002
1.288347e+002, 8.980173e+002
1.293168e+002, 9.066577e+002
1.297989e+002, 9.231793e+002
1.302810e+002, 9.459166e+002
1.307631e+002, 9.748289e+002
1.312452e+002, 1.010817e+003
1.317274e+002, 1.054803e+003
1.322095e+002, 1.105662e+003
1.326916e+002, 1.161823e+003
1.331737e+002, 1.224373e+003
1.336558e+002, 1.287766e+003
1.341379e+002, 1.353016e+003
1.346201e+002, 1.419893e+003
1.351022e+002, 1.472646e+003
1.355843e+002, 1.509073e+003
1.360664e+002, 1.528234e+003
1.365485e+002, 1.518343e+003
1.370306e+002, 1.475311e+003
1.375128e+002, 1.412250e+003
1.379949e+002, 1.339559e+003
1.384770e+002, 1.254150e+003
1.389591e+002, 1.172910e+003
1.394412e+002, 1.099484e+003
1.399233e+002, 1.034404e+003
1.404055e+002, 9.786234e+002
1.408876e+002, 9.325521e+002
1.413697e+002, 8.952465e+002
1.418518e+002, 8.650939e+002
1.423339e+002, 8.427590e+002
1.428160e+002, 8.262371e+002
1.432982e+002, 8.152498e+002
1.437803e+002, 8.107824e+002
1.442624e+002, 8.090634e+002
1.447445e+002, 8.102871e+002
1.452266e+002, 8.142515e+002
1.457087e+002, 8.202564e+002
1.461909e+002, 8.278519e+002
1.466730e+002, 8.381607e+002
1.471551e+002, 8.517452e+002
1.476372e+002, 8.686251e+002
1.481193e+002, 8.885469e+002
1.486014e+002, 9.115361e+002
1.490836e+002, 9.375299e+002
1.495657e+002, 9.674326e+002
1.500478e+002, 1.002104e+003
1.505299e+002, 1.039297e+003
1.510120e+002, 1.078348e+003
1.514941e+002, 1.125856e+003
1.519763e+002, 1.166979e+003
1.524584e+002, 1.205127e+003
1.529405e+002, 1.238121e+003
1.534226e+002, 1.256277e+003
1.539047e+002, 1.252625e+003
1.543868e+002, 1.237979e+003
1.548690e+002, 1.218224e+003
1.553511e+002, 1.186077e+003
1.558332e+002, 1.157340e+003
1.563153e+002, 1.133843e+003
1.567974e+002, 1.115677e+003
1.572795e+002, 1.103290e+003
1.577617e+002, 1.100857e+003
1.582438e+002, 1.102103e+003
1.587259e+002, 1.102500e+003
1.592080e+002, 1.107289e+003
1.596901e+002, 1.105153e+003
1.601722e+002, 1.093159e+003
1.606544e+002, 1.071291e+003
1.611365e+002, 1.040542e+003
1.616186e+002, 9.959875e+002
1.621007e+002, 9.451495e+002
1.625828e+002, 8.938602e+002
1.630649e+002, 8.403510e+002
1.635471e+002, 7.903456e+002
1.640292e+002, 7.459799e+002
1.645113e+002, 7.073329e+002
1.649934e+002, 6.746070e+002
1.654755e+002, 6.494413e+002
1.659576e+002, 6.297734e+002
1.664398e+002, 6.133492e+002
1.669219e+002, 6.005239e+002
1.674040e+002, 5.895181e+002
1.678861e+002, 5.796524e+002
1.683682e+002, 5.708835e+002
1.688503e+002, 5.623705e+002
1.693325e+002, 5.530754e+002
1.698146e+002, 5.437025e+002
1.702967e+002, 5.355208e+002
1.707788e+002, 5.296031e+002
1.712609e+002, 5.247214e+002
1.717430e+002, 5.196984e+002
1.722252e+002, 5.143416e+002
1.727073e+002, 5.096676e+002
1.731894e+002, 5.064396e+002
1.736715e+002, 5.044879e+002
1.741536e+002, 5.035059e+002
1.746357e+002, 5.033106e+002
1.751179e+002, 5.039677e+002
1.756000e+002, 5.056492e+002
1.760821e+002, 5.084108e+002
1.765642e+002, 5.118685e+002
1.770463e+002, 5.156793e+002
1.775284e+002, 5.199004e+002
1.780106e+002, 5.246329e+002
1.784927e+002, 5.303264e+002
1.789748e+002, 5.365044e+002
1.794569e+002, 5.425792e+002
1.799390e+002, 5.488347e+002
1.804211e+002, 5.539269e+002
1.809033e+002, 5.561896e+002
1.813854e+002, 5.558881e+002
1.818675e+002, 5.542632e+002
1.823496e+002, 5.514197e+002
1.828317e+002, 5.478165e+002
1.833138e+002, 5.443651e+002
1.837960e+002, 5.411868e+002
1.842781e+002, 5.381870e+002
1.847602e+002, 5.350873e+002
1.852423e+002, 5.319379e+002
1.857244e+002, 5.294213e+002
1.862065e+002, 5.280344e+002
1.866887e+002, 5.276198e+002
1.871708e+002, 5.276247e+002
1.876529e+002, 5.280643e+002
1.881350e+002, 5.287294e+002
1.886171e+002, 5.295026e+002
1.890992e+002, 5.303701e+002
1.895814e+002, 5.306679e+002
1.900635e+002, 5.302045e+002
1.905456e+002, 5.288942e+002
1.910277e+002, 5.261629e+002
1.915098e+002, 5.217758e+002
1.919919e+002, 5.162062e+002
1.924741e+002, 5.100621e+002
1.929562e+002, 5.033131e+002
1.934383e+002, 4.971495e+002
1.939204e+002, 4.926212e+002
1.944025e+002, 4.896492e+002
1.948846e+002, 4.869022e+002
1.953668e+002, 4.842521e+002
1.958489e+002, 4.817121e+002
1.963310e+002, 4.791935e+002
1.968131e+002, 4.766374e+002
1.972952e+002, 4.745488e+002
1.977773e+002, 4.733643e+002
1.982595e+002, 4.731127e+002
1.987416e+002, 4.729585e+002
1.992237e+002, 4.727187e+002
1.997058e+002, 4.725908e+002
2.001879e+002, 4.731279e+002
2.006700e+002, 4.743775e+002
2.011522e+002, 4.761258e+002
2.016343e+002, 4.784362e+002
2.021164e+002, 4.814031e+002
2.025985e+002, 4.839222e+002
2.030806e+002, 4.856201e+002
2.035627e+002, 4.868919e+002
2.040449e+002, 4.890306e+002
2.045270e+002, 4.921831e+002
2.050091e+002, 4.957092e+002
2.054912e+002, 4.993074e+002
2.059733e+002, 5.030565e+002
2.064554e+002, 5.063768e+002
2.069376e+002, 5.091735e+002
2.074197e+002, 5.114921e+002
2.079018e+002, 5.135261e+002
2.083839e+002, 5.151572e+002
2.088660e+002, 5.168209e+002
2.093481e+002, 5.186954e+002
2.098303e+002, 5.206943e+002
2.103124e+002, 5.233297e+002
2.107945e+002, 5.266038e+002
2.112766e+002, 5.305636e+002
2.117587e+002, 5.355416e+002
2.122408e+002, 5.416378e+002
2.127230e+002, 5.485900e+002
2.132051e+002, 5.563989e+002
2.136872e+002, 5.652585e+002
2.141693e+002, 5.744548e+002
2.146514e+002, 5.843044e+002
2.151335e+002, 5.944077e+002
2.156157e+002, 6.025364e+002
2.160978e+002, 6.086763e+002
2.165799e+002, 6.129562e+002
2.170620e+002, 6.153520e+002
2.175441e+002, 6.154651e+002
2.180262e+002, 6.148039e+002
2.185084e+002, 6.134837e+002
2.189905e+002, 6.114745e+002
2.194726e+002, 6.085968e+002
2.199547e+002, 6.042321e+002
2.204368e+002, 5.999874e+002
2.209189e+002, 5.969814e+002
2.214011e+002, 5.955822e+002
2.218832e+002, 5.944096e+002
2.223653e+002, 5.932794e+002
2.228474e+002, 5.922978e+002
2.233295e+002, 5.919807e+002
2.238116e+002, 5.927474e+002
2.242938e+002, 5.935366e+002
2.247759e+002, 5.938475e+002
2.252580e+002, 5.940172e+002
2.257401e+002, 5.928554e+002
2.262222e+002, 5.901301e+002
2.267043e+002, 5.860115e+002
2.271865e+002, 5.809725e+002
2.276686e+002, 5.748080e+002
2.281507e+002, 5.681698e+002
2.286328e+002, 5.613529e+002
2.291149e+002, 5.539176e+002
2.295970e+002, 5.474119e+002
2.300792e+002, 5.422873e+002
2.305613e+002, 5.381708e+002
2.310434e+002, 5.336771e+002
2.315255e+002, 5.282922e+002
2.320076e+002, 5.233814e+002
2.324897e+002, 5.197711e+002
2.329719e+002, 5.178469e+002
2.334540e+002, 5.164110e+002
2.339361e+002, 5.155692e+002
2.344182e+002, 5.151745e+002
2.349003e+002, 5.146436e+002
2.353824e+002, 5.136769e+002
2.358646e+002, 5.130025e+002
2.363467e+002, 5.129708e+002
2.368288e+002, 5.136652e+002
2.373109e+002, 5.148608e+002
2.377930e+002, 5.168904e+002
2.382751e+002, 5.193582e+002
2.387573e+002, 5.209182e+002
2.392394e+002, 5.208577e+002
2.397215e+002, 5.208964e+002
2.402036e+002, 5.219080e+002
2.406857e+002, 5.246168e+002
2.411678e+002, 5.266133e+002
2.416500e+002, 5.276277e+002
2.421321e+002, 5.279908e+002
2.426142e+002, 5.285723e+002
2.430963e+002, 5.295325e+002
2.435784e+002, 5.304693e+002
2.440605e+002, 5.311900e+002
2.445427e+002, 5.315876e+002
2.450248e+002, 5.320984e+002
2.455069e+002, 5.329512e+002
2.459890e+002, 5.338350e+002
2.464711e+002, 5.341116e+002
2.469532e+002, 5.339310e+002
2.474354e+002, 5.329169e+002
2.479175e+002, 5.308509e+002
2.483996e+002, 5.274437e+002
2.488817e+002, 5.238518e+002
2.493638e+002, 5.197239e+002
2.498459e+002, 5.156211e+002
2.503281e+002, 5.126675e+002
2.508102e+002, 5.114466e+002
2.512923e+002, 5.103589e+002
2.517744e+002, 5.086940e+002
2.522565e+002, 5.060791e+002
2.527386e+002, 5.045763e+002
2.532208e+002, 5.045047e+002
2.537029e+002, 5.053127e+002
2.541850e+002, 5.061372e+002
2.546671e+002, 5.068414e+002
2.551492e+002, 5.078171e+002
2.556313e+002, 5.091396e+002
2.561135e+002, 5.107732e+002
2.565956e+002, 5.128870e+002
2.570777e+002, 5.154506e+002
2.575598e+002, 5.184756e+002
2.580419e+002, 5.220469e+002
2.585240e+002, 5.263245e+002
2.590062e+002, 5.306781e+002
2.594883e+002, 5.349608e+002
2.599704e+002, 5.390845e+002
2.604525e+002, 5.433189e+002
2.609346e+002, 5.476490e+002
2.614167e+002, 5.520463e+002
2.618989e+002, 5.564747e+002
2.623810e+002, 5.608853e+002
2.628631e+002, 5.654070e+002
2.633452e+002, 5.701970e+002
2.638273e+002, 5.753154e+002
2.643094e+002, 5.796366e+002
2.647916e+002, 5.832609e+002
2.652737e+002, 5.860795e+002
2.657558e+002, 5.879088e+002
2.662379e+002, 5.884872e+002
2.667200e+002, 5.889503e+002
2.672021e+002, 5.897138e+002
2.676843e+002, 5.906409e+002
2.681664e+002, 5.903398e+002
2.686485e+002, 5.885370e+002
2.691306e+002, 5.860680e+002
2.696127e+002, 5.836158e+002
2.700948e+002, 5.812244e+002
2.705770e+002, 5.785851e+002
2.710591e+002, 5.754213e+002
2.715412e+002, 5.719939e+002
2.720233e+002, 5.694566e+002
2.725054e+002, 5.678344e+002
2.729875e+002, 5.671315e+002
2.734697e+002, 5.674558e+002
2.739518e+002, 5.688958e+002
2.744339e+002, 5.708055e+002
2.749160e+002, 5.731213e+002
2.753981e+002, 5.758412e+002
2.758802e+002, 5.789581e+002
2.763624e+002, 5.823575e+002
2.768445e+002, 5.864521e+002
2.773266e+002, 5.917351e+002
2.778087e+002, 5.983035e+002
2.782908e+002, 6.046589e+002
2.787729e+002, 6.106342e+002
2.792551e+002, 6.163933e+002
2.797372e+002, 6.220010e+002
2.802193e+002, 6.273968e+002
2.807014e+002, 6.332045e+002
2.811835e+002, 6.397244e+002
2.816656e+002, 6.469593e+002
2.821478e+002, 6.549153e+002
2.826299e+002, 6.634346e+002
2.831120e+002, 6.729973e+002
2.835941e+002, 6.843740e+002
2.840762e+002, 6.976367e+002
2.845583e+002, 7.124327e+002
2.850405e+002, 7.289639e+002
2.855226e+002, 7.471284e+002
2.860047e+002, 7.661934e+002
2.864868e+002, 7.863396e+002
2.869689e+002, 8.067679e+002
2.874510e+002, 8.271653e+002
2.879332e+002, 8.474215e+002
2.884153e+002, 8.655302e+002
2.888974e+002, 8.812292e+002
2.893795e+002, 8.940253e+002
2.898616e+002, 9.018148e+002
2.903438e+002, 9.047253e+002
2.908259e+002, 9.016912e+002
2.913080e+002, 8.903096e+002
2.917901e+002, 8.714012e+002
2.922722e+002, 8.489164e+002
2.927543e+002, 8.226503e+002
2.932365e+002, 7.945507e+002
2.937186e+002, 7.686326e+002
2.942007e+002, 7.451015e+002
2.946828e+002, 7.247579e+002
2.951649e+002, 7.083744e+002
2.956470e+002, 6.959274e+002
2.961292e+002, 6.868210e+002
2.966113e+002, 6.811515e+002
2.970934e+002, 6.786449e+002
2.975755e+002, 6.793123e+002
2.980576e+002, 6.830493e+002
2.985397e+002, 6.885453e+002
2.990219e+002, 6.961303e+002
2.995040e+002, 7.047533e+002
2.999861e+002, 7.123336e+002
3.004682e+002, 7.189772e+002
3.009503e+002, 7.234343e+002
3.014324e+002, 7.251949e+002
3.019146e+002, 7.238445e+002
3.023967e+002, 7.176728e+002
3.028788e+002, 7.033446e+002
3.033609e+002, 6.842283e+002
3.038430e+002, 6.648143e+002
3.043251e+002, 6.452774e+002
3.048073e+002, 6.271557e+002
3.052894e+002, 6.114423e+002
3.057715e+002, 5.981611e+002
3.062536e+002, 5.869317e+002
3.067357e+002, 5.779736e+002
3.072178e+002, 5.708733e+002
3.077000e+002, 5.655643e+002
3.081821e+002, 5.621131e+002
3.086642e+002, 5.596368e+002
3.091463e+002, 5.574492e+002
3.096284e+002, 5.558141e+002
3.101105e+002, 5.551257e+002
3.105927e+002, 5.561378e+002
3.110748e+002, 5.577440e+002
3.115569e+002, 5.589326e+002
3.120390e+002, 5.597056e+002
3.125211e+002, 5.613673e+002
3.130032e+002, 5.651814e+002
3.134854e+002, 5.700958e+002
3.139675e+002, 5.749456e+002
3.144496e+002, 5.794266e+002
3.149317e+002, 5.836793e+002
3.154138e+002, 5.879012e+002
3.158959e+002, 5.920311e+002
3.163781e+002, 5.957993e+002
3.168602e+002, 5.996984e+002
3.173423e+002, 6.028135e+002
3.178244e+002, 6.044402e+002
3.183065e+002, 6.040822e+002
3.187886e+002, 6.027184e+002
3.192708e+002, 6.005860e+002
3.197529e+002, 5.976751e+002
3.202350e+002, 5.939429e+002
3.207171e+002, 5.889963e+002
3.211992e+002, 5.835431e+002
3.216813e+002, 5.778144e+002
3.221635e+002, 5.714764e+002
3.226456e+002, 5.656780e+002
3.231277e+002, 5.605889e+002
3.236098e+002, 5.561739e+002
3.240919e+002, 5.523619e+002
3.245740e+002, 5.493933e+002
3.250562e+002, 5.468405e+002
3.255383e+002, 5.444760e+002
3.260204e+002, 5.421160e+002
3.265025e+002, 5.406695e+002
3.269846e+002, 5.405915e+002
3.274667e+002, 5.413043e+002
3.279489e+002, 5.421921e+002
3.284310e+002, 5.430374e+002
3.289131e+002, 5.443116e+002
3.293952e+002, 5.462407e+002
3.298773e+002, 5.488484e+002
3.303594e+002, 5.513001e+002
3.308416e+002, 5.531935e+002
3.313237e+002, 5.552486e+002
3.318058e+002, 5.580052e+002
3.322879e+002, 5.619892e+002
3.327700e+002, 5.657920e+002
3.332521e+002, 5.692496e+002
3.337343e+002, 5.724507e+002
3.342164e+002, 5.758480e+002
3.346985e+002, 5.794471e+002
3.351806e+002, 5.831604e+002
3.356627e+002, 5.868912e+002
3.361448e+002, 5.904374e+002
3.366270e+002, 5.945257e+002
3.371091e+002, 5.992405e+002
3.375912e+002, 6.044052e+002
3.380733e+002, 6.097436e+002
3.385554e+002, 6.151785e+002
3.390375e+002, 6.208759e+002
3.395197e+002, 6.268918e+002
3.400018e+002, 6.331698e+002
3.404839e+002, 6.399503e+002
3.409660e+002, 6.471467e+002
3.414481e+002, 6.547563e+002
3.419302e+002, 6.627484e+002
3.424124e+002, 6.712346e+002
3.428945e+002, 6.794927e+002
3.433766e+002, 6.875714e+002
3.438587e+002, 6.952592e+002
3.443408e+002, 7.022006e+002
3.448229e+002, 7.084639e+002
3.453051e+002, 7.132079e+002
3.457872e+002, 7.162415e+002
3.462693e+002, 7.173483e+002
3.467514e+002, 7.148282e+002
3.472335e+002, 7.078367e+002
3.477156e+002, 6.977102e+002
3.481978e+002, 6.865157e+002
3.486799e+002, 6.743358e+002
3.491620e+002, 6.621383e+002
3.496441e+002, 6.501053e+002
3.501262e+002, 6.385690e+002
3.506083e+002, 6.284000e+002
3.510905e+002, 6.196846e+002
3.515726e+002, 6.120389e+002
3.520547e+002, 6.048176e+002
3.525368e+002, 5.982207e+002
3.530189e+002, 5.928582e+002
3.535010e+002, 5.894359e+002
3.539832e+002, 5.872238e+002
3.544653e+002, 5.853558e+002
3.549474e+002, 5.837673e+002
3.554295e+002, 5.827545e+002
3.559116e+002, 5.826911e+002
3.563937e+002, 5.833176e+002
3.568759e+002, 5.842422e+002
3.573580e+002, 5.854131e+002
3.578401e+002, 5.867602e+002
3.583222e+002, 5.880213e+002
3.588043e+002, 5.893143e+002
3.592864e+002, 5.912784e+002
3.597686e+002, 5.942758e+002
3.602507e+002, 5.980978e+002
3.607328e+002, 6.025536e+002
3.612149e+002, 6.077668e+002
3.616970e+002, 6.133716e+002
3.621791e+002, 6.191483e+002
3.626613e+002, 6.251985e+002
3.631434e+002, 6.317631e+002
3.636255e+002, 6.395209e+002
3.641076e+002, 6.473156e+002
3.645897e+002, 6.545690e+002
3.650718e+002, 6.608246e+002
3.655540e+002, 6.673945e+002
3.660361e+002, 6.752041e+002
3.665182e+002, 6.832059e+002
3.670003e+002, 6.901449e+002
3.674824e+002, 6.958964e+002
3.679645e+002, 7.005697e+002
3.684467e+002, 7.041315e+002
3.689288e+002, 7.065160e+002
3.694109e+002, 7.081501e+002
3.698930e+002, 7.087482e+002
3.703751e+002, 7.088398e+002
3.708572e+002, 7.087078e+002
3.713394e+002, 7.077607e+002
3.718215e+002, 7.075798e+002
3.723036e+002, 7.081365e+002
3.727857e+002, 7.095477e+002
3.732678e+002, 7.122299e+002
3.737499e+002, 7.163168e+002
3.742321e+002, 7.214641e+002
3.747142e+002, 7.276166e+002
3.751963e+002, 7.350535e+002
3.756784e+002, 7.425721e+002
3.761605e+002, 7.504245e+002
3.766426e+002, 7.579603e+002
3.771248e+002, 7.642596e+002
3.776069e+002, 7.695887e+002
3.780890e+002, 7.726168e+002
3.785711e+002, 7.731925e+002
3.790532e+002, 7.711567e+002
3.795353e+002, 7.650865e+002
3.800175e+002, 7.546729e+002
3.804996e+002, 7.414765e+002
3.809817e+002, 7.259838e+002
3.814638e+002, 7.085779e+002
3.819459e+002, 6.916299e+002
3.824280e+002, 6.754943e+002
3.829102e+002, 6.604757e+002
3.833923e+002, 6.477388e+002
3.838744e+002, 6.370750e+002
3.843565e+002, 6.274973e+002
3.848386e+002, 6.184323e+002
3.853207e+002, 6.099993e+002
3.858029e+002, 6.028289e+002
3.862850e+002, 5.969780e+002
3.867671e+002, 5.920214e+002
3.872492e+002, 5.876010e+002
3.877313e+002, 5.837003e+002
3.882134e+002, 5.803740e+002
3.886956e+002, 5.777881e+002
3.891777e+002, 5.757395e+002
3.896598e+002, 5.742144e+002
3.901419e+002, 5.731896e+002
3.906240e+002, 5.721423e+002
3.911061e+002, 5.706268e+002
3.915883e+002, 5.689760e+002
3.920704e+002, 5.674743e+002
3.925525e+002, 5.656998e+002
3.930346e+002, 5.647961e+002
3.935167e+002, 5.658608e+002
3.939988e+002, 5.682680e+002
3.944810e+002, 5.702581e+002
3.949631e+002, 5.704826e+002
3.954452e+002, 5.707123e+002
3.959273e+002, 5.718660e+002
3.964094e+002, 5.742556e+002
3.968915e+002, 5.769031e+002
3.973737e+002, 5.796972e+002
3.978558e+002, 5.826244e+002
3.983379e+002, 5.856683e+002
3.988200e+002, 5.889211e+002
3.993021e+002, 5.921715e+002
3.997842e+002, 5.952887e+002
4.002664e+002, 5.982667e+002
4.007485e+002, 6.016076e+002
4.012306e+002, 6.056205e+002
4.017127e+002, 6.096377e+002
4.021948e+002, 6.131472e+002
4.026769e+002, 6.156111e+002
4.031591e+002, 6.187203e+002
4.036412e+002, 6.226473e+002
4.041233e+002, 6.272263e+002
4.046054e+002, 6.322291e+002
4.050875e+002, 6.376991e+002
4.055696e+002, 6.433136e+002
4.060518e+002, 6.487992e+002
4.065339e+002, 6.541343e+002
4.070160e+002, 6.603229e+002
4.074981e+002, 6.673522e+002
4.079802e+002, 6.751252e+002
4.084623e+002, 6.837942e+002
4.089445e+002, 6.933816e+002
4.094266e+002, 7.026918e+002
4.099087e+002, 7.113699e+002
4.103908e+002, 7.196202e+002
4.108729e+002, 7.281097e+002
4.113550e+002, 7.368419e+002
4.118372e+002, 7.446406e+002
4.123193e+002, 7.512846e+002
4.128014e+002, 7.563972e+002
4.132835e+002, 7.594870e+002
4.137656e+002, 7.608005e+002
4.142477e+002, 7.589339e+002
4.147299e+002, 7.513420e+002
4.152120e+002, 7.392806e+002
4.156941e+002, 7.260132e+002
4.161762e+002, 7.119130e+002
4.166583e+002, 6.978474e+002
4.171404e+002, 6.845223e+002
4.176226e+002, 6.718323e+002
4.181047e+002, 6.597822e+002
4.185868e+002, 6.470426e+002
4.190689e+002, 6.354471e+002
4.195510e+002, 6.266923e+002
4.200331e+002, 6.232932e+002
4.205153e+002, 6.201462e+002
4.209974e+002, 6.151400e+002
4.214795e+002, 6.089559e+002
4.219616e+002, 6.035121e+002
4.224437e+002, 5.995270e+002
4.229258e+002, 5.961381e+002
4.234080e+002, 5.929128e+002
4.238901e+002, 5.895861e+002
4.243722e+002, 5.872135e+002
4.248543e+002, 5.864033e+002
4.253364e+002, 5.863535e+002
4.258185e+002, 5.862911e+002
4.263007e+002, 5.860647e+002
4.267828e+002, 5.860657e+002
4.272649e+002, 5.864481e+002
4.277470e+002, 5.871343e+002
4.282291e+002, 5.876328e+002
4.287112e+002, 5.879043e+002
4.291934e+002, 5.880366e+002
4.296755e+002, 5.881083e+002
4.301576e+002, 5.881597e+002
4.306397e+002, 5.878321e+002
4.311218e+002, 5.869564e+002
4.316039e+002, 5.859471e+002
4.320861e+002, 5.852932e+002
4.325682e+002, 5.849755e+002
4.330503e+002, 5.854649e+002
4.335324e+002, 5.872390e+002
4.340145e+002, 5.898899e+002
4.344966e+002, 5.920312e+002
4.349788e+002, 5.936617e+002
4.354609e+002, 5.949870e+002
4.359430e+002, 5.958767e+002
4.364251e+002, 5.966049e+002
4.369072e+002, 5.979050e+002
4.373893e+002, 5.999320e+002
4.378715e+002, 6.025316e+002
4.383536e+002, 6.060936e+002
4.388357e+002, 6.101682e+002
4.393178e+002, 6.134998e+002
4.397999e+002, 6.144000e+002
4.402820e+002, 6.149160e+002
4.407642e+002, 6.175352e+002
4.412463e+002, 6.224119e+002
4.417284e+002, 6.259713e+002
4.422105e+002, 6.258096e+002
4.426926e+002, 6.236110e+002
4.431747e+002, 6.209714e+002
4.436569e+002, 6.180010e+002
4.441390e+002, 6.150023e+002
4.446211e+002, 6.120126e+002
4.451032e+002, 6.090566e+002
4.455853e+002, 6.063057e+002
4.460674e+002, 6.037608e+002
4.465496e+002, 6.014386e+002
4.470317e+002, 5.992637e+002
4.475138e+002, 5.970424e+002
4.479959e+002, 5.956818e+002
4.484780e+002, 5.956111e+002
4.489601e+002, 5.961191e+002
4.494423e+002, 5.965085e+002
4.499244e+002, 5.966110e+002
4.504065e+002, 5.969797e+002
4.508886e+002, 5.977834e+002
4.513707e+002, 5.989105e+002
4.518528e+002, 5.998637e+002
4.523350e+002, 6.005379e+002
4.528171e+002, 6.013561e+002
4.532992e+002, 6.025493e+002
4.537813e+002, 6.041182e+002
4.542634e+002, 6.059470e+002
4.547455e+002, 6.080963e+002
4.552277e+002, 6.103038e+002
4.557098e+002, 6.121444e+002
4.561919e+002, 6.136835e+002
4.566740e+002, 6.155573e+002
4.571561e+002, 6.180506e+002
4.576382e+002, 6.208856e+002
4.581204e+002, 6.234694e+002
4.586025e+002, 6.258741e+002
4.590846e+002, 6.284271e+002
4.595667e+002, 6.312527e+002
4.600488e+002, 6.344423e+002
4.605309e+002, 6.382732e+002
4.610131e+002, 6.429197e+002
4.614952e+002, 6.475262e+002
4.619773e+002, 6.510046e+002
4.624594e+002, 6.541124e+002
4.629415e+002, 6.580114e+002
4.634236e+002, 6.640692e+002
4.639058e+002, 6.700755e+002
4.643879e+002, 6.749029e+002
4.648700e+002, 6.786332e+002
4.653521e+002, 6.827933e+002
4.658342e+002, 6.886898e+002
4.663163e+002, 6.944718e+002
4.667985e+002, 6.991385e+002
4.672806e+002, 7.023423e+002
4.677627e+002, 7.048760e+002
4.682448e+002, 7.067569e+002
4.687269e+002, 7.079541e+002
4.692090e+002, 7.083533e+002
4.696912e+002, 7.073593e+002
4.701733e+002, 7.066501e+002
4.706554e+002, 7.066151e+002
4.711375e+002, 7.072050e+002
4.716196e+002, 7.080272e+002
4.721017e+002, 7.091932e+002
4.725839e+002, 7.102736e+002
4.730660e+002, 7.114982e+002
4.735481e+002, 7.128775e+002
4.740302e+002, 7.119189e+002
4.745123e+002, 7.082305e+002
4.749944e+002, 7.027383e+002
4.754766e+002, 6.964710e+002
4.759587e+002, 6.894965e+002
4.764408e+002, 6.821119e+002
4.769229e+002, 6.736856e+002
4.774050e+002, 6.654691e+002
4.778871e+002, 6.597885e+002
4.783693e+002, 6.564893e+002
4.788514e+002, 6.541309e+002
4.793335e+002, 6.517032e+002
4.798156e+002, 6.496374e+002
4.802977e+002, 6.485506e+002
4.807798e+002, 6.487160e+002
4.812620e+002, 6.492726e+002
4.817441e+002, 6.494509e+002
4.822262e+002, 6.497537e+002
4.827083e+002, 6.509259e+002
4.831904e+002, 6.538381e+002
4.836725e+002, 6.570482e+002
4.841547e+002, 6.598982e+002
4.846368e+002, 6.624174e+002
4.851189e+002, 6.654605e+002
4.856010e+002, 6.691732e+002
4.860831e+002, 6.734339e+002
4.865652e+002, 6.781500e+002
4.870474e+002, 6.834919e+002
4.875295e+002, 6.889675e+002
4.880116e+002, 6.943796e+002
4.884937e+002, 7.000051e+002
4.889758e+002, 7.062753e+002
4.894579e+002, 7.132366e+002
4.899401e+002, 7.207694e+002
4.904222e+002, 7.289403e+002
4.909043e+002, 7.376632e+002
4.913864e+002, 7.468943e+002
4.918685e+002, 7.566729e+002
4.923506e+002, 7.669710e+002
4.928328e+002, 7.778337e+002
4.933149e+002, 7.891844e+002
4.937970e+002, 8.011057e+002
4.942791e+002, 8.137723e+002
4.947612e+002, 8.263483e+002
4.952433e+002, 8.392179e+002
4.957255e+002, 8.514461e+002
4.962076e+002, 8.608193e+002
4.966897e+002, 8.665610e+002
4.971718e+002, 8.691094e+002
4.976539e+002, 8.676651e+002
4.981360e+002, 8.629873e+002
4.986182e+002, 8.579378e+002
4.991003e+002, 8.529288e+002
4.995824e+002, 8.488505e+002
5.000645e+002, 8.467542e+002
5.005466e+002, 8.471783e+002
5.010287e+002, 8.473752e+002
5.015109e+002, 8.478168e+002
5.019930e+002, 8.470677e+002
5.024751e+002, 8.436777e+002
5.029572e+002, 8.359792e+002
5.034393e+002, 8.273286e+002
5.039214e+002, 8.175279e+002
5.044036e+002, 8.070822e+002
5.048857e+002, 7.974116e+002
5.053678e+002, 7.882897e+002
5.058499e+002, 7.801686e+002
5.063320e+002, 7.732385e+002
5.068141e+002, 7.675221e+002
5.072963e+002, 7.628762e+002
5.077784e+002, 7.594789e+002
5.082605e+002, 7.565434e+002
5.087426e+002, 7.534884e+002
5.092247e+002, 7.502687e+002
5.097068e+002, 7.461966e+002
5.101890e+002, 7.411467e+002
5.106711e+002, 7.351993e+002
5.111532e+002, 7.281581e+002
5.116353e+002, 7.202228e+002
5.121174e+002, 7.125676e+002
5.125995e+002, 7.054709e+002
5.130817e+002, 6.990760e+002
5.135638e+002, 6.936533e+002
5.140459e+002, 6.891863e+002
5.145280e+002, 6.852574e+002
5.150101e+002, 6.816713e+002
5.154922e+002, 6.784563e+002
5.159744e+002, 6.756622e+002
5.164565e+002, 6.732055e+002
5.169386e+002, 6.713174e+002
5.174207e+002, 6.704632e+002
5.179028e+002, 6.701572e+002
5.183849e+002, 6.695994e+002
5.188671e+002, 6.679831e+002
5.193492e+002, 6.668521e+002
5.198313e+002, 6.669150e+002
5.203134e+002, 6.680289e+002
5.207955e+002, 6.679381e+002
5.212776e+002, 6.657220e+002
5.217598e+002, 6.636436e+002
5.222419e+002, 6.631884e+002
5.227240e+002, 6.647969e+002
5.232061e+002, 6.655441e+002
5.236882e+002, 6.651635e+002
5.241703e+002, 6.643937e+002
5.246525e+002, 6.641233e+002
5.251346e+002, 6.643403e+002
5.256167e+002, 6.649507e+002
5.260988e+002, 6.661880e+002
5.265809e+002, 6.675064e+002
5.270630e+002, 6.676947e+002
5.275452e+002, 6.669401e+002
5.280273e+002, 6.662975e+002
5.285094e+002, 6.664335e+002
5.289915e+002, 6.670023e+002
5.294736e+002, 6.677399e+002
5.299557e+002, 6.686402e+002
5.304379e+002, 6.693054e+002
5.309200e+002, 6.694634e+002
5.314021e+002, 6.692821e+002
5.318842e+002, 6.688785e+002
5.323663e+002, 6.676118e+002
5.328484e+002, 6.670695e+002
5.333306e+002, 6.681283e+002
5.338127e+002, 6.701407e+002
5.342948e+002, 6.717272e+002
5.347769e+002, 6.729232e+002
5.352590e+002, 6.735172e+002
5.357411e+002, 6.731829e+002
5.362233e+002, 6.719726e+002
5.367054e+002, 6.715900e+002
5.371875e+002, 6.724284e+002
5.376696e+002, 6.733673e+002
5.381517e+002, 6.735286e+002
5.386339e+002, 6.728099e+002
5.391160e+002, 6.728751e+002
5.395981e+002, 6.739929e+002
5.400802e+002, 6.754122e+002
5.405623e+002, 6.760334e+002
5.410444e+002, 6.760216e+002
5.415266e+002, 6.763428e+002
5.420087e+002, 6.773936e+002
5.424908e+002, 6.788063e+002
5.429729e+002, 6.802078e+002
5.434550e+002, 6.815357e+002
5.439371e+002, 6.826006e+002
5.444193e+002, 6.829965e+002
5.449014e+002, 6.832836e+002
5.453835e+002, 6.839301e+002
5.458656e+002, 6.849830e+002
5.463477e+002, 6.861683e+002
5.468298e+002, 6.869795e+002
5.473120e+002, 6.881107e+002
5.477941e+002, 6.901355e+002
5.482762e+002, 6.940136e+002
5.487583e+002, 6.976106e+002
5.492404e+002, 7.010922e+002
5.497225e+002, 7.041043e+002
5.502047e+002, 7.060215e+002
5.506868e+002, 7.066729e+002
5.511689e+002, 7.064924e+002
5.516510e+002, 7.052479e+002
5.521331e+002, 7.032038e+002
5.526152e+002, 7.022061e+002
5.530974e+002, 7.024117e+002
5.535795e+002, 7.029304e+002
5.540616e+002, 7.033300e+002
5.545437e+002, 7.035947e+002
5.550258e+002, 7.034553e+002
5.555079e+002, 7.028337e+002
5.559901e+002, 7.023331e+002
5.564722e+002, 7.027823e+002
5.569543e+002, 7.038016e+002
5.574364e+002, 7.045627e+002
5.579185e+002, 7.046371e+002
5.584006e+002, 7.046855e+002
5.588828e+002, 7.051203e+002
5.593649e+002, 7.059177e+002
5.598470e+002, 7.070394e+002
5.603291e+002, 7.089402e+002
5.608112e+002, 7.107023e+002
5.612933e+002, 7.117010e+002
5.617755e+002, 7.118971e+002
5.622576e+002, 7.126149e+002
5.627397e+002, 7.144108e+002
5.632218e+002, 7.164427e+002
5.637039e+002, 7.182781e+002
5.641860e+002, 7.196592e+002
5.646682e+002, 7.215219e+002
5.651503e+002, 7.238759e+002
5.656324e+002, 7.267443e+002
5.661145e+002, 7.302326e+002
5.665966e+002, 7.344486e+002
5.670787e+002, 7.386893e+002
5.675609e+002, 7.428205e+002
5.680430e+002, 7.469073e+002
5.685251e+002, 7.508136e+002
5.690072e+002, 7.546407e+002
5.694893e+002, 7.588502e+002
5.699714e+002, 7.641229e+002
5.704536e+002, 7.697872e+002
5.709357e+002, 7.745150e+002
5.714178e+002, 7.783768e+002
5.718999e+002, 7.831481e+002
5.723820e+002, 7.902479e+002
5.728641e+002, 7.985659e+002
5.733463e+002, 8.068323e+002
5.738284e+002, 8.142877e+002
5.743105e+002, 8.233771e+002
5.747926e+002, 8.355271e+002
5.752747e+002, 8.494599e+002
5.757568e+002, 8.635137e+002
5.762390e+002, 8.770504e+002
5.767211e+002, 8.915830e+002
5.772032e+002, 9.072211e+002
5.776853e+002, 9.240422e+002
5.781674e+002, 9.417804e+002
5.786495e+002, 9.603800e+002
5.791317e+002, 9.801404e+002
5.796138e+002, 1.001983e+003
5.800959e+002, 1.025402e+003
5.805780e+002, 1.048014e+003
5.810601e+002, 1.070615e+003
5.815422e+002, 1.085748e+003
5.820244e+002, 1.087938e+003
5.825065e+002, 1.077825e+003
5.829886e+002, 1.055203e+003
5.834707e+002, 1.018204e+003
5.839528e+002, 9.774861e+002
5.844349e+002, 9.389556e+002
5.849171e+002, 9.037040e+002
5.853992e+002, 8.733707e+002
5.858813e+002, 8.500313e+002
5.863634e+002, 8.299987e+002
5.868455e+002, 8.119156e+002
5.873276e+002, 7.959821e+002
5.878098e+002, 7.835295e+002
5.882919e+002, 7.770035e+002
5.887740e+002, 7.718005e+002
5.892561e+002, 7.664222e+002
5.897382e+002, 7.608347e+002
5.902203e+002, 7.570209e+002
5.907025e+002, 7.555358e+002
5.911846e+002, 7.548878e+002
5.916667e+002, 7.542656e+002
5.921488e+002, 7.536801e+002
5.926309e+002, 7.528842e+002
5.931130e+002, 7.517942e+002
5.935952e+002, 7.507843e+002
5.940773e+002, 7.503519e+002
5.945594e+002, 7.504045e+002
5.950415e+002, 7.506318e+002
5.955236e+002, 7.511250e+002
5.960057e+002, 7.514540e+002
5.964879e+002, 7.506125e+002
5.969700e+002, 7.492208e+002
5.974521e+002, 7.487424e+002
5.979342e+002, 7.509052e+002
5.984163e+002, 7.532415e+002
5.988984e+002, 7.541536e+002
5.993806e+002, 7.538002e+002
5.998627e+002, 7.539434e+002
6.003448e+002, 7.557842e+002
6.008269e+002, 7.575131e+002
6.013090e+002, 7.581678e+002
6.017911e+002, 7.573173e+002
6.022733e+002, 7.570818e+002
6.027554e+002, 7.576342e+002
6.032375e+002, 7.585530e+002
6.037196e+002, 7.596104e+002
6.042017e+002, 7.608914e+002
6.046838e+002, 7.613456e+002
6.051660e+002, 7.605450e+002
6.056481e+002, 7.595963e+002
6.061302e+002, 7.605413e+002
6.066123e+002, 7.630183e+002
6.070944e+002, 7.653480e+002
6.075765e+002, 7.670144e+002
6.080587e+002, 7.681334e+002
6.085408e+002, 7.685253e+002
6.090229e+002, 7.684166e+002
6.095050e+002, 7.686425e+002
6.099871e+002, 7.699249e+002
6.104692e+002, 7.714279e+002
6.109514e+002, 7.725798e+002
6.114335e+002, 7.733168e+002
6.119156e+002, 7.742973e+002
6.123977e+002, 7.758765e+002
6.128798e+002, 7.775656e+002
6.133619e+002, 7.791056e+002
6.138441e+002, 7.806887e+002
6.143262e+002, 7.816526e+002
6.148083e+002, 7.817878e+002
6.152904e+002, 7.816132e+002
6.157725e+002, 7.816159e+002
6.162546e+002, 7.817732e+002
6.167368e+002, 7.826736e+002
6.172189e+002, 7.845970e+002
6.177010e+002, 7.870719e+002
6.181831e+002, 7.893967e+002
6.186652e+002, 7.915513e+002
6.191473e+002, 7.934547e+002
6.196295e+002, 7.946682e+002
6.201116e+002, 7.958607e+002
6.205937e+002, 7.980804e+002
6.210758e+002, 8.010297e+002
6.215579e+002, 8.032842e+002
6.220400e+002, 8.030639e+002
6.225222e+002, 8.027412e+002
6.230043e+002, 8.037491e+002
6.234864e+002, 8.064435e+002
6.239685e+002, 8.091686e+002
6.244506e+002, 8.117691e+002
6.249327e+002, 8.143368e+002
6.254149e+002, 8.169030e+002
6.258970e+002, 8.193281e+002
6.263791e+002, 8.220858e+002
6.268612e+002, 8.251909e+002
6.273433e+002, 8.286306e+002
6.278254e+002, 8.323718e+002
6.283076e+002, 8.364177e+002
6.287897e+002, 8.408452e+002
6.292718e+002, 8.456836e+002
6.297539e+002, 8.509216e+002
6.302360e+002, 8.562601e+002
6.307181e+002, 8.618961e+002
6.312003e+002, 8.683939e+002
6.316824e+002, 8.759658e+002
6.321645e+002, 8.846089e+002
6.326466e+002, 8.940778e+002
6.331287e+002, 9.045308e+002
6.336108e+002, 9.163945e+002
6.340930e+002, 9.295001e+002
6.345751e+002, 9.444846e+002
6.350572e+002, 9.615103e+002
6.355393e+002, 9.806502e+002
6.360214e+002, 1.002010e+003
6.365035e+002, 1.026330e+003
6.369857e+002, 1.052066e+003
6.374678e+002, 1.077749e+003
6.379499e+002, 1.103047e+003
6.384320e+002, 1.129976e+003
6.389141e+002, 1.158450e+003
6.393962e+002, 1.188364e+003
6.398784e+002, 1.219104e+003
6.403605e+002, 1.250787e+003
6.408426e+002, 1.285156e+003
6.413247e+002, 1.322167e+003
6.418068e+002, 1.362351e+003
6.422889e+002, 1.406184e+003
6.427711e+002, 1.453771e+003
6.432532e+002, 1.506521e+003
6.437353e+002, 1.564972e+003
6.442174e+002, 1.628016e+003
6.446995e+002, 1.695938e+003
6.451816e+002, 1.768224e+003
6.456638e+002, 1.843185e+003
6.461459e+002, 1.920712e+003
6.466280e+002, 2.000692e+003
6.471101e+002, 2.084958e+003
6.475922e+002, 2.173217e+003
6.480743e+002, 2.259695e+003
6.485565e+002, 2.345426e+003
6.490386e+002, 2.425060e+003
6.495207e+002, 2.498510e+003
6.500028e+002, 2.563536e+003
6.504849e+002, 2.600969e+003
6.509670e+002, 2.609827e+003
6.514492e+002, 2.585984e+003
6.519313e+002, 2.517801e+003
6.524134e+002, 2.414526e+003
6.528955e+002, 2.292876e+003
6.533776e+002, 2.147928e+003
6.538597e+002, 2.001559e+003
6.543419e+002, 1.861511e+003
6.548240e+002, 1.729702e+003
6.553061e+002, 1.611449e+003
6.557882e+002, 1.509823e+003
6.562703e+002, 1.420037e+003
6.567524e+002, 1.342295e+003
6.572346e+002, 1.275457e+003
6.577167e+002, 1.217189e+003
6.581988e+002, 1.168071e+003
6.586809e+002, 1.126325e+003
6.591630e+002, 1.092043e+003
6.596451e+002, 1.064682e+003
6.601273e+002, 1.041935e+003
6.606094e+002, 1.023654e+003
6.610915e+002, 1.007560e+003
6.615736e+002, 9.917335e+002
6.620557e+002, 9.768484e+002
6.625378e+002, 9.644415e+002
6.630200e+002, 9.545752e+002
6.635021e+002, 9.459971e+002
6.639842e+002, 9.378166e+002
6.644663e+002, 9.304799e+002
6.649484e+002, 9.246500e+002
6.654305e+002, 9.208547e+002
6.659127e+002, 9.171959e+002
6.663948e+002, 9.129127e+002
6.668769e+002, 9.087454e+002
6.673590e+002, 9.054207e+002
6.678411e+002, 9.033177e+002
6.683232e+002, 9.013859e+002
6.688054e+002, 8.996515e+002
6.692875e+002, 8.979793e+002
6.697696e+002, 8.960307e+002
6.702517e+002, 8.937921e+002
6.707338e+002, 8.919139e+002
6.712159e+002, 8.906684e+002
6.716981e+002, 8.897947e+002
6.721802e+002, 8.887715e+002
6.726623e+002, 8.877217e+002
6.731444e+002, 8.870564e+002
6.736265e+002, 8.873113e+002
6.741086e+002, 8.877833e+002
6.745908e+002, 8.878851e+002
6.750729e+002, 8.876960e+002
6.755550e+002, 8.877869e+002
6.760371e+002, 8.879026e+002
6.765192e+002, 8.887624e+002
6.770013e+002, 8.909161e+002
6.774835e+002, 8.945154e+002
6.779656e+002, 8.977474e+002
6.784477e+002, 9.004981e+002
6.789298e+002, 9.031434e+002
6.794119e+002, 9.058685e+002
6.798940e+002, 9.087031e+002
6.803762e+002, 9.115901e+002
6.808583e+002, 9.145201e+002
6.813404e+002, 9.177335e+002
6.818225e+002, 9.213170e+002
6.823046e+002, 9.254115e+002
6.827867e+002, 9.303380e+002
6.832689e+002, 9.360110e+002
6.837510e+002, 9.429250e+002
6.842331e+002, 9.515436e+002
6.847152e+002, 9.614738e+002
6.851973e+002, 9.720184e+002
6.856794e+002, 9.830909e+002
6.861616e+002, 9.948220e+002
6.866437e+002, 1.006469e+003
6.871258e+002, 1.019055e+003
6.876079e+002, 1.033954e+003
6.880900e+002, 1.049839e+003
6.885721e+002, 1.071528e+003
6.890543e+002, 1.102333e+003
6.895364e+002, 1.137979e+003
6.900185e+002, 1.170167e+003
6.905006e+002, 1.198334e+003
6.909827e+002, 1.212149e+003
6.914648e+002, 1.203448e+003
6.919470e+002, 1.178709e+003
6.924291e+002, 1.141865e+003
6.929112e+002, 1.095594e+003
6.933933e+002, 1.054905e+003
6.938754e+002, 1.029699e+003
6.943575e+002, 1.011113e+003
6.948397e+002, 9.938163e+002
6.953218e+002, 9.772291e+002
6.958039e+002, 9.630402e+002
6.962860e+002, 9.517955e+002
6.967681e+002, 9.425762e+002
6.972502e+002, 9.347491e+002
6.977324e+002, 9.280917e+002
6.982145e+002, 9.246459e+002
6.986966e+002, 9.251476e+002
6.991787e+002, 9.268019e+002
6.996608e+002, 9.271600e+002
7.001429e+002, 9.263384e+002
7.006251e+002, 9.248411e+002
7.011072e+002, 9.226691e+002
7.015893e+002, 9.201501e+002
7.020714e+002, 9.171010e+002
7.025535e+002, 9.140569e+002
7.030356e+002, 9.117728e+002
7.035178e+002, 9.103943e+002
7.039999e+002, 9.099529e+002
7.044820e+002, 9.113932e+002
7.049641e+002, 9.135128e+002
7.054462e+002, 9.143852e+002
7.059283e+002, 9.125936e+002
7.064105e+002, 9.117058e+002
7.068926e+002, 9.124515e+002
7.073747e+002, 9.141967e+002
7.078568e+002, 9.154302e+002
7.083389e+002, 9.161212e+002
7.088210e+002, 9.168585e+002
7.093032e+002, 9.178737e+002
7.097853e+002, 9.190418e+002
7.102674e+002, 9.202431e+002
7.107495e+002, 9.214105e+002
7.112316e+002, 9.222045e+002
7.117137e+002, 9.218903e+002
7.121959e+002, 9.215867e+002
7.126780e+002, 9.219988e+002
7.131601e+002, 9.231376e+002
7.136422e+002, 9.248613e+002
7.141243e+002, 9.278429e+002
7.146064e+002, 9.307275e+002
7.150886e+002, 9.328754e+002
7.155707e+002, 9.342733e+002
7.160528e+002, 9.360186e+002
7.165349e+002, 9.381944e+002
7.170170e+002, 9.405521e+002
7.174991e+002, 9.431135e+002
7.179813e+002, 9.457916e+002
7.184634e+002, 9.479620e+002
7.189455e+002, 9.495824e+002
7.194276e+002, 9.511579e+002
7.199097e+002, 9.531761e+002
7.203918e+002, 9.553942e+002
7.208740e+002, 9.576440e+002
7.213561e+002, 9.600620e+002
7.218382e+002, 9.615781e+002
7.223203e+002, 9.607413e+002
7.228024e+002, 9.593311e+002
7.232845e+002, 9.589183e+002
7.237667e+002, 9.601995e+002
7.242488e+002, 9.615470e+002
7.247309e+002, 9.631387e+002
7.252130e+002, 9.646097e+002
7.256951e+002, 9.652917e+002
7.261772e+002, 9.650726e+002
7.266594e+002, 9.658307e+002
7.271415e+002, 9.680154e+002
7.276236e+002, 9.707485e+002
7.281057e+002, 9.729951e+002
7.285878e+002, 9.748373e+002
7.290699e+002, 9.765170e+002
7.295521e+002, 9.781622e+002
7.300342e+002, 9.796014e+002
7.305163e+002, 9.808832e+002
7.309984e+002, 9.818566e+002
7.314805e+002, 9.822491e+002
7.319626e+002, 9.819905e+002
7.324448e+002, 9.811107e+002
7.329269e+002, 9.793480e+002
7.334090e+002, 9.770555e+002
7.338911e+002, 9.752355e+002
7.343732e+002, 9.739813e+002
7.348553e+002, 9.729007e+002
7.353375e+002, 9.719308e+002
7.358196e+002, 9.710103e+002
7.363017e+002, 9.698344e+002
7.367838e+002, 9.684903e+002
7.372659e+002, 9.675079e+002
7.377480e+002, 9.674879e+002
7.382302e+002, 9.677283e+002
7.387123e+002, 9.676472e+002
7.391944e+002, 9.672520e+002
7.396765e+002, 9.666525e+002
7.401586e+002, 9.650502e+002
7.406407e+002, 9.640410e+002
7.411229e+002, 9.646928e+002
7.416050e+002, 9.669014e+002
7.420871e+002, 9.683387e+002
7.425692e+002, 9.686794e+002
7.430513e+002, 9.690463e+002
7.435334e+002, 9.701473e+002
7.440156e+002, 9.718624e+002
7.444977e+002, 9.730107e+002
7.449798e+002, 9.736000e+002
7.454619e+002, 9.742744e+002
7.459440e+002, 9.759786e+002
7.464261e+002, 9.778124e+002
7.469083e+002, 9.784249e+002
7.473904e+002, 9.776750e+002
7.478725e+002, 9.771650e+002
7.483546e+002, 9.777716e+002
7.488367e+002, 9.787712e+002
7.493188e+002, 9.797624e+002
7.498010e+002, 9.807931e+002
7.502831e+002, 9.813324e+002
7.507652e+002, 9.810246e+002
7.512473e+002, 9.807502e+002
7.517294e+002, 9.813586e+002
7.522115e+002, 9.828288e+002
7.526937e+002, 9.839241e+002
7.531758e+002, 9.845801e+002
7.536579e+002, 9.848768e+002
7.541400e+002, 9.844353e+002
7.546221e+002, 9.838524e+002
7.551042e+002, 9.843286e+002
7.555864e+002, 9.864572e+002
7.560685e+002, 9.881842e+002
7.565506e+002, 9.876852e+002
7.570327e+002, 9.866213e+002
7.575148e+002, 9.866805e+002
7.579969e+002, 9.894953e+002
7.584791e+002, 9.912100e+002
7.589612e+002, 9.913803e+002
7.594433e+002, 9.909355e+002
7.599254e+002, 9.909874e+002
7.604075e+002, 9.915512e+002
7.608896e+002, 9.919580e+002
7.613718e+002, 9.919718e+002
7.618539e+002, 9.921906e+002
7.623360e+002, 9.939039e+002
7.628181e+002, 9.963478e+002
7.633002e+002, 9.978674e+002
7.637823e+002, 9.975555e+002
7.642645e+002, 9.970067e+002
7.647466e+002, 9.966603e+002
7.652287e+002, 9.967695e+002
7.657108e+002, 9.977298e+002
7.661929e+002, 1.000876e+003
7.666750e+002, 1.003057e+003
7.671572e+002, 1.003582e+003
7.676393e+002, 1.003340e+003
7.681214e+002, 1.004180e+003
7.686035e+002, 1.006221e+003
7.690856e+002, 1.007521e+003
7.695677e+002, 1.007320e+003
7.700499e+002, 1.006672e+003
7.705320e+002, 1.007211e+003
7.710141e+002, 1.008620e+003
7.714962e+002, 1.010103e+003
7.719783e+002, 1.011617e+003
7.724604e+002, 1.012793e+003
7.729426e+002, 1.013315e+003
7.734247e+002, 1.013352e+003
7.739068e+002, 1.013263e+003
7.743889e+002, 1.012446e+003
7.748710e+002, 1.012506e+003
7.753531e+002, 1.014162e+003
7.758353e+002, 1.016678e+003
7.763174e+002, 1.017776e+003
7.767995e+002, 1.017384e+003
7.772816e+002, 1.017106e+003
7.777637e+002, 1.017495e+003
7.782458e+002, 1.018390e+003
7.787280e+002, 1.019838e+003
7.792101e+002, 1.021622e+003
7.796922e+002, 1.023006e+003
7.801743e+002, 1.023603e+003
7.806564e+002, 1.023762e+003
7.811385e+002, 1.023271e+003
7.816207e+002, 1.022401e+003
7.821028e+002, 1.022332e+003
7.825849e+002, 1.023365e+003
7.830670e+002, 1.024794e+003
7.835491e+002, 1.026610e+003
7.840313e+002, 1.028627e+003
7.845134e+002, 1.030206e+003
7.849955e+002, 1.031348e+003
7.854776e+002, 1.031969e+003
7.859597e+002, 1.031544e+003
7.864418e+002, 1.030917e+003
7.869240e+002, 1.031764e+003
7.874061e+002, 1.033665e+003
7.878882e+002, 1.035083e+003
7.883703e+002, 1.034579e+003
7.888524e+002, 1.034017e+003
7.893345e+002, 1.034537e+003
7.898167e+002, 1.035969e+003
7.902988e+002, 1.036620e+003
7.907809e+002, 1.035793e+003
7.912630e+002, 1.035493e+003
7.917451e+002, 1.036664e+003
7.922272e+002, 1.038858e+003
7.927094e+002, 1.040063e+003
7.931915e+002, 1.040308e+003
7.936736e+002, 1.040461e+003
7.941557e+002, 1.041082e+003
7.946378e+002, 1.041842e+003
7.951199e+002, 1.042343e+003
7.956021e+002, 1.042602e+003
7.960842e+002, 1.042744e+003
7.965663e+002, 1.042317e+003
7.970484e+002, 1.042261e+003
7.975305e+002, 1.043303e+003
7.980126e+002, 1.045256e+003
7.984948e+002, 1.046490e+003
7.989769e+002, 1.046602e+003
7.994590e+002, 1.047000e+003
7.999411e+002, 1.048447e+003
8.004232e+002, 1.050603e+003
8.009053e+002, 1.051954e+003
8.013875e+002, 1.052591e+003
8.018696e+002, 1.053360e+003
8.023517e+002, 1.055117e+003
8.028338e+002, 1.057023e+003
8.033159e+002, 1.058188e+003
8.037980e+002, 1.058703e+003
8.042802e+002, 1.059196e+003
8.047623e+002, 1.060015e+003
8.052444e+002, 1.060659e+003
8.057265e+002, 1.060731e+003
8.062086e+002, 1.060357e+003
8.066907e+002, 1.060880e+003
8.071729e+002, 1.062534e+003
8.076550e+002, 1.063993e+003
8.081371e+002, 1.064339e+003
8.086192e+002, 1.064152e+003
8.091013e+002, 1.065195e+003
8.095834e+002, 1.067254e+003
8.100656e+002, 1.069103e+003
8.105477e+002, 1.070144e+003
8.110298e+002, 1.070628e+003
8.115119e+002, 1.070450e+003
8.119940e+002, 1.069759e+003
8.124761e+002, 1.069544e+003
8.129583e+002, 1.070434e+003
8.134404e+002, 1.071222e+003
8.139225e+002, 1.071355e+003
8.144046e+002, 1.071070e+003
8.148867e+002, 1.071931e+003
8.153688e+002, 1.073983e+003
8.158510e+002, 1.076119e+003
8.163331e+002, 1.077819e+003
8.168152e+002, 1.079201e+003
8.172973e+002, 1.080304e+003
8.177794e+002, 1.081200e+003
8.182615e+002, 1.082197e+003
8.187437e+002, 1.083225e+003
8.192258e+002, 1.084565e+003
8.197079e+002, 1.086789e+003
8.201900e+002, 1.089620e+003
8.206721e+002, 1.091128e+003
8.211542e+002, 1.090675e+003
8.216364e+002, 1.090278e+003
8.221185e+002, 1.090515e+003
8.226006e+002, 1.091333e+003
8.230827e+002, 1.092905e+003
8.235648e+002, 1.095093e+003
8.240469e+002, 1.096829e+003
8.245291e+002, 1.097034e+003
8.250112e+002, 1.096961e+003
8.254933e+002, 1.097917e+003
8.259754e+002, 1.099631e+003
8.264575e+002, 1.101221e+003
8.269396e+002, 1.102631e+003
8.274218e+002, 1.103619e+003
8.279039e+002, 1.103948e+003
8.283860e+002, 1.103853e+003
8.288681e+002, 1.104153e+003
8.293502e+002, 1.104940e+003
8.298323e+002, 1.105605e+003
8.303145e+002, 1.106036e+003
8.307966e+002, 1.106105e+003
8.312787e+002, 1.105250e+003
8.317608e+002, 1.103776e+003
8.322429e+002, 1.102674e+003
8.327250e+002, 1.102159e+003
8.332072e+002, 1.102361e+003
8.336893e+002, 1.104190e+003
8.341714e+002, 1.106775e+003
8.346535e+002, 1.107656e+003
8.351356e+002, 1.105208e+003
8.356177e+002, 1.103881e+003
8.360999e+002, 1.104793e+003
8.365820e+002, 1.106943e+003
8.370641e+002, 1.108081e+003
8.375462e+002, 1.108290e+003
8.380283e+002, 1.108479e+003
8.385104e+002, 1.108884e+003
8.389926e+002, 1.109486e+003
8.394747e+002, 1.110271e+003
8.399568e+002, 1.111229e+003
8.404389e+002, 1.112363e+003
8.409210e+002, 1.114102e+003
8.414031e+002, 1.115461e+003
8.418853e+002, 1.115928e+003
8.423674e+002, 1.116017e+003
8.428495e+002, 1.116323e+003
8.433316e+002, 1.116738e+003
8.438137e+002, 1.118034e+003
8.442958e+002, 1.120625e+003
8.447780e+002, 1.123378e+003
8.452601e+002, 1.124501e+003
8.457422e+002, 1.124479e+003
8.462243e+002, 1.124499e+003
8.467064e+002, 1.124876e+003
8.471885e+002, 1.125354e+003
8.476707e+002, 1.125929e+003
8.481528e+002, 1.126468e+003
8.486349e+002, 1.126787e+003
8.491170e+002, 1.126443e+003
8.495991e+002, 1.126794e+003
8.500812e+002, 1.128249e+003
8.505634e+002, 1.129842e+003
8.510455e+002, 1.130427e+003
8.515276e+002, 1.130136e+003
8.520097e+002, 1.129714e+003
8.524918e+002, 1.129163e+003
8.529739e+002, 1.129234e+003
8.534561e+002, 1.131479e+003
8.539382e+002, 1.134269e+003
8.544203e+002, 1.135552e+003
8.549024e+002, 1.134282e+003
8.553845e+002, 1.133831e+003
8.558666e+002, 1.135568e+003
8.563488e+002, 1.137664e+003
8.568309e+002, 1.138678e+003
8.573130e+002, 1.138268e+003
8.577951e+002, 1.139629e+003
8.582772e+002, 1.142989e+003
8.587593e+002, 1.146386e+003
8.592415e+002, 1.148184e+003
8.597236e+002, 1.148810e+003
8.602057e+002, 1.148664e+003
8.606878e+002, 1.147797e+003
8.611699e+002, 1.147519e+003
8.616520e+002, 1.149289e+003
8.621342e+002, 1.151167e+003
8.626163e+002, 1.151854e+003
8.630984e+002, 1.151306e+003
8.635805e+002, 1.151059e+003
8.640626e+002, 1.151214e+003
8.645447e+002, 1.151460e+003
8.650269e+002, 1.151681e+003
8.655090e+002, 1.151876e+003
8.659911e+002, 1.151975e+003
8.664732e+002, 1.152004e+003
8.669553e+002, 1.152065e+003
8.674374e+002, 1.151953e+003
8.679196e+002, 1.152133e+003
8.684017e+002, 1.153039e+003
8.688838e+002, 1.154580e+003
8.693659e+002, 1.156102e+003
8.698480e+002, 1.157505e+003
8.703301e+002, 1.158898e+003
8.708123e+002, 1.160412e+003
8.712944e+002, 1.161868e+003
8.717765e+002, 1.162572e+003
8.722586e+002, 1.162570e+003
8.727407e+002, 1.162604e+003
8.732228e+002, 1.162953e+003
8.737050e+002, 1.163514e+003
8.741871e+002, 1.164240e+003
8.746692e+002, 1.165097e+003
8.751513e+002, 1.166023e+003
8.756334e+002, 1.167659e+003
8.761155e+002, 1.168487e+003
8.765977e+002, 1.167692e+003
8.770798e+002, 1.166375e+003
8.775619e+002, 1.166734e+003
8.780440e+002, 1.168925e+003
8.785261e+002, 1.170599e+003
8.790082e+002, 1.171149e+003
8.794904e+002, 1.171447e+003
8.799725e+002, 1.172983e+003
8.804546e+002, 1.175006e+003
8.809367e+002, 1.176077e+003
8.814188e+002, 1.175137e+003
8.819009e+002, 1.174666e+003
8.823831e+002, 1.176092e+003
8.828652e+002, 1.178058e+003
8.833473e+002, 1.179088e+003
8.838294e+002, 1.178800e+003
8.843115e+002, 1.179220e+003
8.847936e+002, 1.180584e+003
8.852758e+002, 1.182078e+003
8.857579e+002, 1.182758e+003
8.862400e+002, 1.182974e+003
8.867221e+002, 1.183349e+003
8.872042e+002, 1.183936e+003
8.876863e+002, 1.185252e+003
8.881685e+002, 1.188332e+003
8.886506e+002, 1.191687e+003
8.891327e+002, 1.194068e+003
8.896148e+002, 1.195188e+003
8.900969e+002, 1.197311e+003
8.905790e+002, 1.200807e+003
8.910612e+002, 1.204337e+003
8.915433e+002, 1.207024e+003
8.920254e+002, 1.209080e+003
8.925075e+002, 1.211389e+003
8.929896e+002, 1.213875e+003
8.934717e+002, 1.215970e+003
8.939539e+002, 1.216635e+003
8.944360e+002, 1.217430e+003
8.949181e+002, 1.219544e+003
8.954002e+002, 1.222841e+003
8.958823e+002, 1.226052e+003
8.963644e+002, 1.229305e+003
8.968466e+002, 1.232072e+003
8.973287e+002, 1.233817e+003
8.978108e+002, 1.235381e+003
8.982929e+002, 1.239564e+003
8.987750e+002, 1.245933e+003
8.992571e+002, 1.251710e+003
8.997393e+002, 1.255700e+003
9.002214e+002, 1.258917e+003
9.007035e+002, 1.261312e+003
9.011856e+002, 1.263687e+003
9.016677e+002, 1.267338e+003
9.021498e+002, 1.274037e+003
9.026320e+002, 1.280020e+003
9.031141e+002, 1.284962e+003
9.035962e+002, 1.289221e+003
9.040783e+002, 1.293539e+003
9.045604e+002, 1.297801e+003
9.050425e+002, 1.300162e+003
9.055247e+002, 1.300326e+003
9.060068e+002, 1.298760e+003
9.064889e+002, 1.294788e+003
9.069710e+002, 1.289948e+003
9.074531e+002, 1.285848e+003
9.079352e+002, 1.282656e+003
9.084174e+002, 1.280610e+003
9.088995e+002, 1.280643e+003
9.093816e+002, 1.280715e+003
9.098637e+002, 1.279234e+003
9.103458e+002, 1.276192e+003
9.108279e+002, 1.275254e+003
9.113101e+002, 1.276445e+003
9.117922e+002, 1.278303e+003
9.122743e+002, 1.279989e+003
9.127564e+002, 1.281616e+003
9.132385e+002, 1.282939e+003
9.137206e+002, 1.284134e+003
9.142028e+002, 1.286461e+003
9.146849e+002, 1.291060e+003
9.151670e+002, 1.296042e+003
9.156491e+002, 1.301136e+003
9.161312e+002, 1.306134e+003
9.166133e+002, 1.310139e+003
9.170955e+002, 1.313167e+003
9.175776e+002, 1.315760e+003
9.180597e+002, 1.318027e+003
9.185418e+002, 1.320178e+003
9.190239e+002, 1.322961e+003
9.195060e+002, 1.325754e+003
9.199882e+002, 1.327314e+003
9.204703e+002, 1.326572e+003
9.209524e+002, 1.325389e+003
9.214345e+002, 1.323813e+003
9.219166e+002, 1.322147e+003
9.223987e+002, 1.320839e+003
9.228809e+002, 1.319904e+003
9.233630e+002, 1.318556e+003
9.238451e+002, 1.316583e+003
9.243272e+002, 1.314785e+003
9.248093e+002, 1.313871e+003
9.252914e+002, 1.313741e+003
9.257736e+002, 1.314261e+003
9.262557e+002, 1.315389e+003
9.267378e+002, 1.317360e+003
9.272199e+002, 1.320759e+003
9.277020e+002, 1.324582e+003
9.281841e+002, 1.328451e+003
9.286663e+002, 1.332360e+003
9.291484e+002, 1.335885e+003
9.296305e+002, 1.339028e+003
9.301126e+002, 1.342501e+003
9.305947e+002, 1.347196e+003
9.310768e+002, 1.352253e+003
9.315590e+002, 1.356547e+003
9.320411e+002, 1.360212e+003
9.325232e+002, 1.363617e+003
9.330053e+002, 1.367448e+003
9.334874e+002, 1.370371e+003
9.339695e+002, 1.371773e+003
9.344517e+002, 1.372254e+003
9.349338e+002, 1.373078e+003
9.354159e+002, 1.374230e+003
9.358980e+002, 1.376588e+003
9.363801e+002, 1.380605e+003
9.368622e+002, 1.385253e+003
9.373444e+002, 1.389460e+003
9.378265e+002, 1.393364e+003
9.383086e+002, 1.397207e+003
9.387907e+002, 1.400946e+003
9.392728e+002, 1.404807e+003
9.397549e+002, 1.409816e+003
9.402371e+002, 1.413910e+003
9.407192e+002, 1.415640e+003
9.412013e+002, 1.414975e+003
9.416834e+002, 1.411389e+003
9.421655e+002, 1.404771e+003
9.426476e+002, 1.397303e+003
9.431298e+002, 1.390750e+003
9.436119e+002, 1.384431e+003
9.440940e+002, 1.377395e+003
9.445761e+002, 1.369571e+003
9.450582e+002, 1.362155e+003
9.455403e+002, 1.355059e+003
9.460225e+002, 1.348893e+003
9.465046e+002, 1.343933e+003
9.469867e+002, 1.340069e+003
9.474688e+002, 1.336713e+003
9.479509e+002, 1.333925e+003
9.484330e+002, 1.331924e+003
9.489152e+002, 1.331037e+003
9.493973e+002, 1.330661e+003
9.498794e+002, 1.330517e+003
9.503615e+002, 1.330401e+003
9.508436e+002, 1.329954e+003
9.513257e+002, 1.328660e+003
9.518079e+002, 1.327655e+003
9.522900e+002, 1.327058e+003
9.527721e+002, 1.326696e+003
9.532542e+002, 1.326348e+003
9.537363e+002, 1.326038e+003
9.542184e+002, 1.325960e+003
9.547006e+002, 1.326143e+003
9.551827e+002, 1.326512e+003
9.556648e+002, 1.327167e+003
9.561469e+002, 1.327891e+003
9.566290e+002, 1.328398e+003
9.571111e+002, 1.328609e+003
9.575933e+002, 1.329324e+003
9.580754e+002, 1.330691e+003
9.585575e+002, 1.332332e+003
9.590396e+002, 1.334163e+003
9.595217e+002, 1.336079e+003
9.600038e+002, 1.337666e+003
9.604860e+002, 1.338999e+003
9.609681e+002, 1.340468e+003
9.614502e+002, 1.342142e+003
9.619323e+002, 1.344132e+003
9.624144e+002, 1.346717e+003
9.628965e+002, 1.349607e+003
9.633787e+002, 1.352095e+003
9.638608e+002, 1.353975e+003
9.643429e+002, 1.355881e+003
9.648250e+002, 1.357798e+003
9.653071e+002, 1.359987e+003
9.657892e+002, 1.363064e+003
9.662714e+002, 1.366627e+003
9.667535e+002, 1.369717e+003
9.672356e+002, 1.372103e+003
9.677177e+002, 1.374291e+003
9.681998e+002, 1.375136e+003
9.686819e+002, 1.377021e+003
9.691641e+002, 1.381968e+003
9.696462e+002, 1.390248e+003
9.701283e+002, 1.397811e+003
9.706104e+002, 1.404628e+003
9.710925e+002, 1.411391e+003
9.715746e+002, 1.417657e+003
9.720568e+002, 1.424705e+003
9.725389e+002, 1.434885e+003
9.730210e+002, 1.447939e+003
9.735031e+002, 1.462723e+003
9.739852e+002, 1.478120e+003
9.744673e+002, 1.496033e+003
9.749495e+002, 1.517004e+003
9.754316e+002, 1.540767e+003
9.759137e+002, 1.566630e+003
9.763958e+002, 1.594459e+003
9.768779e+002, 1.625316e+003
9.773600e+002, 1.659721e+003
9.778422e+002, 1.695414e+003
9.783243e+002, 1.728802e+003
9.788064e+002, 1.763197e+003
9.792885e+002, 1.802269e+003
9.797706e+002, 1.846894e+003
9.802527e+002, 1.895073e+003
9.807349e+002, 1.943839e+003
9.812170e+002, 1.999457e+003
9.816991e+002, 2.063691e+003
9.821812e+002, 2.136870e+003
9.826633e+002, 2.220099e+003
9.831454e+002, 2.313295e+003
9.836276e+002, 2.415649e+003
9.841097e+002, 2.527530e+003
9.845918e+002, 2.648024e+003
9.850739e+002, 2.781784e+003
9.855560e+002, 2.922604e+003
9.860381e+002, 3.053965e+003
9.865203e+002, 3.187913e+003
9.870024e+002, 3.288546e+003
9.874845e+002, 3.356203e+003
9.879666e+002, 3.379645e+003
9.884487e+002, 3.335483e+003
9.889308e+002, 3.234130e+003
9.894130e+002, 3.097659e+003
9.898951e+002, 2.925773e+003
9.903772e+002, 2.752063e+003
9.908593e+002, 2.586997e+003
9.913414e+002, 2.434890e+003
9.918235e+002, 2.298800e+003
9.923057e+002, 2.177224e+003
9.927878e+002, 2.071868e+003
9.932699e+002, 1.982055e+003
9.937520e+002, 1.905776e+003
9.942341e+002, 1.843412e+003
9.947162e+002, 1.792599e+003
9.951984e+002, 1.752462e+003
9.956805e+002, 1.720914e+003
9.961626e+002, 1.693426e+003
9.966447e+002, 1.667004e+003
9.971268e+002, 1.645929e+003
9.976089e+002, 1.631640e+003
9.980911e+002, 1.621977e+003
9.985732e+002, 1.614807e+003
9.990553e+002, 1.610076e+003
9.995374e+002, 1.605338e+003
1.000020e+003, 1.600252e+003
1.000502e+003, 1.596246e+003
1.000984e+003, 1.595131e+003
1.001466e+003, 1.595494e+003
1.001948e+003, 1.595766e+003
1.002430e+003, 1.595645e+003
1.002912e+003, 1.597595e+003
1.003394e+003, 1.602748e+003
1.003876e+003, 1.607893e+003
1.004359e+003, 1.611641e+003
1.004841e+003, 1.614487e+003
1.005323e+003, 1.617579e+003
1.005805e+003, 1.620999e+003
1.006287e+003, 1.624941e+003
1.006769e+003, 1.630118e+003
1.007251e+003, 1.635136e+003
1.007733e+003, 1.639116e+003
1.008216e+003, 1.642553e+003
1.008698e+003, 1.646063e+003
1.009180e+003, 1.649714e+003
1.009662e+003, 1.653478e+003
1.010144e+003, 1.657512e+003
1.010626e+003, 1.660799e+003
1.011108e+003, 1.662137e+003
1.011590e+003, 1.662076e+003
1.012072e+003, 1.661466e+003
1.012555e+003, 1.660330e+003
1.013037e+003, 1.658113e+003
1.013519e+003, 1.655045e+003
1.014001e+003, 1.650251e+003
1.014483e+003, 1.643360e+003
1.014965e+003, 1.634537e+003
1.015447e+003, 1.624112e+003
1.015929e+003, 1.612173e+003
1.016411e+003, 1.599853e+003
1.016894e+003, 1.587082e+003
1.017376e+003, 1.575172e+003
1.017858e+003, 1.566142e+003
1.018340e+003, 1.558366e+003
1.018822e+003, 1.549837e+003
1.019304e+003, 1.539314e+003
1.019786e+003, 1.530506e+003
1.020268e+003, 1.523752e+003
1.020751e+003, 1.517861e+003
1.021233e+003, 1.511862e+003
1.021715e+003, 1.506024e+003
1.022197e+003, 1.500890e+003
1.022679e+003, 1.496557e+003
1.023161e+003, 1.493625e+003
1.023643e+003, 1.494119e+003
1.024125e+003, 1.494129e+003
1.024607e+003, 1.491149e+003
1.025090e+003, 1.486955e+003
1.025572e+003, 1.485429e+003
1.026054e+003, 1.486732e+003
1.026536e+003, 1.487987e+003
1.027018e+003, 1.488513e+003
1.027500e+003, 1.489479e+003
1.027982e+003, 1.492229e+003
1.028464e+003, 1.496059e+003
1.028947e+003, 1.500182e+003
1.029429e+003, 1.504416e+003
1.029911e+003, 1.509254e+003
1.030393e+003, 1.514837e+003
1.030875e+003, 1.520885e+003
1.031357e+003, 1.527310e+003
1.031839e+003, 1.534055e+003
1.032321e+003, 1.540278e+003
1.032803e+003, 1.546379e+003
1.033286e+003, 1.554256e+003
1.033768e+003, 1.565304e+003
1.034250e+003, 1.577698e+003
1.034732e+003, 1.590611e+003
1.035214e+003, 1.604626e+003
1.035696e+003, 1.620082e+003
1.036178e+003, 1.636941e+003
1.036660e+003, 1.656315e+003
1.037143e+003, 1.678723e+003
1.037625e+003, 1.702094e+003
1.038107e+003, 1.726641e+003
1.038589e+003, 1.750440e+003
1.039071e+003, 1.772193e+003
1.039553e+003, 1.791601e+003
1.040035e+003, 1.803720e+003
1.040517e+003, 1.807813e+003
1.041000e+003, 1.804005e+003
1.041482e+003, 1.791520e+003
1.041964e+003, 1.771914e+003
1.042446e+003, 1.747535e+003
1.042928e+003, 1.719242e+003
1.043410e+003, 1.691057e+003
1.043892e+003, 1.663644e+003
1.044374e+003, 1.638136e+003
1.044856e+003, 1.615563e+003
1.045339e+003, 1.595816e+003
1.045821e+003, 1.578194e+003
1.046303e+003, 1.562358e+003
1.046785e+003, 1.551411e+003
1.047267e+003, 1.545475e+003
1.047749e+003, 1.543452e+003
1.048231e+003, 1.544323e+003
1.048713e+003, 1.548992e+003
1.049195e+003, 1.560462e+003
1.049677e+003, 1.576807e+003
1.050160e+003, 1.592258e+003
1.050642e+003, 1.604429e+003
1.051124e+003, 1.616458e+003
1.051606e+003, 1.628158e+003
1.052088e+003, 1.640626e+003
1.052570e+003, 1.654914e+003
1.053052e+003, 1.671151e+003
1.053534e+003, 1.687750e+003
1.054017e+003, 1.704335e+003
1.054499e+003, 1.728100e+003
1.054981e+003, 1.755118e+003
1.055463e+003, 1.798814e+003
1.055945e+003, 1.869068e+003
1.056427e+003, 1.963097e+003
1.056909e+003, 2.068814e+003
1.057391e+003, 2.185398e+003
1.057874e+003, 2.316596e+003
1.058356e+003, 2.444261e+003
1.058838e+003, 2.628513e+003
1.059320e+003, 3.041097e+003
1.059802e+003, 3.516847e+003
1.060284e+003, 3.841495e+003
1.060766e+003, 3.994435e+003
1.061248e+003, 3.885152e+003
1.061730e+003, 3.413440e+003
1.062213e+003, 2.886800e+003
1.062695e+003, 2.500876e+003
1.063177e+003, 2.238880e+003
1.063659e+003, 2.051862e+003
1.064141e+003, 1.930903e+003
1.064623e+003, 1.839559e+003
1.065105e+003, 1.767761e+003
1.065587e+003, 1.712770e+003
1.066070e+003, 1.676093e+003
1.066552e+003, 1.653716e+003
1.067034e+003, 1.643537e+003
1.067516e+003, 1.645904e+003
1.067998e+003, 1.649893e+003
1.068480e+003, 1.654393e+003
1.068962e+003, 1.658679e+003
1.069444e+003, 1.663691e+003
1.069927e+003, 1.667008e+003
1.070409e+003, 1.666758e+003
1.070891e+003, 1.662570e+003
1.071373e+003, 1.654184e+003
1.071855e+003, 1.640266e+003
1.072337e+003, 1.626150e+003
1.072819e+003, 1.613538e+003
1.073301e+003, 1.601360e+003
1.073783e+003, 1.586441e+003
1.074266e+003, 1.570470e+003
1.074748e+003, 1.556880e+003
1.075230e+003, 1.546881e+003
1.075712e+003, 1.538566e+003
1.076194e+003, 1.532038e+003
1.076676e+003, 1.526272e+003
1.077158e+003, 1.520535e+003
1.077640e+003, 1.514933e+003
1.078122e+003, 1.510379e+003
1.078604e+003, 1.506825e+003
1.079087e+003, 1.503904e+003
1.079569e+003, 1.501735e+003
1.080051e+003, 1.499777e+003
1.080533e+003, 1.497643e+003
1.081015e+003, 1.495566e+003
1.081497e+003, 1.493843e+003
1.081979e+003, 1.492411e+003
1.082461e+003, 1.491899e+003
1.082944e+003, 1.492491e+003
1.083426e+003, 1.493061e+003
1.083908e+003, 1.492181e+003
1.084390e+003, 1.490897e+003
1.084872e+003, 1.490493e+003
1.085354e+003, 1.490989e+003
1.085836e+003, 1.491545e+003
1.086318e+003, 1.492291e+003
1.086801e+003, 1.492577e+003
1.087283e+003, 1.492082e+003
1.087765e+003, 1.491334e+003
1.088247e+003, 1.491481e+003
1.088729e+003, 1.492144e+003
1.089211e+003, 1.492330e+003
1.089693e+003, 1.491787e+003
1.090175e+003, 1.490968e+003
1.090657e+003, 1.489409e+003
1.091140e+003, 1.488279e+003
1.091622e+003, 1.488278e+003
1.092104e+003, 1.489270e+003
1.092586e+003, 1.490295e+003
1.093068e+003, 1.491344e+003
1.093550e+003, 1.492271e+003
1.094032e+003, 1.493118e+003
1.094514e+003, 1.493685e+003
1.094997e+003, 1.493615e+003
1.095479e+003, 1.493277e+003
1.095961e+003, 1.493144e+003
1.096443e+003, 1.493168e+003
1.096925e+003, 1.493802e+003
1.097407e+003, 1.495205e+003
1.097889e+003, 1.496232e+003
1.098371e+003, 1.495523e+003
1.098854e+003, 1.494232e+003
1.099336e+003, 1.493541e+003
1.099818e+003, 1.493522e+003
1.100300e+003, 1.494333e+003
1.100782e+003, 1.496810e+003
1.101264e+003, 1.498722e+003
1.101746e+003, 1.499740e+003
1.102228e+003, 1.500193e+003
1.102710e+003, 1.500430e+003
1.103193e+003, 1.500465e+003
1.103675e+003, 1.500168e+003
1.104157e+003, 1.499538e+003
1.104639e+003, 1.499307e+003
1.105121e+003, 1.500058e+003
1.105603e+003, 1.501007e+003
1.106085e+003, 1.501850e+003
1.106567e+003, 1.502669e+003
1.107049e+003, 1.503865e+003
1.107531e+003, 1.505337e+003
1.108014e+003, 1.506040e+003
1.108496e+003, 1.505343e+003
1.108978e+003, 1.505057e+003
1.109460e+003, 1.506756e+003
1.109942e+003, 1.509190e+003
1.110424e+003, 1.511378e+003
1.110906e+003, 1.513307e+003
1.111388e+003, 1.514664e+003
1.111871e+003, 1.515459e+003
1.112353e+003, 1.515380e+003
1.112835e+003, 1.513413e+003
1.113317e+003, 1.511601e+003
1.113799e+003, 1.513164e+003
1.114281e+003, 1.516139e+003
1.114763e+003, 1.517161e+003
1.115245e+003, 1.513746e+003
1.115728e+003, 1.512627e+003
1.116210e+003, 1.514260e+003
1.116692e+003, 1.516769e+003
1.117174e+003, 1.518932e+003
1.117656e+003, 1.520746e+003
1.118138e+003, 1.522103e+003
1.118620e+003, 1.523075e+003
1.119102e+003, 1.523965e+003
1.119584e+003, 1.524925e+003
1.120067e+003, 1.525626e+003
1.120549e+003, 1.525807e+003
1.121031e+003, 1.525979e+003
1.121513e+003, 1.527185e+003
1.121995e+003, 1.528944e+003
1.122477e+003, 1.529314e+003
1.122959e+003, 1.528150e+003
1.123441e+003, 1.527409e+003
1.123924e+003, 1.528354e+003
1.124406e+003, 1.529738e+003
1.124888e+003, 1.531280e+003
1.125370e+003, 1.532730e+003
1.125852e+003, 1.533292e+003
1.126334e+003, 1.533047e+003
1.126816e+003, 1.532633e+003
1.127298e+003, 1.532112e+003
1.127781e+003, 1.532019e+003
1.128263e+003, 1.533439e+003
1.128745e+003, 1.534945e+003
1.129227e+003, 1.535194e+003
1.129709e+003, 1.534253e+003
1.130191e+003, 1.533669e+003
1.130673e+003, 1.533411e+003
1.131155e+003, 1.534023e+003
1.131637e+003, 1.536235e+003
1.132120e+003, 1.538463e+003
1.132602e+003, 1.538411e+003
1.133084e+003, 1.537573e+003
1.133566e+003, 1.538216e+003
1.134048e+003, 1.541361e+003
1.134530e+003, 1.543169e+003
1.135012e+003, 1.543343e+003
1.135494e+003, 1.543323e+003
1.135976e+003, 1.544154e+003
1.136458e+003, 1.545309e+003
1.136941e+003, 1.545806e+003
1.137423e+003, 1.545952e+003
1.137905e+003, 1.546486e+003
1.138387e+003, 1.548323e+003
1.138869e+003, 1.549364e+003
1.139351e+003, 1.549084e+003
1.139833e+003, 1.548885e+003
1.140315e+003, 1.550657e+003
1.140798e+003, 1.553391e+003
1.141280e+003, 1.554359e+003
1.141762e+003, 1.553790e+003
1.142244e+003, 1.553784e+003
1.142726e+003, 1.556018e+003
1.143208e+003, 1.557788e+003
1.143690e+003, 1.558279e+003
1.144172e+003, 1.558311e+003
1.144655e+003, 1.559388e+003
1.145137e+003, 1.561140e+003
1.145619e+003, 1.561970e+003
1.146101e+003, 1.561682e+003
1.146583e+003, 1.561491e+003
1.147065e+003, 1.561829e+003
1.147547e+003, 1.562797e+003
1.148029e+003, 1.564848e+003
1.148511e+003, 1.567337e+003
1.148994e+003, 1.567932e+003
1.149476e+003, 1.566948e+003
1.149958e+003, 1.567411e+003
1.150440e+003, 1.570350e+003
1.150922e+003, 1.573133e+003
1.151404e+003, 1.573341e+003
1.151886e+003, 1.573063e+003
1.152368e+003, 1.573889e+003
1.152851e+003, 1.575703e+003
1.153333e+003, 1.577359e+003
1.153815e+003, 1.578833e+003
1.154297e+003, 1.580685e+003
1.154779e+003, 1.583409e+003
1.155261e+003, 1.585881e+003
1.155743e+003, 1.587098e+003
1.156225e+003, 1.587411e+003
1.156708e+003, 1.586976e+003
1.157190e+003, 1.585654e+003
1.157672e+003, 1.585083e+003
1.158154e+003, 1.585313e+003
1.158636e+003, 1.585963e+003
1.159118e+003, 1.587221e+003
1.159600e+003, 1.588385e+003
1.160082e+003, 1.588661e+003
1.160564e+003, 1.588315e+003
1.161047e+003, 1.587748e+003
1.161529e+003, 1.586705e+003
1.162011e+003, 1.586301e+003
1.162493e+003, 1.586604e+003
1.162975e+003, 1.587351e+003
1.163457e+003, 1.588551e+003
1.163939e+003, 1.589917e+003
1.164421e+003, 1.591295e+003
1.164903e+003, 1.592480e+003
1.165385e+003, 1.592844e+003
1.165868e+003, 1.591291e+003
1.166350e+003, 1.590699e+003
1.166832e+003, 1.591467e+003
1.167314e+003, 1.592639e+003
1.167796e+003, 1.592824e+003
1.168278e+003, 1.592897e+003
1.168760e+003, 1.594878e+003
1.169242e+003, 1.598494e+003
1.169725e+003, 1.601306e+003
1.170207e+003, 1.602580e+003
1.170689e+003, 1.602934e+003
1.171171e+003, 1.602275e+003
1.171653e+003, 1.601116e+003
1.172135e+003, 1.599490e+003
1.172617e+003, 1.598116e+003
1.173099e+003, 1.599169e+003
1.173582e+003, 1.602813e+003
1.174064e+003, 1.605464e+003
1.174546e+003, 1.604337e+003
1.175028e+003, 1.604010e+003
1.175510e+003, 1.606045e+003
1.175992e+003, 1.608989e+003
1.176474e+003, 1.609822e+003
1.176956e+003, 1.609128e+003
1.177438e+003, 1.608404e+003
1.177921e+003, 1.607853e+003
1.178403e+003, 1.607969e+003
1.178885e+003, 1.609546e+003
1.179367e+003, 1.611227e+003
1.179849e+003, 1.612603e+003
1.180331e+003, 1.613629e+003
1.180813e+003, 1.613991e+003
1.181295e+003, 1.613829e+003
1.181778e+003, 1.613518e+003
1.182260e+003, 1.612918e+003
1.182742e+003, 1.613105e+003
1.183224e+003, 1.615831e+003
1.183706e+003, 1.618141e+003
1.184188e+003, 1.617849e+003
1.184670e+003, 1.615793e+003
1.185152e+003, 1.617308e+003
1.185635e+003, 1.621577e+003
1.186117e+003, 1.624397e+003
1.186599e+003, 1.623354e+003
1.187081e+003, 1.622264e+003
1.187563e+003, 1.623333e+003
1.188045e+003, 1.624773e+003
1.188527e+003, 1.624935e+003
1.189009e+003, 1.624045e+003
1.189491e+003, 1.625844e+003
1.189974e+003, 1.629828e+003
1.190456e+003, 1.632235e+003
1.190938e+003, 1.629586e+003
1.191420e+003, 1.627109e+003
1.191902e+003, 1.627859e+003
1.192384e+003, 1.629701e+003
1.192866e+003, 1.630522e+003
1.193348e+003, 1.630301e+003
1.193830e+003, 1.629914e+003
1.194313e+003, 1.629454e+003
1.194795e+003, 1.630018e+003
1.195277e+003, 1.633384e+003
1.195759e+003, 1.636690e+003
1.196241e+003, 1.638424e+003
1.196723e+003, 1.639119e+003
1.197205e+003, 1.639388e+003
1.197687e+003, 1.639236e+003
1.198169e+003, 1.638585e+003
1.198652e+003, 1.637487e+003
1.199134e+003, 1.637052e+003
1.199616e+003, 1.638961e+003
1.200098e+003, 1.640809e+003
1.200580e+003, 1.641139e+003
1.201062e+003, 1.640471e+003
1.201544e+003, 1.639323e+003
1.202026e+003, 1.637647e+003
1.202509e+003, 1.637717e+003
1.202991e+003, 1.639742e+003
1.203473e+003, 1.642227e+003
1.203955e+003, 1.645014e+003
1.204437e+003, 1.646977e+003
1.204919e+003, 1.646446e+003
1.205401e+003, 1.644809e+003
1.205883e+003, 1.645241e+003
1.206365e+003, 1.647776e+003
1.206848e+003, 1.650154e+003
1.207330e+003, 1.652093e+003
1.207812e+003, 1.653379e+003
1.208294e+003, 1.653203e+003
1.208776e+003, 1.652927e+003
1.209258e+003, 1.653411e+003
1.209740e+003, 1.654584e+003
1.210222e+003, 1.656620e+003
1.210705e+003, 1.659573e+003
1.211187e+003, 1.661069e+003
1.211669e+003, 1.660609e+003
1.212151e+003, 1.659693e+003
1.212633e+003, 1.659354e+003
1.213115e+003, 1.659187e+003
1.213597e+003, 1.658690e+003
1.214079e+003, 1.658142e+003
1.214562e+003, 1.658814e+003
1.215044e+003, 1.660677e+003
1.215526e+003, 1.662274e+003
1.216008e+003, 1.663332e+003
1.216490e+003, 1.663767e+003
1.216972e+003, 1.662734e+003
1.217454e+003, 1.661708e+003
1.217936e+003, 1.661741e+003
1.218418e+003, 1.662727e+003
1.218901e+003, 1.664529e+003
1.219383e+003, 1.667091e+003
1.219865e+003, 1.669290e+003
1.220347e+003, 1.670835e+003
1.220829e+003, 1.671774e+003
1.221311e+003, 1.671638e+003
1.221793e+003, 1.671338e+003
1.222275e+003, 1.671579e+003
1.222757e+003, 1.672301e+003
1.223240e+003, 1.673198e+003
1.223722e+003, 1.674224e+003
1.224204e+003, 1.674498e+003
1.224686e+003, 1.673436e+003
1.225168e+003, 1.672518e+003
1.225650e+003, 1.672666e+003
1.226132e+003, 1.673506e+003
1.226614e+003, 1.674938e+003
1.227096e+003, 1.676815e+003
1.227579e+003, 1.677570e+003
1.228061e+003, 1.677333e+003
1.228543e+003, 1.677221e+003
1.229025e+003, 1.677653e+003
1.229507e+003, 1.678284e+003
1.229989e+003, 1.678849e+003
1.230471e+003, 1.679589e+003
1.230953e+003, 1.680875e+003
1.231436e+003, 1.682534e+003
1.231918e+003, 1.682544e+003
1.232400e+003, 1.681230e+003
1.232882e+003, 1.680980e+003
1.233364e+003, 1.683681e+003
1.233846e+003, 1.685923e+003
1.234328e+003, 1.685472e+003
1.234810e+003, 1.684457e+003
1.235292e+003, 1.684307e+003
1.235775e+003, 1.684982e+003
1.236257e+003, 1.686401e+003
1.236739e+003, 1.688370e+003
1.237221e+003, 1.689799e+003
1.237703e+003, 1.689574e+003
1.238185e+003, 1.689800e+003
1.238667e+003, 1.691545e+003
1.239149e+003, 1.693771e+003
1.239632e+003, 1.696012e+003
1.240114e+003, 1.698117e+003
1.240596e+003, 1.699206e+003
1.241078e+003, 1.699474e+003
1.241560e+003, 1.699822e+003
1.242042e+003, 1.701290e+003
1.242524e+003, 1.701848e+003
1.243006e+003, 1.700261e+003
1.243489e+003, 1.698631e+003
1.243971e+003, 1.698869e+003
1.244453e+003, 1.700431e+003
1.244935e+003, 1.700660e+003
1.245417e+003, 1.700102e+003
1.245899e+003, 1.700792e+003
1.246381e+003, 1.705196e+003
1.246863e+003, 1.708605e+003
1.247345e+003, 1.710390e+003
1.247828e+003, 1.711047e+003
1.248310e+003, 1.710424e+003
1.248792e+003, 1.709159e+003
1.249274e+003, 1.708760e+003
1.249756e+003, 1.709234e+003
1.250238e+003, 1.710483e+003
1.250720e+003, 1.714158e+003
1.251202e+003, 1.715750e+003
1.251684e+003, 1.714144e+003
1.252167e+003, 1.712340e+003
1.252649e+003, 1.712888e+003
1.253131e+003, 1.715064e+003
1.253613e+003, 1.718368e+003
1.254095e+003, 1.722079e+003
1.254577e+003, 1.723968e+003
1.255059e+003, 1.722006e+003
1.255541e+003, 1.720893e+003
1.256023e+003, 1.720900e+003
1.256506e+003, 1.721619e+003
1.256988e+003, 1.722916e+003
1.257470e+003, 1.724574e+003
1.257952e+003, 1.726964e+003
1.258434e+003, 1.729446e+003
1.258916e+003, 1.729856e+003
1.259398e+003, 1.727004e+003
1.259880e+003, 1.725097e+003
1.260363e+003, 1.724363e+003
1.260845e+003, 1.724766e+003
1.261327e+003, 1.727249e+003
1.261809e+003, 1.730043e+003
1.262291e+003, 1.731703e+003
1.262773e+003, 1.732101e+003
1.263255e+003, 1.730809e+003
1.263737e+003, 1.726970e+003
1.264219e+003, 1.726072e+003
1.264702e+003, 1.728650e+003
1.265184e+003, 1.731451e+003
1.265666e+003, 1.732018e+003
1.266148e+003, 1.731772e+003
1.266630e+003, 1.731085e+003
1.267112e+003, 1.730680e+003
1.267594e+003, 1.732163e+003
1.268076e+003, 1.735761e+003
1.268559e+003, 1.737728e+003
1.269041e+003, 1.737833e+003
1.269523e+003, 1.737758e+003
1.270005e+003, 1.738705e+003
1.270487e+003, 1.739763e+003
1.270969e+003, 1.740373e+003
1.271451e+003, 1.740766e+003
1.271933e+003, 1.740973e+003
1.272416e+003, 1.741088e+003
1.272898e+003, 1.742787e+003
1.273380e+003, 1.746012e+003
1.273862e+003, 1.748981e+003
1.274344e+003, 1.751172e+003
1.274826e+003, 1.752143e+003
1.275308e+003, 1.751019e+003
1.275790e+003, 1.749569e+003
1.276272e+003, 1.750238e+003
1.276755e+003, 1.752470e+003
1.277237e+003, 1.754575e+003
1.277719e+003, 1.756297e+003
1.278201e+003, 1.756849e+003
1.278683e+003, 1.754103e+003
1.279165e+003, 1.752751e+003
1.279647e+003, 1.753889e+003
1.280129e+003, 1.756121e+003
1.280611e+003, 1.758079e+003
1.281094e+003, 1.759911e+003
1.281576e+003, 1.762057e+003
1.282058e+003, 1.764429e+003
1.282540e+003, 1.766422e+003
1.283022e+003, 1.767813e+003
1.283504e+003, 1.768798e+003
1.283986e+003, 1.769201e+003
1.284468e+003, 1.769837e+003
1.284950e+003, 1.772048e+003
1.285433e+003, 1.774619e+003
1.285915e+003, 1.775840e+003
1.286397e+003, 1.775958e+003
1.286879e+003, 1.776143e+003
1.287361e+003, 1.776451e+003
1.287843e+003, 1.776992e+003
1.288325e+003, 1.777760e+003
1.288807e+003, 1.778963e+003
1.289290e+003, 1.781701e+003
1.289772e+003, 1.784111e+003
1.290254e+003, 1.783919e+003
1.290736e+003, 1.782303e+003
1.291218e+003, 1.782125e+003
1.291700e+003, 1.783456e+003
1.292182e+003, 1.785580e+003
1.292664e+003, 1.788423e+003
1.293146e+003, 1.790434e+003
1.293629e+003, 1.788824e+003
1.294111e+003, 1.787943e+003
1.294593e+003, 1.791847e+003
1.295075e+003, 1.796845e+003
1.295557e+003, 1.797826e+003
1.296039e+003, 1.795450e+003
1.296521e+003, 1.795162e+003
1.297003e+003, 1.797058e+003
1.297486e+003, 1.799534e+003
1.297968e+003, 1.803556e+003
1.298450e+003, 1.805663e+003
1.298932e+003, 1.804323e+003
1.299414e+003, 1.802241e+003
1.299896e+003, 1.802853e+003
1.300378e+003, 1.805021e+003
1.300860e+003, 1.805206e+003
1.301343e+003, 1.803908e+003
1.301825e+003, 1.803795e+003
##END=



