##NAMES=Walstromite
##RRUFFID=R150079
##IDEAL CHEMISTRY=BaCa_2_Si_3_O_9_
##LOCALITY=Gun Claim, Yukon Territory, Canada
##OWNER=RRUFF
##SOURCE=Gunnar Farber
##DESCRIPTION=Colorless granular or short prismatic crystals with good cleavage, associated with suzukiite (R150039), pellyite (R150078), and bavsiite.
##STATUS=The identification of this mineral has been confirmed only by single crystal X-ray diffraction.
##URL=rruff.info/R150079
9.059570e+001, 2.083961e+003
9.107782e+001, 2.085507e+003
9.155994e+001, 2.086159e+003
9.204205e+001, 2.085563e+003
9.252417e+001, 2.084296e+003
9.300629e+001, 2.081251e+003
9.348840e+001, 2.066154e+003
9.397052e+001, 2.029289e+003
9.445264e+001, 1.972523e+003
9.493475e+001, 1.927233e+003
9.541687e+001, 1.883642e+003
9.589898e+001, 1.841980e+003
9.638110e+001, 1.803269e+003
9.686321e+001, 1.768641e+003
9.734533e+001, 1.737274e+003
9.782745e+001, 1.705115e+003
9.830956e+001, 1.675183e+003
9.879168e+001, 1.644283e+003
9.927380e+001, 1.618618e+003
9.975591e+001, 1.601182e+003
1.002380e+002, 1.589791e+003
1.007201e+002, 1.579237e+003
1.012023e+002, 1.565991e+003
1.016844e+002, 1.551318e+003
1.021665e+002, 1.539948e+003
1.026486e+002, 1.531625e+003
1.031307e+002, 1.526281e+003
1.036128e+002, 1.524987e+003
1.040950e+002, 1.528448e+003
1.045771e+002, 1.531660e+003
1.050592e+002, 1.532426e+003
1.055413e+002, 1.530317e+003
1.060234e+002, 1.523703e+003
1.065055e+002, 1.508883e+003
1.069877e+002, 1.488419e+003
1.074698e+002, 1.473145e+003
1.079519e+002, 1.466121e+003
1.084340e+002, 1.460855e+003
1.089161e+002, 1.453800e+003
1.093982e+002, 1.445870e+003
1.098804e+002, 1.439574e+003
1.103625e+002, 1.436703e+003
1.108446e+002, 1.436971e+003
1.113267e+002, 1.442425e+003
1.118088e+002, 1.454435e+003
1.122909e+002, 1.469868e+003
1.127731e+002, 1.488169e+003
1.132552e+002, 1.508798e+003
1.137373e+002, 1.531199e+003
1.142194e+002, 1.554788e+003
1.147015e+002, 1.584747e+003
1.151836e+002, 1.605726e+003
1.156658e+002, 1.617251e+003
1.161479e+002, 1.620767e+003
1.166300e+002, 1.615346e+003
1.171121e+002, 1.600165e+003
1.175942e+002, 1.580526e+003
1.180763e+002, 1.569084e+003
1.185584e+002, 1.565837e+003
1.190406e+002, 1.567662e+003
1.195227e+002, 1.573736e+003
1.200048e+002, 1.584191e+003
1.204869e+002, 1.599286e+003
1.209690e+002, 1.618336e+003
1.214511e+002, 1.643781e+003
1.219333e+002, 1.677846e+003
1.224154e+002, 1.723340e+003
1.228975e+002, 1.772529e+003
1.233796e+002, 1.824596e+003
1.238617e+002, 1.882163e+003
1.243438e+002, 1.921487e+003
1.248260e+002, 1.923614e+003
1.253081e+002, 1.903453e+003
1.257902e+002, 1.868545e+003
1.262723e+002, 1.817388e+003
1.267544e+002, 1.758169e+003
1.272365e+002, 1.709380e+003
1.277187e+002, 1.672387e+003
1.282008e+002, 1.645133e+003
1.286829e+002, 1.627073e+003
1.291650e+002, 1.616208e+003
1.296471e+002, 1.610241e+003
1.301292e+002, 1.607914e+003
1.306114e+002, 1.609177e+003
1.310935e+002, 1.613350e+003
1.315756e+002, 1.622222e+003
1.320577e+002, 1.632568e+003
1.325398e+002, 1.643354e+003
1.330219e+002, 1.654977e+003
1.335041e+002, 1.668608e+003
1.339862e+002, 1.685581e+003
1.344683e+002, 1.706756e+003
1.349504e+002, 1.726131e+003
1.354325e+002, 1.748297e+003
1.359146e+002, 1.765677e+003
1.363968e+002, 1.774990e+003
1.368789e+002, 1.775573e+003
1.373610e+002, 1.766827e+003
1.378431e+002, 1.746712e+003
1.383252e+002, 1.712547e+003
1.388073e+002, 1.677631e+003
1.392895e+002, 1.641172e+003
1.397716e+002, 1.604783e+003
1.402537e+002, 1.569466e+003
1.407358e+002, 1.535039e+003
1.412179e+002, 1.503930e+003
1.417000e+002, 1.480284e+003
1.421821e+002, 1.463236e+003
1.426643e+002, 1.449479e+003
1.431464e+002, 1.437560e+003
1.436285e+002, 1.427856e+003
1.441106e+002, 1.421771e+003
1.445927e+002, 1.420487e+003
1.450748e+002, 1.422428e+003
1.455570e+002, 1.425644e+003
1.460391e+002, 1.430106e+003
1.465212e+002, 1.436077e+003
1.470033e+002, 1.443470e+003
1.474854e+002, 1.452175e+003
1.479675e+002, 1.463552e+003
1.484497e+002, 1.480011e+003
1.489318e+002, 1.498154e+003
1.494139e+002, 1.515927e+003
1.498960e+002, 1.532921e+003
1.503781e+002, 1.550978e+003
1.508602e+002, 1.572591e+003
1.513424e+002, 1.598595e+003
1.518245e+002, 1.627270e+003
1.523066e+002, 1.662928e+003
1.527887e+002, 1.698264e+003
1.532708e+002, 1.728880e+003
1.537529e+002, 1.752788e+003
1.542351e+002, 1.769676e+003
1.547172e+002, 1.778438e+003
1.551993e+002, 1.771871e+003
1.556814e+002, 1.764709e+003
1.561635e+002, 1.756318e+003
1.566456e+002, 1.748122e+003
1.571278e+002, 1.741494e+003
1.576099e+002, 1.737043e+003
1.580920e+002, 1.734926e+003
1.585741e+002, 1.736185e+003
1.590562e+002, 1.742997e+003
1.595383e+002, 1.750162e+003
1.600205e+002, 1.758182e+003
1.605026e+002, 1.765778e+003
1.609847e+002, 1.770267e+003
1.614668e+002, 1.770273e+003
1.619489e+002, 1.765503e+003
1.624310e+002, 1.756644e+003
1.629131e+002, 1.742298e+003
1.633953e+002, 1.725735e+003
1.638774e+002, 1.707889e+003
1.643595e+002, 1.688919e+003
1.648416e+002, 1.670752e+003
1.653237e+002, 1.654689e+003
1.658058e+002, 1.640349e+003
1.662880e+002, 1.626595e+003
1.667701e+002, 1.613428e+003
1.672522e+002, 1.600637e+003
1.677343e+002, 1.588479e+003
1.682164e+002, 1.577349e+003
1.686985e+002, 1.565077e+003
1.691807e+002, 1.549408e+003
1.696628e+002, 1.532141e+003
1.701449e+002, 1.515148e+003
1.706270e+002, 1.498805e+003
1.711091e+002, 1.483426e+003
1.715912e+002, 1.470101e+003
1.720734e+002, 1.460278e+003
1.725555e+002, 1.449868e+003
1.730376e+002, 1.435886e+003
1.735197e+002, 1.420566e+003
1.740018e+002, 1.407044e+003
1.744839e+002, 1.397374e+003
1.749661e+002, 1.391025e+003
1.754482e+002, 1.384861e+003
1.759303e+002, 1.377944e+003
1.764124e+002, 1.372445e+003
1.768945e+002, 1.369605e+003
1.773766e+002, 1.368523e+003
1.778588e+002, 1.367582e+003
1.783409e+002, 1.365465e+003
1.788230e+002, 1.362145e+003
1.793051e+002, 1.360588e+003
1.797872e+002, 1.361656e+003
1.802693e+002, 1.363598e+003
1.807515e+002, 1.366246e+003
1.812336e+002, 1.369399e+003
1.817157e+002, 1.372827e+003
1.821978e+002, 1.376432e+003
1.826799e+002, 1.380322e+003
1.831620e+002, 1.383092e+003
1.836441e+002, 1.383995e+003
1.841263e+002, 1.384702e+003
1.846084e+002, 1.385535e+003
1.850905e+002, 1.386753e+003
1.855726e+002, 1.389020e+003
1.860547e+002, 1.393055e+003
1.865368e+002, 1.399160e+003
1.870190e+002, 1.405242e+003
1.875011e+002, 1.410376e+003
1.879832e+002, 1.416071e+003
1.884653e+002, 1.424239e+003
1.889474e+002, 1.434909e+003
1.894296e+002, 1.445184e+003
1.899117e+002, 1.451785e+003
1.903938e+002, 1.454782e+003
1.908759e+002, 1.458750e+003
1.913580e+002, 1.464592e+003
1.918401e+002, 1.471418e+003
1.923223e+002, 1.478305e+003
1.928044e+002, 1.485150e+003
1.932865e+002, 1.492114e+003
1.937686e+002, 1.499371e+003
1.942507e+002, 1.506875e+003
1.947328e+002, 1.514575e+003
1.952150e+002, 1.522304e+003
1.956971e+002, 1.530259e+003
1.961792e+002, 1.538815e+003
1.966613e+002, 1.547922e+003
1.971434e+002, 1.557849e+003
1.976255e+002, 1.568824e+003
1.981077e+002, 1.580719e+003
1.985898e+002, 1.593137e+003
1.990719e+002, 1.605697e+003
1.995540e+002, 1.618624e+003
2.000361e+002, 1.632915e+003
2.005182e+002, 1.649646e+003
2.010004e+002, 1.666392e+003
2.014825e+002, 1.681071e+003
2.019646e+002, 1.694580e+003
2.024467e+002, 1.709004e+003
2.029288e+002, 1.726451e+003
2.034109e+002, 1.746688e+003
2.038930e+002, 1.765051e+003
2.043752e+002, 1.779375e+003
2.048573e+002, 1.793901e+003
2.053394e+002, 1.810725e+003
2.058215e+002, 1.829048e+003
2.063036e+002, 1.846997e+003
2.067857e+002, 1.863124e+003
2.072679e+002, 1.877423e+003
2.077500e+002, 1.890006e+003
2.082321e+002, 1.900626e+003
2.087142e+002, 1.909618e+003
2.091963e+002, 1.916500e+003
2.096784e+002, 1.921654e+003
2.101606e+002, 1.925920e+003
2.106427e+002, 1.930001e+003
2.111248e+002, 1.933875e+003
2.116069e+002, 1.937461e+003
2.120890e+002, 1.941437e+003
2.125711e+002, 1.944534e+003
2.130533e+002, 1.946395e+003
2.135354e+002, 1.946938e+003
2.140175e+002, 1.946206e+003
2.144996e+002, 1.944254e+003
2.149817e+002, 1.941111e+003
2.154638e+002, 1.936162e+003
2.159460e+002, 1.929814e+003
2.164281e+002, 1.921799e+003
2.169102e+002, 1.911865e+003
2.173923e+002, 1.900105e+003
2.178744e+002, 1.886612e+003
2.183565e+002, 1.871293e+003
2.188387e+002, 1.853846e+003
2.193208e+002, 1.837285e+003
2.198029e+002, 1.823171e+003
2.202850e+002, 1.808514e+003
2.207671e+002, 1.790502e+003
2.212492e+002, 1.769503e+003
2.217314e+002, 1.749130e+003
2.222135e+002, 1.732752e+003
2.226956e+002, 1.720722e+003
2.231777e+002, 1.707381e+003
2.236598e+002, 1.691735e+003
2.241419e+002, 1.675510e+003
2.246240e+002, 1.660058e+003
2.251062e+002, 1.645410e+003
2.255883e+002, 1.630914e+003
2.260704e+002, 1.616023e+003
2.265525e+002, 1.600834e+003
2.270346e+002, 1.585758e+003
2.275167e+002, 1.570061e+003
2.279989e+002, 1.554994e+003
2.284810e+002, 1.542361e+003
2.289631e+002, 1.532334e+003
2.294452e+002, 1.522489e+003
2.299273e+002, 1.510990e+003
2.304094e+002, 1.498375e+003
2.308916e+002, 1.486068e+003
2.313737e+002, 1.474783e+003
2.318558e+002, 1.463681e+003
2.323379e+002, 1.451291e+003
2.328200e+002, 1.437265e+003
2.333021e+002, 1.424409e+003
2.337843e+002, 1.415494e+003
2.342664e+002, 1.408735e+003
2.347485e+002, 1.401476e+003
2.352306e+002, 1.392541e+003
2.357127e+002, 1.383261e+003
2.361948e+002, 1.375300e+003
2.366770e+002, 1.368675e+003
2.371591e+002, 1.363149e+003
2.376412e+002, 1.359650e+003
2.381233e+002, 1.356839e+003
2.386054e+002, 1.353118e+003
2.390875e+002, 1.347672e+003
2.395697e+002, 1.341577e+003
2.400518e+002, 1.336706e+003
2.405339e+002, 1.333479e+003
2.410160e+002, 1.330072e+003
2.414981e+002, 1.325520e+003
2.419802e+002, 1.320556e+003
2.424624e+002, 1.315737e+003
2.429445e+002, 1.311180e+003
2.434266e+002, 1.307110e+003
2.439087e+002, 1.304232e+003
2.443908e+002, 1.303331e+003
2.448729e+002, 1.301436e+003
2.453550e+002, 1.296662e+003
2.458372e+002, 1.291173e+003
2.463193e+002, 1.287025e+003
2.468014e+002, 1.284968e+003
2.472835e+002, 1.283646e+003
2.477656e+002, 1.280436e+003
2.482477e+002, 1.274126e+003
2.487299e+002, 1.268849e+003
2.492120e+002, 1.266079e+003
2.496941e+002, 1.264055e+003
2.501762e+002, 1.261602e+003
2.506583e+002, 1.258336e+003
2.511404e+002, 1.254403e+003
2.516226e+002, 1.249748e+003
2.521047e+002, 1.243422e+003
2.525868e+002, 1.238693e+003
2.530689e+002, 1.236002e+003
2.535510e+002, 1.234609e+003
2.540331e+002, 1.234064e+003
2.545153e+002, 1.234238e+003
2.549974e+002, 1.235178e+003
2.554795e+002, 1.237228e+003
2.559616e+002, 1.241652e+003
2.564437e+002, 1.244362e+003
2.569258e+002, 1.243865e+003
2.574080e+002, 1.242995e+003
2.578901e+002, 1.243602e+003
2.583722e+002, 1.246015e+003
2.588543e+002, 1.249343e+003
2.593364e+002, 1.252411e+003
2.598185e+002, 1.255046e+003
2.603007e+002, 1.257861e+003
2.607828e+002, 1.260133e+003
2.612649e+002, 1.263096e+003
2.617470e+002, 1.268068e+003
2.622291e+002, 1.274869e+003
2.627112e+002, 1.281798e+003
2.631934e+002, 1.286928e+003
2.636755e+002, 1.289804e+003
2.641576e+002, 1.292362e+003
2.646397e+002, 1.294433e+003
2.651218e+002, 1.296380e+003
2.656039e+002, 1.299014e+003
2.660861e+002, 1.301959e+003
2.665682e+002, 1.303590e+003
2.670503e+002, 1.301979e+003
2.675324e+002, 1.296243e+003
2.680145e+002, 1.293073e+003
2.684966e+002, 1.295017e+003
2.689788e+002, 1.296675e+003
2.694609e+002, 1.294962e+003
2.699430e+002, 1.290377e+003
2.704251e+002, 1.285500e+003
2.709072e+002, 1.282445e+003
2.713893e+002, 1.281310e+003
2.718715e+002, 1.279750e+003
2.723536e+002, 1.277929e+003
2.728357e+002, 1.275635e+003
2.733178e+002, 1.272368e+003
2.737999e+002, 1.268495e+003
2.742820e+002, 1.264922e+003
2.747642e+002, 1.262224e+003
2.752463e+002, 1.260379e+003
2.757284e+002, 1.259283e+003
2.762105e+002, 1.258729e+003
2.766926e+002, 1.258913e+003
2.771747e+002, 1.260037e+003
2.776568e+002, 1.261950e+003
2.781389e+002, 1.264417e+003
2.786211e+002, 1.267402e+003
2.791032e+002, 1.270714e+003
2.795853e+002, 1.273534e+003
2.800674e+002, 1.275206e+003
2.805495e+002, 1.277266e+003
2.810316e+002, 1.279745e+003
2.815138e+002, 1.282914e+003
2.819959e+002, 1.287456e+003
2.824780e+002, 1.293799e+003
2.829601e+002, 1.301253e+003
2.834422e+002, 1.307849e+003
2.839243e+002, 1.312700e+003
2.844065e+002, 1.318524e+003
2.848886e+002, 1.325452e+003
2.853707e+002, 1.333797e+003
2.858528e+002, 1.344350e+003
2.863349e+002, 1.357543e+003
2.868170e+002, 1.372095e+003
2.872992e+002, 1.385982e+003
2.877813e+002, 1.398767e+003
2.882634e+002, 1.412215e+003
2.887455e+002, 1.427387e+003
2.892276e+002, 1.442978e+003
2.897097e+002, 1.458317e+003
2.901919e+002, 1.473397e+003
2.906740e+002, 1.485488e+003
2.911561e+002, 1.490861e+003
2.916382e+002, 1.488866e+003
2.921203e+002, 1.484189e+003
2.926024e+002, 1.476671e+003
2.930846e+002, 1.466982e+003
2.935667e+002, 1.454810e+003
2.940488e+002, 1.440160e+003
2.945309e+002, 1.425864e+003
2.950130e+002, 1.414318e+003
2.954951e+002, 1.405757e+003
2.959773e+002, 1.398953e+003
2.964594e+002, 1.393306e+003
2.969415e+002, 1.389807e+003
2.974236e+002, 1.389465e+003
2.979057e+002, 1.392211e+003
2.983878e+002, 1.396998e+003
2.988700e+002, 1.403385e+003
2.993521e+002, 1.411377e+003
2.998342e+002, 1.420028e+003
3.003163e+002, 1.430434e+003
3.007984e+002, 1.440412e+003
3.012805e+002, 1.448966e+003
3.017627e+002, 1.456095e+003
3.022448e+002, 1.462193e+003
3.027269e+002, 1.467849e+003
3.032090e+002, 1.472216e+003
3.036911e+002, 1.473208e+003
3.041732e+002, 1.469929e+003
3.046554e+002, 1.465251e+003
3.051375e+002, 1.459814e+003
3.056196e+002, 1.453916e+003
3.061017e+002, 1.448180e+003
3.065838e+002, 1.442667e+003
3.070659e+002, 1.437785e+003
3.075481e+002, 1.434668e+003
3.080302e+002, 1.433711e+003
3.085123e+002, 1.432496e+003
3.089944e+002, 1.430369e+003
3.094765e+002, 1.427462e+003
3.099586e+002, 1.423855e+003
3.104408e+002, 1.419478e+003
3.109229e+002, 1.414843e+003
3.114050e+002, 1.410615e+003
3.118871e+002, 1.406759e+003
3.123692e+002, 1.403141e+003
3.128513e+002, 1.399616e+003
3.133335e+002, 1.396368e+003
3.138156e+002, 1.393841e+003
3.142977e+002, 1.392139e+003
3.147798e+002, 1.390218e+003
3.152619e+002, 1.386710e+003
3.157440e+002, 1.381786e+003
3.162262e+002, 1.378200e+003
3.167083e+002, 1.376931e+003
3.171904e+002, 1.376540e+003
3.176725e+002, 1.376351e+003
3.181546e+002, 1.376213e+003
3.186367e+002, 1.375081e+003
3.191188e+002, 1.371965e+003
3.196010e+002, 1.367243e+003
3.200831e+002, 1.363086e+003
3.205652e+002, 1.360773e+003
3.210473e+002, 1.357736e+003
3.215294e+002, 1.351864e+003
3.220115e+002, 1.343928e+003
3.224937e+002, 1.336564e+003
3.229758e+002, 1.331105e+003
3.234579e+002, 1.326909e+003
3.239400e+002, 1.322410e+003
3.244221e+002, 1.317266e+003
3.249042e+002, 1.312567e+003
3.253864e+002, 1.308389e+003
3.258685e+002, 1.304953e+003
3.263506e+002, 1.302783e+003
3.268327e+002, 1.302174e+003
3.273148e+002, 1.302418e+003
3.277969e+002, 1.302412e+003
3.282791e+002, 1.302019e+003
3.287612e+002, 1.302162e+003
3.292433e+002, 1.303254e+003
3.297254e+002, 1.304864e+003
3.302075e+002, 1.306185e+003
3.306896e+002, 1.307078e+003
3.311718e+002, 1.308844e+003
3.316539e+002, 1.313271e+003
3.321360e+002, 1.320611e+003
3.326181e+002, 1.326359e+003
3.331002e+002, 1.328630e+003
3.335823e+002, 1.330552e+003
3.340645e+002, 1.334445e+003
3.345466e+002, 1.340258e+003
3.350287e+002, 1.346647e+003
3.355108e+002, 1.352547e+003
3.359929e+002, 1.358245e+003
3.364750e+002, 1.365406e+003
3.369572e+002, 1.375891e+003
3.374393e+002, 1.385783e+003
3.379214e+002, 1.392813e+003
3.384035e+002, 1.397989e+003
3.388856e+002, 1.403522e+003
3.393677e+002, 1.410330e+003
3.398499e+002, 1.418335e+003
3.403320e+002, 1.427538e+003
3.408141e+002, 1.438756e+003
3.412962e+002, 1.449462e+003
3.417783e+002, 1.458603e+003
3.422604e+002, 1.467186e+003
3.427426e+002, 1.476510e+003
3.432247e+002, 1.486908e+003
3.437068e+002, 1.497849e+003
3.441889e+002, 1.508665e+003
3.446710e+002, 1.519485e+003
3.451531e+002, 1.529629e+003
3.456353e+002, 1.539730e+003
3.461174e+002, 1.548639e+003
3.465995e+002, 1.555368e+003
3.470816e+002, 1.559875e+003
3.475637e+002, 1.562950e+003
3.480458e+002, 1.565280e+003
3.485280e+002, 1.566877e+003
3.490101e+002, 1.566550e+003
3.494922e+002, 1.563373e+003
3.499743e+002, 1.559581e+003
3.504564e+002, 1.555570e+003
3.509385e+002, 1.551706e+003
3.514207e+002, 1.548585e+003
3.519028e+002, 1.546581e+003
3.523849e+002, 1.545574e+003
3.528670e+002, 1.545075e+003
3.533491e+002, 1.544426e+003
3.538312e+002, 1.545094e+003
3.543134e+002, 1.548123e+003
3.547955e+002, 1.552224e+003
3.552776e+002, 1.555881e+003
3.557597e+002, 1.558569e+003
3.562418e+002, 1.560904e+003
3.567239e+002, 1.563932e+003
3.572061e+002, 1.567840e+003
3.576882e+002, 1.572167e+003
3.581703e+002, 1.576312e+003
3.586524e+002, 1.581261e+003
3.591345e+002, 1.588170e+003
3.596166e+002, 1.596821e+003
3.600987e+002, 1.605579e+003
3.605808e+002, 1.612803e+003
3.610630e+002, 1.618248e+003
3.615451e+002, 1.624502e+003
3.620272e+002, 1.631277e+003
3.625093e+002, 1.639061e+003
3.629914e+002, 1.648382e+003
3.634735e+002, 1.658849e+003
3.639557e+002, 1.669454e+003
3.644378e+002, 1.679528e+003
3.649199e+002, 1.689527e+003
3.654020e+002, 1.701477e+003
3.658841e+002, 1.717296e+003
3.663662e+002, 1.732522e+003
3.668484e+002, 1.745904e+003
3.673305e+002, 1.758798e+003
3.678126e+002, 1.772477e+003
3.682947e+002, 1.787311e+003
3.687768e+002, 1.803014e+003
3.692589e+002, 1.819541e+003
3.697411e+002, 1.837821e+003
3.702232e+002, 1.854242e+003
3.707053e+002, 1.867249e+003
3.711874e+002, 1.879739e+003
3.716695e+002, 1.893127e+003
3.721516e+002, 1.907484e+003
3.726338e+002, 1.922389e+003
3.731159e+002, 1.936853e+003
3.735980e+002, 1.950955e+003
3.740801e+002, 1.968816e+003
3.745622e+002, 1.991673e+003
3.750443e+002, 2.017277e+003
3.755265e+002, 2.045714e+003
3.760086e+002, 2.076025e+003
3.764907e+002, 2.106394e+003
3.769728e+002, 2.135872e+003
3.774549e+002, 2.165556e+003
3.779370e+002, 2.198083e+003
3.784192e+002, 2.233974e+003
3.789013e+002, 2.271296e+003
3.793834e+002, 2.310232e+003
3.798655e+002, 2.349975e+003
3.803476e+002, 2.389544e+003
3.808297e+002, 2.428782e+003
3.813119e+002, 2.469513e+003
3.817940e+002, 2.513198e+003
3.822761e+002, 2.559905e+003
3.827582e+002, 2.608964e+003
3.832403e+002, 2.660171e+003
3.837224e+002, 2.714263e+003
3.842046e+002, 2.771168e+003
3.846867e+002, 2.830744e+003
3.851688e+002, 2.894086e+003
3.856509e+002, 2.960495e+003
3.861330e+002, 3.030692e+003
3.866151e+002, 3.107206e+003
3.870973e+002, 3.190405e+003
3.875794e+002, 3.277770e+003
3.880615e+002, 3.368881e+003
3.885436e+002, 3.463535e+003
3.890257e+002, 3.562031e+003
3.895078e+002, 3.664530e+003
3.899900e+002, 3.770671e+003
3.904721e+002, 3.878832e+003
3.909542e+002, 3.989912e+003
3.914363e+002, 4.108269e+003
3.919184e+002, 4.237480e+003
3.924005e+002, 4.372208e+003
3.928827e+002, 4.505079e+003
3.933648e+002, 4.635855e+003
3.938469e+002, 4.767643e+003
3.943290e+002, 4.902739e+003
3.948111e+002, 5.039022e+003
3.952932e+002, 5.172036e+003
3.957754e+002, 5.302370e+003
3.962575e+002, 5.429008e+003
3.967396e+002, 5.552791e+003
3.972217e+002, 5.672898e+003
3.977038e+002, 5.785801e+003
3.981859e+002, 5.895250e+003
3.986681e+002, 5.995282e+003
3.991501e+002, 6.082442e+003
3.996323e+002, 6.157138e+003
4.001144e+002, 6.222013e+003
4.005965e+002, 6.279353e+003
4.010786e+002, 6.326141e+003
4.015607e+002, 6.351254e+003
4.020428e+002, 6.353952e+003
4.025250e+002, 6.340828e+003
4.030071e+002, 6.310542e+003
4.034892e+002, 6.266034e+003
4.039713e+002, 6.210091e+003
4.044534e+002, 6.143729e+003
4.049355e+002, 6.066997e+003
4.054177e+002, 5.979233e+003
4.058998e+002, 5.879193e+003
4.063819e+002, 5.775394e+003
4.068640e+002, 5.668582e+003
4.073461e+002, 5.558360e+003
4.078282e+002, 5.441976e+003
4.083104e+002, 5.321577e+003
4.087925e+002, 5.201682e+003
4.092746e+002, 5.083744e+003
4.097567e+002, 4.968312e+003
4.102388e+002, 4.855802e+003
4.107209e+002, 4.748537e+003
4.112031e+002, 4.641743e+003
4.116852e+002, 4.533098e+003
4.121673e+002, 4.425739e+003
4.126494e+002, 4.322579e+003
4.131315e+002, 4.224306e+003
4.136136e+002, 4.129377e+003
4.140958e+002, 4.036176e+003
4.145779e+002, 3.944550e+003
4.150600e+002, 3.853564e+003
4.155421e+002, 3.762457e+003
4.160242e+002, 3.673171e+003
4.165063e+002, 3.586423e+003
4.169885e+002, 3.501889e+003
4.174706e+002, 3.419962e+003
4.179527e+002, 3.339767e+003
4.184348e+002, 3.262583e+003
4.189169e+002, 3.192188e+003
4.193990e+002, 3.131794e+003
4.198812e+002, 3.071975e+003
4.203633e+002, 3.007068e+003
4.208454e+002, 2.943172e+003
4.213275e+002, 2.887295e+003
4.218096e+002, 2.841324e+003
4.222917e+002, 2.798735e+003
4.227739e+002, 2.752731e+003
4.232560e+002, 2.703640e+003
4.237381e+002, 2.656528e+003
4.242202e+002, 2.611627e+003
4.247023e+002, 2.569876e+003
4.251844e+002, 2.531725e+003
4.256666e+002, 2.496811e+003
4.261487e+002, 2.463669e+003
4.266308e+002, 2.431823e+003
4.271129e+002, 2.401279e+003
4.275950e+002, 2.372384e+003
4.280771e+002, 2.344993e+003
4.285593e+002, 2.318732e+003
4.290414e+002, 2.293517e+003
4.295235e+002, 2.269502e+003
4.300056e+002, 2.246962e+003
4.304877e+002, 2.226702e+003
4.309698e+002, 2.206088e+003
4.314520e+002, 2.182842e+003
4.319341e+002, 2.158588e+003
4.324162e+002, 2.136374e+003
4.328983e+002, 2.117085e+003
4.333804e+002, 2.099813e+003
4.338625e+002, 2.083888e+003
4.343447e+002, 2.069548e+003
4.348268e+002, 2.054960e+003
4.353089e+002, 2.039106e+003
4.357910e+002, 2.023784e+003
4.362731e+002, 2.010279e+003
4.367552e+002, 1.998422e+003
4.372374e+002, 1.987600e+003
4.377195e+002, 1.977643e+003
4.382016e+002, 1.968096e+003
4.386837e+002, 1.957387e+003
4.391658e+002, 1.944286e+003
4.396479e+002, 1.931545e+003
4.401301e+002, 1.918661e+003
4.406122e+002, 1.906649e+003
4.410943e+002, 1.897177e+003
4.415764e+002, 1.890284e+003
4.420585e+002, 1.883833e+003
4.425406e+002, 1.875562e+003
4.430227e+002, 1.865399e+003
4.435049e+002, 1.853855e+003
4.439870e+002, 1.840133e+003
4.444691e+002, 1.825869e+003
4.449512e+002, 1.810426e+003
4.454333e+002, 1.795086e+003
4.459154e+002, 1.781896e+003
4.463976e+002, 1.772206e+003
4.468797e+002, 1.764315e+003
4.473618e+002, 1.754391e+003
4.478439e+002, 1.741748e+003
4.483260e+002, 1.729108e+003
4.488081e+002, 1.716009e+003
4.492903e+002, 1.703696e+003
4.497724e+002, 1.693130e+003
4.502545e+002, 1.684281e+003
4.507366e+002, 1.676227e+003
4.512187e+002, 1.668972e+003
4.517008e+002, 1.662063e+003
4.521830e+002, 1.653644e+003
4.526651e+002, 1.643367e+003
4.531472e+002, 1.632449e+003
4.536293e+002, 1.620457e+003
4.541114e+002, 1.608550e+003
4.545935e+002, 1.598721e+003
4.550757e+002, 1.592220e+003
4.555578e+002, 1.586325e+003
4.560399e+002, 1.578820e+003
4.565220e+002, 1.569995e+003
4.570041e+002, 1.560849e+003
4.574862e+002, 1.551441e+003
4.579684e+002, 1.542255e+003
4.584505e+002, 1.533972e+003
4.589326e+002, 1.526557e+003
4.594147e+002, 1.519509e+003
4.598968e+002, 1.513136e+003
4.603789e+002, 1.506854e+003
4.608611e+002, 1.499946e+003
4.613432e+002, 1.492556e+003
4.618253e+002, 1.485506e+003
4.623074e+002, 1.479187e+003
4.627895e+002, 1.473669e+003
4.632716e+002, 1.469142e+003
4.637538e+002, 1.466725e+003
4.642359e+002, 1.463767e+003
4.647180e+002, 1.459767e+003
4.652001e+002, 1.455161e+003
4.656822e+002, 1.450161e+003
4.661643e+002, 1.444906e+003
4.666465e+002, 1.439856e+003
4.671286e+002, 1.435437e+003
4.676107e+002, 1.431559e+003
4.680928e+002, 1.428823e+003
4.685749e+002, 1.429221e+003
4.690570e+002, 1.428607e+003
4.695392e+002, 1.425575e+003
4.700213e+002, 1.420890e+003
4.705034e+002, 1.415495e+003
4.709855e+002, 1.409748e+003
4.714676e+002, 1.404263e+003
4.719497e+002, 1.400374e+003
4.724319e+002, 1.398572e+003
4.729140e+002, 1.396232e+003
4.733961e+002, 1.392087e+003
4.738782e+002, 1.388111e+003
4.743603e+002, 1.386189e+003
4.748424e+002, 1.385697e+003
4.753246e+002, 1.383900e+003
4.758067e+002, 1.378719e+003
4.762888e+002, 1.371329e+003
4.767709e+002, 1.364148e+003
4.772530e+002, 1.357265e+003
4.777351e+002, 1.350162e+003
4.782173e+002, 1.341877e+003
4.786994e+002, 1.333665e+003
4.791815e+002, 1.327442e+003
4.796636e+002, 1.323530e+003
4.801457e+002, 1.320725e+003
4.806278e+002, 1.318937e+003
4.811100e+002, 1.317726e+003
4.815920e+002, 1.316176e+003
4.820742e+002, 1.314099e+003
4.825563e+002, 1.312229e+003
4.830384e+002, 1.311184e+003
4.835205e+002, 1.311000e+003
4.840026e+002, 1.311205e+003
4.844847e+002, 1.312081e+003
4.849669e+002, 1.313005e+003
4.854490e+002, 1.313123e+003
4.859311e+002, 1.313244e+003
4.864132e+002, 1.314972e+003
4.868953e+002, 1.318895e+003
4.873774e+002, 1.323896e+003
4.878596e+002, 1.328142e+003
4.883417e+002, 1.331439e+003
4.888238e+002, 1.334558e+003
4.893059e+002, 1.336323e+003
4.897880e+002, 1.339046e+003
4.902701e+002, 1.344001e+003
4.907523e+002, 1.350814e+003
4.912344e+002, 1.358537e+003
4.917165e+002, 1.366656e+003
4.921986e+002, 1.375082e+003
4.926807e+002, 1.383554e+003
4.931628e+002, 1.391976e+003
4.936450e+002, 1.400658e+003
4.941271e+002, 1.409576e+003
4.946092e+002, 1.418788e+003
4.950913e+002, 1.428573e+003
4.955734e+002, 1.438822e+003
4.960555e+002, 1.448869e+003
4.965377e+002, 1.458247e+003
4.970198e+002, 1.467003e+003
4.975019e+002, 1.475655e+003
4.979840e+002, 1.484674e+003
4.984661e+002, 1.491378e+003
4.989482e+002, 1.493589e+003
4.994304e+002, 1.492708e+003
4.999125e+002, 1.491256e+003
5.003946e+002, 1.488450e+003
5.008767e+002, 1.487309e+003
5.013588e+002, 1.490615e+003
5.018409e+002, 1.496255e+003
5.023231e+002, 1.500629e+003
5.028052e+002, 1.502995e+003
5.032873e+002, 1.504149e+003
5.037694e+002, 1.504519e+003
5.042515e+002, 1.504071e+003
5.047336e+002, 1.505028e+003
5.052158e+002, 1.508233e+003
5.056979e+002, 1.511730e+003
5.061800e+002, 1.515177e+003
5.066621e+002, 1.518366e+003
5.071442e+002, 1.520343e+003
5.076263e+002, 1.520905e+003
5.081085e+002, 1.522219e+003
5.085906e+002, 1.528029e+003
5.090727e+002, 1.540120e+003
5.095548e+002, 1.550252e+003
5.100369e+002, 1.557458e+003
5.105190e+002, 1.563617e+003
5.110012e+002, 1.568977e+003
5.114833e+002, 1.573880e+003
5.119654e+002, 1.578700e+003
5.124475e+002, 1.583520e+003
5.129296e+002, 1.588713e+003
5.134117e+002, 1.595146e+003
5.138939e+002, 1.603030e+003
5.143760e+002, 1.610678e+003
5.148581e+002, 1.617098e+003
5.153402e+002, 1.623901e+003
5.158223e+002, 1.632231e+003
5.163044e+002, 1.642032e+003
5.167866e+002, 1.652788e+003
5.172687e+002, 1.664684e+003
5.177508e+002, 1.677247e+003
5.182329e+002, 1.690226e+003
5.187150e+002, 1.703535e+003
5.191971e+002, 1.716088e+003
5.196793e+002, 1.726976e+003
5.201614e+002, 1.737288e+003
5.206435e+002, 1.749715e+003
5.211256e+002, 1.765675e+003
5.216077e+002, 1.779371e+003
5.220898e+002, 1.787612e+003
5.225720e+002, 1.794691e+003
5.230541e+002, 1.804015e+003
5.235362e+002, 1.815809e+003
5.240183e+002, 1.829131e+003
5.245004e+002, 1.843424e+003
5.249825e+002, 1.858355e+003
5.254647e+002, 1.872618e+003
5.259468e+002, 1.886986e+003
5.264289e+002, 1.899243e+003
5.269110e+002, 1.907936e+003
5.273931e+002, 1.915515e+003
5.278752e+002, 1.923891e+003
5.283574e+002, 1.933289e+003
5.288395e+002, 1.942793e+003
5.293216e+002, 1.951690e+003
5.298037e+002, 1.959995e+003
5.302858e+002, 1.967924e+003
5.307679e+002, 1.975533e+003
5.312501e+002, 1.982583e+003
5.317322e+002, 1.988896e+003
5.322143e+002, 1.994605e+003
5.326964e+002, 2.000158e+003
5.331785e+002, 2.005811e+003
5.336606e+002, 2.009851e+003
5.341428e+002, 2.010385e+003
5.346249e+002, 2.008672e+003
5.351070e+002, 2.007541e+003
5.355891e+002, 2.007418e+003
5.360712e+002, 2.006880e+003
5.365533e+002, 2.004703e+003
5.370355e+002, 2.001159e+003
5.375176e+002, 1.998159e+003
5.379997e+002, 1.997436e+003
5.384818e+002, 1.995094e+003
5.389639e+002, 1.989907e+003
5.394460e+002, 1.982542e+003
5.399282e+002, 1.973189e+003
5.404103e+002, 1.962200e+003
5.408924e+002, 1.951099e+003
5.413745e+002, 1.941680e+003
5.418566e+002, 1.934024e+003
5.423387e+002, 1.925222e+003
5.428209e+002, 1.915032e+003
5.433029e+002, 1.903932e+003
5.437850e+002, 1.891870e+003
5.442672e+002, 1.879050e+003
5.447493e+002, 1.865520e+003
5.452314e+002, 1.851344e+003
5.457135e+002, 1.837156e+003
5.461956e+002, 1.823961e+003
5.466777e+002, 1.811609e+003
5.471599e+002, 1.799095e+003
5.476420e+002, 1.786819e+003
5.481241e+002, 1.773480e+003
5.486062e+002, 1.756401e+003
5.490883e+002, 1.738137e+003
5.495704e+002, 1.723082e+003
5.500526e+002, 1.713484e+003
5.505347e+002, 1.704046e+003
5.510168e+002, 1.690967e+003
5.514989e+002, 1.675698e+003
5.519810e+002, 1.661228e+003
5.524631e+002, 1.648191e+003
5.529453e+002, 1.635475e+003
5.534274e+002, 1.621999e+003
5.539095e+002, 1.607710e+003
5.543916e+002, 1.594196e+003
5.548737e+002, 1.580989e+003
5.553558e+002, 1.568971e+003
5.558380e+002, 1.559242e+003
5.563201e+002, 1.550364e+003
5.568022e+002, 1.540657e+003
5.572843e+002, 1.529673e+003
5.577664e+002, 1.518348e+003
5.582485e+002, 1.507570e+003
5.587307e+002, 1.497392e+003
5.592128e+002, 1.487914e+003
5.596949e+002, 1.479876e+003
5.601770e+002, 1.471587e+003
5.606591e+002, 1.461780e+003
5.611412e+002, 1.451735e+003
5.616234e+002, 1.443123e+003
5.621055e+002, 1.436494e+003
5.625876e+002, 1.430176e+003
5.630697e+002, 1.422477e+003
5.635518e+002, 1.413900e+003
5.640339e+002, 1.406012e+003
5.645161e+002, 1.398889e+003
5.649982e+002, 1.392885e+003
5.654803e+002, 1.388671e+003
5.659624e+002, 1.385827e+003
5.664445e+002, 1.382303e+003
5.669266e+002, 1.377897e+003
5.674088e+002, 1.373116e+003
5.678909e+002, 1.367622e+003
5.683730e+002, 1.362096e+003
5.688551e+002, 1.357320e+003
5.693372e+002, 1.353465e+003
5.698193e+002, 1.350309e+003
5.703015e+002, 1.347828e+003
5.707836e+002, 1.345935e+003
5.712657e+002, 1.343154e+003
5.717478e+002, 1.337858e+003
5.722299e+002, 1.333871e+003
5.727120e+002, 1.332050e+003
5.731942e+002, 1.331544e+003
5.736763e+002, 1.331917e+003
5.741584e+002, 1.332919e+003
5.746405e+002, 1.333826e+003
5.751226e+002, 1.333401e+003
5.756047e+002, 1.332277e+003
5.760869e+002, 1.333189e+003
5.765690e+002, 1.336363e+003
5.770511e+002, 1.340625e+003
5.775332e+002, 1.345730e+003
5.780153e+002, 1.351438e+003
5.784974e+002, 1.357034e+003
5.789796e+002, 1.362158e+003
5.794617e+002, 1.368758e+003
5.799438e+002, 1.378552e+003
5.804259e+002, 1.389620e+003
5.809080e+002, 1.400875e+003
5.813901e+002, 1.411654e+003
5.818723e+002, 1.420241e+003
5.823544e+002, 1.425888e+003
5.828365e+002, 1.427845e+003
5.833186e+002, 1.423623e+003
5.838007e+002, 1.411986e+003
5.842828e+002, 1.395410e+003
5.847650e+002, 1.369386e+003
5.852471e+002, 1.342529e+003
5.857292e+002, 1.319849e+003
5.862113e+002, 1.301456e+003
5.866934e+002, 1.285316e+003
5.871755e+002, 1.270016e+003
5.876577e+002, 1.256456e+003
5.881398e+002, 1.247476e+003
5.886219e+002, 1.243713e+003
5.891040e+002, 1.240027e+003
5.895861e+002, 1.234709e+003
5.900682e+002, 1.229601e+003
5.905504e+002, 1.226455e+003
5.910325e+002, 1.225058e+003
5.915146e+002, 1.224183e+003
5.919967e+002, 1.223576e+003
5.924788e+002, 1.223245e+003
5.929609e+002, 1.223047e+003
5.934431e+002, 1.223123e+003
5.939252e+002, 1.223966e+003
5.944073e+002, 1.225777e+003
5.948894e+002, 1.228174e+003
5.953715e+002, 1.230688e+003
5.958536e+002, 1.233392e+003
5.963358e+002, 1.235898e+003
5.968179e+002, 1.238236e+003
5.973000e+002, 1.240376e+003
5.977821e+002, 1.242092e+003
5.982642e+002, 1.243690e+003
5.987463e+002, 1.245492e+003
5.992285e+002, 1.247629e+003
5.997106e+002, 1.250267e+003
6.001927e+002, 1.253780e+003
6.006748e+002, 1.258143e+003
6.011569e+002, 1.262428e+003
6.016390e+002, 1.266698e+003
6.021212e+002, 1.270624e+003
6.026033e+002, 1.273730e+003
6.030854e+002, 1.276440e+003
6.035675e+002, 1.279443e+003
6.040496e+002, 1.283152e+003
6.045317e+002, 1.286196e+003
6.050139e+002, 1.287598e+003
6.054960e+002, 1.288051e+003
6.059781e+002, 1.288152e+003
6.064602e+002, 1.288137e+003
6.069423e+002, 1.289143e+003
6.074244e+002, 1.292282e+003
6.079066e+002, 1.296785e+003
6.083887e+002, 1.299160e+003
6.088708e+002, 1.297707e+003
6.093529e+002, 1.296451e+003
6.098350e+002, 1.295195e+003
6.103171e+002, 1.294469e+003
6.107993e+002, 1.295292e+003
6.112814e+002, 1.297085e+003
6.117635e+002, 1.297870e+003
6.122456e+002, 1.296057e+003
6.127277e+002, 1.293043e+003
6.132098e+002, 1.291982e+003
6.136920e+002, 1.293077e+003
6.141741e+002, 1.293656e+003
6.146562e+002, 1.293079e+003
6.151383e+002, 1.291750e+003
6.156204e+002, 1.289843e+003
6.161025e+002, 1.287455e+003
6.165847e+002, 1.285186e+003
6.170668e+002, 1.282846e+003
6.175489e+002, 1.280966e+003
6.180310e+002, 1.280426e+003
6.185131e+002, 1.280498e+003
6.189952e+002, 1.279438e+003
6.194774e+002, 1.276782e+003
6.199595e+002, 1.274092e+003
6.204416e+002, 1.273375e+003
6.209237e+002, 1.274843e+003
6.214058e+002, 1.275060e+003
6.218879e+002, 1.272490e+003
6.223701e+002, 1.270548e+003
6.228522e+002, 1.270673e+003
6.233343e+002, 1.271350e+003
6.238164e+002, 1.270604e+003
6.242985e+002, 1.268224e+003
6.247806e+002, 1.266456e+003
6.252628e+002, 1.267582e+003
6.257448e+002, 1.270645e+003
6.262269e+002, 1.273116e+003
6.267090e+002, 1.274908e+003
6.271912e+002, 1.276525e+003
6.276733e+002, 1.278050e+003
6.281554e+002, 1.279680e+003
6.286375e+002, 1.281706e+003
6.291196e+002, 1.283905e+003
6.296017e+002, 1.287223e+003
6.300839e+002, 1.293085e+003
6.305660e+002, 1.298968e+003
6.310481e+002, 1.302635e+003
6.315302e+002, 1.304941e+003
6.320123e+002, 1.308092e+003
6.324944e+002, 1.313084e+003
6.329766e+002, 1.319345e+003
6.334587e+002, 1.326059e+003
6.339408e+002, 1.333394e+003
6.344229e+002, 1.340406e+003
6.349050e+002, 1.346411e+003
6.353871e+002, 1.352948e+003
6.358693e+002, 1.361584e+003
6.363514e+002, 1.370820e+003
6.368335e+002, 1.377767e+003
6.373156e+002, 1.380903e+003
6.377977e+002, 1.385467e+003
6.382798e+002, 1.396022e+003
6.387620e+002, 1.410254e+003
6.392441e+002, 1.423999e+003
6.397262e+002, 1.436748e+003
6.402083e+002, 1.449934e+003
6.406904e+002, 1.464317e+003
6.411725e+002, 1.479984e+003
6.416547e+002, 1.497403e+003
6.421368e+002, 1.517313e+003
6.426189e+002, 1.537937e+003
6.431010e+002, 1.557602e+003
6.435831e+002, 1.579385e+003
6.440652e+002, 1.605574e+003
6.445474e+002, 1.635591e+003
6.450295e+002, 1.667805e+003
6.455116e+002, 1.701286e+003
6.459937e+002, 1.736172e+003
6.464758e+002, 1.772127e+003
6.469579e+002, 1.809172e+003
6.474401e+002, 1.849862e+003
6.479222e+002, 1.894979e+003
6.484043e+002, 1.942703e+003
6.488864e+002, 1.993674e+003
6.493685e+002, 2.046208e+003
6.498506e+002, 2.093813e+003
6.503328e+002, 2.138820e+003
6.508149e+002, 2.174514e+003
6.512970e+002, 2.202305e+003
6.517791e+002, 2.217007e+003
6.522612e+002, 2.210823e+003
6.527433e+002, 2.183985e+003
6.532255e+002, 2.142493e+003
6.537076e+002, 2.089698e+003
6.541897e+002, 2.028138e+003
6.546718e+002, 1.966027e+003
6.551539e+002, 1.901785e+003
6.556360e+002, 1.841208e+003
6.561182e+002, 1.784582e+003
6.566003e+002, 1.732418e+003
6.570824e+002, 1.685215e+003
6.575645e+002, 1.642779e+003
6.580466e+002, 1.604957e+003
6.585287e+002, 1.572045e+003
6.590109e+002, 1.542808e+003
6.594930e+002, 1.516506e+003
6.599751e+002, 1.492984e+003
6.604572e+002, 1.471688e+003
6.609393e+002, 1.452587e+003
6.614214e+002, 1.435034e+003
6.619036e+002, 1.418548e+003
6.623857e+002, 1.403037e+003
6.628678e+002, 1.387765e+003
6.633499e+002, 1.371976e+003
6.638320e+002, 1.357505e+003
6.643141e+002, 1.345527e+003
6.647963e+002, 1.334101e+003
6.652784e+002, 1.321343e+003
6.657605e+002, 1.307574e+003
6.662426e+002, 1.294739e+003
6.667247e+002, 1.284235e+003
6.672068e+002, 1.274876e+003
6.676890e+002, 1.264140e+003
6.681711e+002, 1.252090e+003
6.686532e+002, 1.241028e+003
6.691353e+002, 1.231785e+003
6.696174e+002, 1.223008e+003
6.700995e+002, 1.213594e+003
6.705817e+002, 1.203559e+003
6.710638e+002, 1.193688e+003
6.715459e+002, 1.184694e+003
6.720280e+002, 1.174992e+003
6.725101e+002, 1.163218e+003
6.729922e+002, 1.151084e+003
6.734744e+002, 1.140182e+003
6.739565e+002, 1.130838e+003
6.744386e+002, 1.122843e+003
6.749207e+002, 1.116172e+003
6.754028e+002, 1.110417e+003
6.758849e+002, 1.104322e+003
6.763671e+002, 1.097972e+003
6.768492e+002, 1.090847e+003
6.773313e+002, 1.082092e+003
6.778134e+002, 1.073320e+003
6.782955e+002, 1.065649e+003
6.787776e+002, 1.058988e+003
6.792598e+002, 1.053149e+003
6.797419e+002, 1.049144e+003
6.802240e+002, 1.044600e+003
6.807061e+002, 1.037390e+003
6.811882e+002, 1.029026e+003
6.816703e+002, 1.021760e+003
6.821525e+002, 1.016015e+003
6.826346e+002, 1.010950e+003
6.831167e+002, 1.005819e+003
6.835988e+002, 1.000888e+003
6.840809e+002, 9.975639e+002
6.845630e+002, 9.968890e+002
6.850452e+002, 9.955599e+002
6.855273e+002, 9.927665e+002
6.860094e+002, 9.895351e+002
6.864915e+002, 9.858859e+002
6.869736e+002, 9.822580e+002
6.874557e+002, 9.797946e+002
6.879379e+002, 9.792459e+002
6.884200e+002, 9.794317e+002
6.889021e+002, 9.784999e+002
6.893842e+002, 9.776223e+002
6.898663e+002, 9.803602e+002
6.903484e+002, 9.872629e+002
6.908306e+002, 9.941985e+002
6.913127e+002, 9.981774e+002
6.917948e+002, 9.993635e+002
6.922769e+002, 9.986614e+002
6.927590e+002, 9.965204e+002
6.932411e+002, 9.915876e+002
6.937233e+002, 9.809570e+002
6.942054e+002, 9.703744e+002
6.946875e+002, 9.637094e+002
6.951696e+002, 9.599381e+002
6.956517e+002, 9.558508e+002
6.961339e+002, 9.499543e+002
6.966160e+002, 9.435500e+002
6.970981e+002, 9.373085e+002
6.975802e+002, 9.317042e+002
6.980623e+002, 9.287117e+002
6.985444e+002, 9.287776e+002
6.990266e+002, 9.295797e+002
6.995087e+002, 9.296503e+002
6.999908e+002, 9.290992e+002
7.004729e+002, 9.283394e+002
7.009550e+002, 9.263805e+002
7.014371e+002, 9.257558e+002
7.019193e+002, 9.276017e+002
7.024014e+002, 9.297582e+002
7.028835e+002, 9.311302e+002
7.033656e+002, 9.317301e+002
7.038477e+002, 9.317835e+002
7.043298e+002, 9.313386e+002
7.048120e+002, 9.308297e+002
7.052941e+002, 9.309069e+002
7.057762e+002, 9.314218e+002
7.062583e+002, 9.315225e+002
7.067404e+002, 9.310429e+002
7.072225e+002, 9.308016e+002
7.077046e+002, 9.313239e+002
7.081867e+002, 9.323707e+002
7.086688e+002, 9.333723e+002
7.091509e+002, 9.344055e+002
7.096331e+002, 9.351932e+002
7.101152e+002, 9.349174e+002
7.105973e+002, 9.351651e+002
7.110794e+002, 9.375394e+002
7.115615e+002, 9.409177e+002
7.120436e+002, 9.432000e+002
7.125258e+002, 9.436438e+002
7.130079e+002, 9.433509e+002
7.134900e+002, 9.435688e+002
7.139721e+002, 9.441741e+002
7.144542e+002, 9.444635e+002
7.149363e+002, 9.443729e+002
7.154185e+002, 9.442498e+002
7.159006e+002, 9.442833e+002
7.163827e+002, 9.443420e+002
7.168648e+002, 9.440804e+002
7.173469e+002, 9.433408e+002
7.178290e+002, 9.432528e+002
7.183112e+002, 9.445232e+002
7.187933e+002, 9.458152e+002
7.192754e+002, 9.462366e+002
7.197575e+002, 9.463534e+002
7.202396e+002, 9.472360e+002
7.207217e+002, 9.490420e+002
7.212039e+002, 9.506547e+002
7.216860e+002, 9.509387e+002
7.221681e+002, 9.501561e+002
7.226502e+002, 9.490131e+002
7.231323e+002, 9.473120e+002
7.236144e+002, 9.470683e+002
7.240966e+002, 9.498171e+002
7.245787e+002, 9.529272e+002
7.250608e+002, 9.526638e+002
7.255429e+002, 9.491351e+002
7.260250e+002, 9.479156e+002
7.265071e+002, 9.506218e+002
7.269893e+002, 9.541037e+002
7.274714e+002, 9.576736e+002
7.279535e+002, 9.611688e+002
7.284356e+002, 9.644906e+002
7.289177e+002, 9.675715e+002
7.293998e+002, 9.701410e+002
7.298820e+002, 9.717420e+002
7.303641e+002, 9.731648e+002
7.308462e+002, 9.765508e+002
7.313283e+002, 9.819754e+002
7.318104e+002, 9.869409e+002
7.322925e+002, 9.909552e+002
7.327747e+002, 9.944119e+002
7.332568e+002, 9.973269e+002
7.337389e+002, 9.999009e+002
7.342210e+002, 1.003197e+003
7.347031e+002, 1.007718e+003
7.351852e+002, 1.012125e+003
7.356674e+002, 1.015619e+003
7.361495e+002, 1.019328e+003
7.366316e+002, 1.024811e+003
7.371137e+002, 1.031353e+003
7.375958e+002, 1.036742e+003
7.380779e+002, 1.039855e+003
7.385601e+002, 1.042108e+003
7.390422e+002, 1.045624e+003
7.395243e+002, 1.050265e+003
7.400064e+002, 1.054746e+003
7.404885e+002, 1.058901e+003
7.409706e+002, 1.063169e+003
7.414528e+002, 1.067959e+003
7.419349e+002, 1.072880e+003
7.424170e+002, 1.076890e+003
7.428991e+002, 1.079486e+003
7.433812e+002, 1.083005e+003
7.438633e+002, 1.089006e+003
7.443455e+002, 1.094562e+003
7.448276e+002, 1.098115e+003
7.453097e+002, 1.100220e+003
7.457918e+002, 1.101610e+003
7.462739e+002, 1.102590e+003
7.467560e+002, 1.103682e+003
7.472382e+002, 1.105947e+003
7.477203e+002, 1.108622e+003
7.482024e+002, 1.108930e+003
7.486845e+002, 1.106807e+003
7.491666e+002, 1.105222e+003
7.496487e+002, 1.105444e+003
7.501309e+002, 1.105880e+003
7.506130e+002, 1.104547e+003
7.510951e+002, 1.101319e+003
7.515772e+002, 1.098547e+003
7.520593e+002, 1.097604e+003
7.525414e+002, 1.095283e+003
7.530236e+002, 1.089481e+003
7.535057e+002, 1.082975e+003
7.539878e+002, 1.078535e+003
7.544699e+002, 1.075944e+003
7.549520e+002, 1.072962e+003
7.554341e+002, 1.068266e+003
7.559163e+002, 1.062634e+003
7.563984e+002, 1.057380e+003
7.568805e+002, 1.052183e+003
7.573626e+002, 1.045522e+003
7.578447e+002, 1.037066e+003
7.583268e+002, 1.028294e+003
7.588090e+002, 1.020125e+003
7.592911e+002, 1.012550e+003
7.597732e+002, 1.005490e+003
7.602553e+002, 9.991335e+002
7.607374e+002, 9.929688e+002
7.612195e+002, 9.870469e+002
7.617017e+002, 9.813099e+002
7.621838e+002, 9.759696e+002
7.626659e+002, 9.707369e+002
7.631480e+002, 9.650320e+002
7.636301e+002, 9.586918e+002
7.641122e+002, 9.524700e+002
7.645944e+002, 9.465630e+002
7.650765e+002, 9.413124e+002
7.655586e+002, 9.376843e+002
7.660407e+002, 9.353561e+002
7.665228e+002, 9.326528e+002
7.670049e+002, 9.289067e+002
7.674871e+002, 9.245862e+002
7.679692e+002, 9.202391e+002
7.684513e+002, 9.158000e+002
7.689334e+002, 9.119974e+002
7.694155e+002, 9.089501e+002
7.698976e+002, 9.063106e+002
7.703798e+002, 9.037882e+002
7.708619e+002, 9.017747e+002
7.713440e+002, 9.011427e+002
7.718261e+002, 9.014925e+002
7.723082e+002, 9.008087e+002
7.727903e+002, 8.973859e+002
7.732725e+002, 8.940792e+002
7.737546e+002, 8.929798e+002
7.742367e+002, 8.932519e+002
7.747188e+002, 8.938977e+002
7.752009e+002, 8.946160e+002
7.756830e+002, 8.949508e+002
7.761652e+002, 8.945563e+002
7.766473e+002, 8.938233e+002
7.771294e+002, 8.938076e+002
7.776115e+002, 8.947191e+002
7.780936e+002, 8.948506e+002
7.785757e+002, 8.934371e+002
7.790579e+002, 8.924664e+002
7.795400e+002, 8.934513e+002
7.800221e+002, 8.953764e+002
7.805042e+002, 8.964304e+002
7.809863e+002, 8.963000e+002
7.814684e+002, 8.966553e+002
7.819506e+002, 8.984455e+002
7.824327e+002, 9.002941e+002
7.829148e+002, 9.009987e+002
7.833969e+002, 9.012675e+002
7.838790e+002, 9.024904e+002
7.843611e+002, 9.049261e+002
7.848433e+002, 9.074398e+002
7.853254e+002, 9.089381e+002
7.858075e+002, 9.097479e+002
7.862896e+002, 9.111146e+002
7.867717e+002, 9.130588e+002
7.872538e+002, 9.133696e+002
7.877360e+002, 9.108221e+002
7.882181e+002, 9.086122e+002
7.887002e+002, 9.101401e+002
7.891823e+002, 9.148021e+002
7.896644e+002, 9.174034e+002
7.901465e+002, 9.168227e+002
7.906286e+002, 9.159117e+002
7.911107e+002, 9.146710e+002
7.915928e+002, 9.133544e+002
7.920750e+002, 9.115110e+002
7.925571e+002, 9.098393e+002
7.930392e+002, 9.099733e+002
7.935213e+002, 9.126981e+002
7.940034e+002, 9.155599e+002
7.944855e+002, 9.163073e+002
7.949677e+002, 9.157693e+002
7.954498e+002, 9.155903e+002
7.959319e+002, 9.157157e+002
7.964140e+002, 9.149645e+002
7.968961e+002, 9.127806e+002
7.973782e+002, 9.102269e+002
7.978604e+002, 9.089266e+002
7.983425e+002, 9.089765e+002
7.988246e+002, 9.075267e+002
7.993067e+002, 9.037670e+002
7.997888e+002, 8.999498e+002
8.002709e+002, 8.962644e+002
8.007531e+002, 8.930104e+002
8.012352e+002, 8.906840e+002
8.017173e+002, 8.890904e+002
8.021994e+002, 8.873282e+002
8.026815e+002, 8.849651e+002
8.031636e+002, 8.826794e+002
8.036458e+002, 8.809391e+002
8.041279e+002, 8.794225e+002
8.046100e+002, 8.779391e+002
8.050921e+002, 8.763355e+002
8.055742e+002, 8.741992e+002
8.060563e+002, 8.713021e+002
8.065385e+002, 8.680671e+002
8.070206e+002, 8.651262e+002
8.075027e+002, 8.624694e+002
8.079848e+002, 8.600991e+002
8.084669e+002, 8.581225e+002
8.089490e+002, 8.557568e+002
8.094312e+002, 8.523563e+002
8.099133e+002, 8.488185e+002
8.103954e+002, 8.466266e+002
8.108775e+002, 8.460831e+002
8.113596e+002, 8.449236e+002
8.118417e+002, 8.424883e+002
8.123239e+002, 8.402964e+002
8.128060e+002, 8.390685e+002
8.132881e+002, 8.380535e+002
8.137702e+002, 8.362568e+002
8.142523e+002, 8.339221e+002
8.147344e+002, 8.324012e+002
8.152166e+002, 8.325939e+002
8.156987e+002, 8.333730e+002
8.161808e+002, 8.339078e+002
8.166629e+002, 8.340577e+002
8.171450e+002, 8.330724e+002
8.176271e+002, 8.310920e+002
8.181093e+002, 8.299257e+002
8.185914e+002, 8.306444e+002
8.190735e+002, 8.325193e+002
8.195556e+002, 8.342772e+002
8.200377e+002, 8.359965e+002
8.205198e+002, 8.369747e+002
8.210020e+002, 8.366457e+002
8.214841e+002, 8.366342e+002
8.219662e+002, 8.374736e+002
8.224483e+002, 8.389873e+002
8.229304e+002, 8.410758e+002
8.234125e+002, 8.437220e+002
8.238947e+002, 8.464662e+002
8.243768e+002, 8.492354e+002
8.248589e+002, 8.520618e+002
8.253410e+002, 8.551289e+002
8.258231e+002, 8.581794e+002
8.263052e+002, 8.608332e+002
8.267874e+002, 8.631659e+002
8.272695e+002, 8.655621e+002
8.277516e+002, 8.682328e+002
8.282337e+002, 8.711512e+002
8.287158e+002, 8.744724e+002
8.291979e+002, 8.780312e+002
8.296801e+002, 8.809062e+002
8.301622e+002, 8.829932e+002
8.306443e+002, 8.856930e+002
8.311264e+002, 8.897723e+002
8.316085e+002, 8.945804e+002
8.320906e+002, 8.991312e+002
8.325728e+002, 9.033845e+002
8.330549e+002, 9.074556e+002
8.335370e+002, 9.110685e+002
8.340191e+002, 9.148447e+002
8.345012e+002, 9.187151e+002
8.349833e+002, 9.229159e+002
8.354655e+002, 9.281169e+002
8.359476e+002, 9.339675e+002
8.364297e+002, 9.388154e+002
8.369118e+002, 9.411262e+002
8.373939e+002, 9.439974e+002
8.378760e+002, 9.497422e+002
8.383582e+002, 9.565681e+002
8.388403e+002, 9.625596e+002
8.393224e+002, 9.676481e+002
8.398045e+002, 9.725502e+002
8.402866e+002, 9.776010e+002
8.407687e+002, 9.823328e+002
8.412509e+002, 9.858633e+002
8.417330e+002, 9.884153e+002
8.422151e+002, 9.914567e+002
8.426972e+002, 9.950836e+002
8.431793e+002, 9.975424e+002
8.436614e+002, 9.978436e+002
8.441436e+002, 9.976691e+002
8.446257e+002, 9.989332e+002
8.451078e+002, 1.001601e+003
8.455899e+002, 1.004416e+003
8.460720e+002, 1.008803e+003
8.465541e+002, 1.011149e+003
8.470363e+002, 1.009905e+003
8.475184e+002, 1.007756e+003
8.480005e+002, 1.006225e+003
8.484826e+002, 1.005115e+003
8.489647e+002, 1.003706e+003
8.494468e+002, 1.001746e+003
8.499290e+002, 9.998103e+002
8.504111e+002, 9.985250e+002
8.508932e+002, 9.971643e+002
8.513753e+002, 9.947684e+002
8.518574e+002, 9.917209e+002
8.523395e+002, 9.892040e+002
8.528217e+002, 9.874872e+002
8.533038e+002, 9.853282e+002
8.537859e+002, 9.814355e+002
8.542680e+002, 9.762784e+002
8.547501e+002, 9.710814e+002
8.552322e+002, 9.658375e+002
8.557144e+002, 9.618088e+002
8.561965e+002, 9.595809e+002
8.566786e+002, 9.571707e+002
8.571607e+002, 9.529844e+002
8.576428e+002, 9.476019e+002
8.581249e+002, 9.428584e+002
8.586071e+002, 9.390964e+002
8.590892e+002, 9.352484e+002
8.595713e+002, 9.312475e+002
8.600534e+002, 9.272300e+002
8.605355e+002, 9.224968e+002
8.610176e+002, 9.181721e+002
8.614998e+002, 9.161121e+002
8.619819e+002, 9.163370e+002
8.624640e+002, 9.157421e+002
8.629461e+002, 9.130258e+002
8.634282e+002, 9.091209e+002
8.639103e+002, 9.036738e+002
8.643925e+002, 8.979700e+002
8.648746e+002, 8.938036e+002
8.653567e+002, 8.912791e+002
8.658388e+002, 8.898764e+002
8.663209e+002, 8.894310e+002
8.668030e+002, 8.888486e+002
8.672852e+002, 8.861673e+002
8.677673e+002, 8.818004e+002
8.682494e+002, 8.777558e+002
8.687315e+002, 8.741494e+002
8.692136e+002, 8.713426e+002
8.696957e+002, 8.697060e+002
8.701779e+002, 8.680867e+002
8.706600e+002, 8.647582e+002
8.711421e+002, 8.596870e+002
8.716242e+002, 8.561855e+002
8.721063e+002, 8.547970e+002
8.725884e+002, 8.540193e+002
8.730705e+002, 8.544955e+002
8.735526e+002, 8.547005e+002
8.740347e+002, 8.538837e+002
8.745168e+002, 8.520656e+002
8.749990e+002, 8.490482e+002
8.754811e+002, 8.439800e+002
8.759632e+002, 8.402957e+002
8.764453e+002, 8.403882e+002
8.769274e+002, 8.411622e+002
8.774095e+002, 8.403859e+002
8.778917e+002, 8.386463e+002
8.783738e+002, 8.370258e+002
8.788559e+002, 8.358632e+002
8.793380e+002, 8.352178e+002
8.798201e+002, 8.355232e+002
8.803022e+002, 8.359179e+002
8.807844e+002, 8.346866e+002
8.812665e+002, 8.323021e+002
8.817486e+002, 8.305803e+002
8.822307e+002, 8.297793e+002
8.827128e+002, 8.289620e+002
8.831949e+002, 8.275146e+002
8.836771e+002, 8.258124e+002
8.841592e+002, 8.247501e+002
8.846413e+002, 8.244941e+002
8.851234e+002, 8.234777e+002
8.856055e+002, 8.212029e+002
8.860876e+002, 8.194344e+002
8.865698e+002, 8.193401e+002
8.870519e+002, 8.194208e+002
8.875340e+002, 8.175162e+002
8.880161e+002, 8.138431e+002
8.884982e+002, 8.117586e+002
8.889803e+002, 8.124613e+002
8.894625e+002, 8.131937e+002
8.899446e+002, 8.147012e+002
8.904267e+002, 8.149518e+002
8.909088e+002, 8.113209e+002
8.913909e+002, 8.057224e+002
8.918730e+002, 8.020960e+002
8.923552e+002, 8.015634e+002
8.928373e+002, 8.014495e+002
8.933194e+002, 8.004233e+002
8.938015e+002, 7.986535e+002
8.942836e+002, 7.959758e+002
8.947657e+002, 7.927975e+002
8.952479e+002, 7.898724e+002
8.957300e+002, 7.874045e+002
8.962121e+002, 7.853241e+002
8.966942e+002, 7.836196e+002
8.971763e+002, 7.821766e+002
8.976584e+002, 7.807651e+002
8.981406e+002, 7.794001e+002
8.986227e+002, 7.780693e+002
8.991048e+002, 7.767115e+002
8.995869e+002, 7.763422e+002
9.000690e+002, 7.777766e+002
9.005511e+002, 7.794344e+002
9.010333e+002, 7.787116e+002
9.015154e+002, 7.754183e+002
9.019975e+002, 7.741112e+002
9.024796e+002, 7.763187e+002
9.029617e+002, 7.776563e+002
9.034438e+002, 7.762745e+002
9.039260e+002, 7.748074e+002
9.044081e+002, 7.754514e+002
9.048902e+002, 7.773432e+002
9.053723e+002, 7.782377e+002
9.058544e+002, 7.777130e+002
9.063365e+002, 7.767248e+002
9.068187e+002, 7.754388e+002
9.073008e+002, 7.738232e+002
9.077829e+002, 7.717191e+002
9.082650e+002, 7.693564e+002
9.087471e+002, 7.668045e+002
9.092292e+002, 7.642293e+002
9.097114e+002, 7.622896e+002
9.101935e+002, 7.617096e+002
9.106756e+002, 7.614056e+002
9.111577e+002, 7.599338e+002
9.116398e+002, 7.580809e+002
9.121219e+002, 7.575553e+002
9.126041e+002, 7.582253e+002
9.130862e+002, 7.584073e+002
9.135683e+002, 7.573053e+002
9.140504e+002, 7.563359e+002
9.145325e+002, 7.578717e+002
9.150146e+002, 7.612615e+002
9.154968e+002, 7.624918e+002
9.159789e+002, 7.614852e+002
9.164610e+002, 7.606536e+002
9.169431e+002, 7.604666e+002
9.174252e+002, 7.613198e+002
9.179073e+002, 7.638652e+002
9.183895e+002, 7.674347e+002
9.188716e+002, 7.695095e+002
9.193537e+002, 7.692834e+002
9.198358e+002, 7.697012e+002
9.203179e+002, 7.718757e+002
9.208000e+002, 7.730826e+002
9.212822e+002, 7.714001e+002
9.217643e+002, 7.687422e+002
9.222464e+002, 7.671540e+002
9.227285e+002, 7.666261e+002
9.232106e+002, 7.660900e+002
9.236927e+002, 7.653485e+002
9.241749e+002, 7.646426e+002
9.246570e+002, 7.639633e+002
9.251391e+002, 7.634161e+002
9.256212e+002, 7.630985e+002
9.261033e+002, 7.629815e+002
9.265854e+002, 7.629351e+002
9.270676e+002, 7.629174e+002
9.275497e+002, 7.632781e+002
9.280318e+002, 7.644041e+002
9.285139e+002, 7.658853e+002
9.289960e+002, 7.676360e+002
9.294781e+002, 7.693285e+002
9.299603e+002, 7.699876e+002
9.304424e+002, 7.697836e+002
9.309245e+002, 7.704843e+002
9.314066e+002, 7.733550e+002
9.318887e+002, 7.768762e+002
9.323708e+002, 7.783474e+002
9.328530e+002, 7.783685e+002
9.333351e+002, 7.795421e+002
9.338172e+002, 7.819376e+002
9.342993e+002, 7.842440e+002
9.347814e+002, 7.859258e+002
9.352635e+002, 7.876854e+002
9.357457e+002, 7.902700e+002
9.362278e+002, 7.936047e+002
9.367099e+002, 7.974568e+002
9.371920e+002, 8.021805e+002
9.376741e+002, 8.057282e+002
9.381563e+002, 8.072607e+002
9.386384e+002, 8.089904e+002
9.391205e+002, 8.123915e+002
9.396026e+002, 8.165593e+002
9.400847e+002, 8.199760e+002
9.405668e+002, 8.226178e+002
9.410490e+002, 8.246238e+002
9.415311e+002, 8.261500e+002
9.420132e+002, 8.268743e+002
9.424953e+002, 8.266984e+002
9.429774e+002, 8.257473e+002
9.434595e+002, 8.234427e+002
9.439417e+002, 8.205262e+002
9.444238e+002, 8.188849e+002
9.449059e+002, 8.191486e+002
9.453880e+002, 8.196718e+002
9.458701e+002, 8.200057e+002
9.463522e+002, 8.202709e+002
9.468344e+002, 8.204980e+002
9.473165e+002, 8.207311e+002
9.477986e+002, 8.209892e+002
9.482807e+002, 8.212985e+002
9.487628e+002, 8.217147e+002
9.492449e+002, 8.222086e+002
9.497271e+002, 8.229752e+002
9.502092e+002, 8.241262e+002
9.506913e+002, 8.257145e+002
9.511734e+002, 8.280720e+002
9.516555e+002, 8.309505e+002
9.521376e+002, 8.335803e+002
9.526198e+002, 8.357051e+002
9.531019e+002, 8.376077e+002
9.535840e+002, 8.394409e+002
9.540661e+002, 8.414144e+002
9.545482e+002, 8.442233e+002
9.550303e+002, 8.477147e+002
9.555124e+002, 8.507391e+002
9.559945e+002, 8.531535e+002
9.564766e+002, 8.559990e+002
9.569587e+002, 8.599109e+002
9.574409e+002, 8.642131e+002
9.579230e+002, 8.677864e+002
9.584051e+002, 8.706672e+002
9.588872e+002, 8.735474e+002
9.593693e+002, 8.763412e+002
9.598514e+002, 8.796083e+002
9.603336e+002, 8.836700e+002
9.608157e+002, 8.877181e+002
9.612978e+002, 8.908826e+002
9.617799e+002, 8.937122e+002
9.622620e+002, 8.979445e+002
9.627441e+002, 9.047230e+002
9.632263e+002, 9.093206e+002
9.637084e+002, 9.092111e+002
9.641905e+002, 9.103397e+002
9.646726e+002, 9.153139e+002
9.651547e+002, 9.212864e+002
9.656368e+002, 9.259327e+002
9.661190e+002, 9.294447e+002
9.666011e+002, 9.329545e+002
9.670832e+002, 9.362831e+002
9.675653e+002, 9.402851e+002
9.680474e+002, 9.451736e+002
9.685295e+002, 9.507565e+002
9.690117e+002, 9.574553e+002
9.694938e+002, 9.644667e+002
9.699759e+002, 9.707303e+002
9.704580e+002, 9.761612e+002
9.709401e+002, 9.812910e+002
9.714222e+002, 9.857582e+002
9.719044e+002, 9.909198e+002
9.723865e+002, 9.980300e+002
9.728686e+002, 1.005958e+003
9.733507e+002, 1.013661e+003
9.738328e+002, 1.021082e+003
9.743149e+002, 1.028323e+003
9.747971e+002, 1.035437e+003
9.752792e+002, 1.042684e+003
9.757613e+002, 1.050077e+003
9.762434e+002, 1.057875e+003
9.767255e+002, 1.066205e+003
9.772076e+002, 1.075271e+003
9.776898e+002, 1.085860e+003
9.781719e+002, 1.097847e+003
9.786540e+002, 1.109823e+003
9.791361e+002, 1.121189e+003
9.796182e+002, 1.132876e+003
9.801003e+002, 1.145439e+003
9.805825e+002, 1.159523e+003
9.810646e+002, 1.177083e+003
9.815467e+002, 1.197926e+003
9.820288e+002, 1.220640e+003
9.825109e+002, 1.244859e+003
9.829930e+002, 1.272132e+003
9.834752e+002, 1.303398e+003
9.839573e+002, 1.338117e+003
9.844394e+002, 1.375149e+003
9.849215e+002, 1.414415e+003
9.854036e+002, 1.457940e+003
9.858857e+002, 1.506259e+003
9.863679e+002, 1.556760e+003
9.868500e+002, 1.611146e+003
9.873321e+002, 1.661311e+003
9.878142e+002, 1.703208e+003
9.882963e+002, 1.733520e+003
9.887784e+002, 1.741542e+003
9.892606e+002, 1.725193e+003
9.897427e+002, 1.693052e+003
9.902248e+002, 1.639672e+003
9.907069e+002, 1.580480e+003
9.911890e+002, 1.515609e+003
9.916711e+002, 1.451465e+003
9.921533e+002, 1.393308e+003
9.926354e+002, 1.341000e+003
9.931175e+002, 1.294345e+003
9.935996e+002, 1.253468e+003
9.940817e+002, 1.218204e+003
9.945638e+002, 1.191146e+003
9.950460e+002, 1.166344e+003
9.955281e+002, 1.140641e+003
9.960102e+002, 1.116774e+003
9.964923e+002, 1.097870e+003
9.969744e+002, 1.083759e+003
9.974565e+002, 1.072485e+003
9.979387e+002, 1.065239e+003
9.984208e+002, 1.058289e+003
9.989029e+002, 1.050334e+003
9.993850e+002, 1.042819e+003
9.998671e+002, 1.036510e+003
1.000349e+003, 1.031365e+003
1.000831e+003, 1.027735e+003
1.001313e+003, 1.025395e+003
1.001796e+003, 1.022510e+003
1.002278e+003, 1.017949e+003
1.002760e+003, 1.013264e+003
1.003242e+003, 1.008994e+003
1.003724e+003, 1.005262e+003
1.004206e+003, 1.002190e+003
1.004688e+003, 9.997167e+002
1.005170e+003, 9.977795e+002
1.005653e+003, 9.963060e+002
1.006135e+003, 9.948405e+002
1.006617e+003, 9.924072e+002
1.007099e+003, 9.907744e+002
1.007581e+003, 9.926251e+002
1.008063e+003, 9.956769e+002
1.008545e+003, 9.963751e+002
1.009027e+003, 9.952794e+002
1.009509e+003, 9.951255e+002
1.009992e+003, 9.968046e+002
1.010474e+003, 9.986373e+002
1.010956e+003, 9.990551e+002
1.011438e+003, 9.988705e+002
1.011920e+003, 9.989656e+002
1.012402e+003, 9.995178e+002
1.012884e+003, 1.001352e+003
1.013366e+003, 1.004177e+003
1.013849e+003, 1.006236e+003
1.014331e+003, 1.006787e+003
1.014813e+003, 1.007021e+003
1.015295e+003, 1.008350e+003
1.015777e+003, 1.010291e+003
1.016259e+003, 1.011867e+003
1.016741e+003, 1.012988e+003
1.017223e+003, 1.013083e+003
1.017705e+003, 1.012129e+003
1.018188e+003, 1.010681e+003
1.018670e+003, 1.008991e+003
1.019152e+003, 1.007517e+003
1.019634e+003, 1.006879e+003
1.020116e+003, 1.007005e+003
1.020598e+003, 1.007782e+003
1.021080e+003, 1.009161e+003
1.021562e+003, 1.009559e+003
1.022044e+003, 1.008608e+003
1.022527e+003, 1.008585e+003
1.023009e+003, 1.010857e+003
1.023491e+003, 1.014552e+003
1.023973e+003, 1.018606e+003
1.024455e+003, 1.022901e+003
1.024937e+003, 1.024927e+003
1.025419e+003, 1.024263e+003
1.025901e+003, 1.024972e+003
1.026384e+003, 1.028061e+003
1.026866e+003, 1.031448e+003
1.027348e+003, 1.033831e+003
1.027830e+003, 1.035755e+003
1.028312e+003, 1.038189e+003
1.028794e+003, 1.041164e+003
1.029276e+003, 1.044542e+003
1.029758e+003, 1.048851e+003
1.030240e+003, 1.051440e+003
1.030723e+003, 1.050594e+003
1.031205e+003, 1.050930e+003
1.031687e+003, 1.055987e+003
1.032169e+003, 1.063615e+003
1.032651e+003, 1.069338e+003
1.033133e+003, 1.072733e+003
1.033615e+003, 1.077657e+003
1.034097e+003, 1.084426e+003
1.034579e+003, 1.092067e+003
1.035062e+003, 1.100613e+003
1.035544e+003, 1.109695e+003
1.036026e+003, 1.119420e+003
1.036508e+003, 1.129192e+003
1.036990e+003, 1.137368e+003
1.037472e+003, 1.143178e+003
1.037954e+003, 1.151663e+003
1.038436e+003, 1.164486e+003
1.038919e+003, 1.177244e+003
1.039401e+003, 1.189724e+003
1.039883e+003, 1.201281e+003
1.040365e+003, 1.211757e+003
1.040847e+003, 1.220944e+003
1.041329e+003, 1.228576e+003
1.041811e+003, 1.235021e+003
1.042293e+003, 1.238204e+003
1.042776e+003, 1.237158e+003
1.043258e+003, 1.234207e+003
1.043740e+003, 1.227798e+003
1.044222e+003, 1.221596e+003
1.044704e+003, 1.218166e+003
1.045186e+003, 1.216558e+003
1.045668e+003, 1.214744e+003
1.046150e+003, 1.212391e+003
1.046632e+003, 1.211377e+003
1.047115e+003, 1.212366e+003
1.047597e+003, 1.214064e+003
1.048079e+003, 1.215994e+003
1.048561e+003, 1.218682e+003
1.049043e+003, 1.222789e+003
1.049525e+003, 1.227801e+003
1.050007e+003, 1.232584e+003
1.050489e+003, 1.236840e+003
1.050971e+003, 1.242687e+003
1.051454e+003, 1.252406e+003
1.051936e+003, 1.261165e+003
1.052418e+003, 1.266447e+003
1.052900e+003, 1.271329e+003
1.053382e+003, 1.277770e+003
1.053864e+003, 1.285552e+003
1.054346e+003, 1.293810e+003
1.054828e+003, 1.302423e+003
1.055311e+003, 1.312746e+003
1.055793e+003, 1.326318e+003
1.056275e+003, 1.340062e+003
1.056757e+003, 1.351203e+003
1.057239e+003, 1.363816e+003
1.057721e+003, 1.379566e+003
1.058203e+003, 1.399488e+003
1.058685e+003, 1.422356e+003
1.059167e+003, 1.448410e+003
1.059650e+003, 1.490481e+003
1.060132e+003, 1.568562e+003
1.060614e+003, 1.642069e+003
1.061096e+003, 1.714297e+003
1.061578e+003, 1.758335e+003
1.062060e+003, 1.740808e+003
1.062542e+003, 1.687145e+003
1.063024e+003, 1.634766e+003
1.063506e+003, 1.591105e+003
1.063989e+003, 1.558206e+003
1.064471e+003, 1.539002e+003
1.064953e+003, 1.527311e+003
1.065435e+003, 1.524192e+003
1.065917e+003, 1.524025e+003
1.066399e+003, 1.521877e+003
1.066881e+003, 1.520079e+003
1.067363e+003, 1.522980e+003
1.067846e+003, 1.530895e+003
1.068328e+003, 1.540305e+003
1.068810e+003, 1.550125e+003
1.069292e+003, 1.560832e+003
1.069774e+003, 1.573790e+003
1.070256e+003, 1.586564e+003
1.070738e+003, 1.598344e+003
1.071220e+003, 1.608242e+003
1.071703e+003, 1.614867e+003
1.072185e+003, 1.618453e+003
1.072667e+003, 1.621498e+003
1.073149e+003, 1.625089e+003
1.073631e+003, 1.627860e+003
1.074113e+003, 1.627875e+003
1.074595e+003, 1.628195e+003
1.075077e+003, 1.631141e+003
1.075559e+003, 1.635669e+003
1.076042e+003, 1.640706e+003
1.076524e+003, 1.645848e+003
1.077006e+003, 1.650367e+003
1.077488e+003, 1.653774e+003
1.077970e+003, 1.657368e+003
1.078452e+003, 1.661190e+003
1.078934e+003, 1.666056e+003
1.079416e+003, 1.673660e+003
1.079898e+003, 1.681861e+003
1.080380e+003, 1.688281e+003
1.080863e+003, 1.692901e+003
1.081345e+003, 1.696464e+003
1.081827e+003, 1.698696e+003
1.082309e+003, 1.702395e+003
1.082791e+003, 1.709743e+003
1.083273e+003, 1.717876e+003
1.083755e+003, 1.725442e+003
1.084237e+003, 1.732529e+003
1.084720e+003, 1.739089e+003
1.085202e+003, 1.745343e+003
1.085684e+003, 1.751684e+003
1.086166e+003, 1.758113e+003
1.086648e+003, 1.765406e+003
1.087130e+003, 1.775406e+003
1.087612e+003, 1.784446e+003
1.088094e+003, 1.789718e+003
1.088577e+003, 1.794034e+003
1.089059e+003, 1.799560e+003
1.089541e+003, 1.806410e+003
1.090023e+003, 1.814251e+003
1.090505e+003, 1.823080e+003
1.090987e+003, 1.832482e+003
1.091469e+003, 1.844068e+003
1.091951e+003, 1.853961e+003
1.092433e+003, 1.858654e+003
1.092916e+003, 1.862850e+003
1.093398e+003, 1.870219e+003
1.093880e+003, 1.879674e+003
1.094362e+003, 1.888995e+003
1.094844e+003, 1.897874e+003
1.095326e+003, 1.907393e+003
1.095808e+003, 1.918484e+003
1.096290e+003, 1.929347e+003
1.096772e+003, 1.938866e+003
1.097255e+003, 1.948533e+003
1.097737e+003, 1.958702e+003
1.098219e+003, 1.970066e+003
1.098701e+003, 1.984295e+003
1.099183e+003, 2.000831e+003
1.099665e+003, 2.015861e+003
1.100147e+003, 2.027875e+003
1.100629e+003, 2.039639e+003
1.101112e+003, 2.050792e+003
1.101594e+003, 2.063028e+003
1.102076e+003, 2.077871e+003
1.102558e+003, 2.093753e+003
1.103040e+003, 2.108908e+003
1.103522e+003, 2.123536e+003
1.104004e+003, 2.138772e+003
1.104486e+003, 2.154695e+003
1.104969e+003, 2.171631e+003
1.105451e+003, 2.190304e+003
1.105933e+003, 2.209068e+003
1.106415e+003, 2.227169e+003
1.106897e+003, 2.245360e+003
1.107379e+003, 2.264430e+003
1.107861e+003, 2.284137e+003
1.108343e+003, 2.303540e+003
1.108825e+003, 2.322258e+003
1.109307e+003, 2.342726e+003
1.109790e+003, 2.366433e+003
1.110272e+003, 2.390115e+003
1.110754e+003, 2.413530e+003
1.111236e+003, 2.436190e+003
1.111718e+003, 2.457152e+003
1.112200e+003, 2.477619e+003
1.112682e+003, 2.499693e+003
1.113164e+003, 2.523468e+003
1.113647e+003, 2.546430e+003
1.114129e+003, 2.566878e+003
1.114611e+003, 2.589273e+003
1.115093e+003, 2.614964e+003
1.115575e+003, 2.641125e+003
1.116057e+003, 2.666278e+003
1.116539e+003, 2.691595e+003
1.117021e+003, 2.718481e+003
1.117504e+003, 2.746785e+003
1.117986e+003, 2.775411e+003
1.118468e+003, 2.803893e+003
1.118950e+003, 2.833342e+003
1.119432e+003, 2.863113e+003
1.119914e+003, 2.895184e+003
1.120396e+003, 2.931312e+003
1.120878e+003, 2.968347e+003
1.121360e+003, 3.003928e+003
1.121843e+003, 3.038424e+003
1.122325e+003, 3.072625e+003
1.122807e+003, 3.106451e+003
1.123289e+003, 3.140417e+003
1.123771e+003, 3.174531e+003
1.124253e+003, 3.208924e+003
1.124735e+003, 3.242782e+003
1.125217e+003, 3.279763e+003
1.125699e+003, 3.322673e+003
1.126182e+003, 3.369021e+003
1.126664e+003, 3.414468e+003
1.127146e+003, 3.459014e+003
1.127628e+003, 3.501912e+003
1.128110e+003, 3.542281e+003
1.128592e+003, 3.587227e+003
1.129074e+003, 3.637706e+003
1.129556e+003, 3.690536e+003
1.130039e+003, 3.744276e+003
1.130521e+003, 3.798065e+003
1.131003e+003, 3.850548e+003
1.131485e+003, 3.902700e+003
1.131967e+003, 3.957352e+003
1.132449e+003, 4.014500e+003
1.132931e+003, 4.073664e+003
1.133413e+003, 4.135286e+003
1.133896e+003, 4.201633e+003
1.134378e+003, 4.273450e+003
1.134860e+003, 4.346381e+003
1.135342e+003, 4.416829e+003
1.135824e+003, 4.487558e+003
1.136306e+003, 4.563849e+003
1.136788e+003, 4.644688e+003
1.137270e+003, 4.724821e+003
1.137752e+003, 4.805622e+003
1.138234e+003, 4.894926e+003
1.138717e+003, 4.993502e+003
1.139199e+003, 5.093710e+003
1.139681e+003, 5.192124e+003
1.140163e+003, 5.293266e+003
1.140645e+003, 5.404413e+003
1.141127e+003, 5.521539e+003
1.141609e+003, 5.638212e+003
1.142091e+003, 5.755400e+003
1.142574e+003, 5.873104e+003
1.143056e+003, 5.993058e+003
1.143538e+003, 6.119797e+003
1.144020e+003, 6.255174e+003
1.144502e+003, 6.400406e+003
1.144984e+003, 6.557397e+003
1.145466e+003, 6.724007e+003
1.145948e+003, 6.901284e+003
1.146431e+003, 7.084554e+003
1.146913e+003, 7.264905e+003
1.147395e+003, 7.448077e+003
1.147877e+003, 7.643911e+003
1.148359e+003, 7.854507e+003
1.148841e+003, 8.077432e+003
1.149323e+003, 8.312889e+003
1.149805e+003, 8.557117e+003
1.150287e+003, 8.805540e+003
1.150770e+003, 9.064865e+003
1.151252e+003, 9.341610e+003
1.151734e+003, 9.630413e+003
1.152216e+003, 9.925197e+003
1.152698e+003, 1.022676e+004
1.153180e+003, 1.054038e+004
1.153662e+003, 1.086716e+004
1.154144e+003, 1.119897e+004
1.154626e+003, 1.153171e+004
1.155109e+003, 1.187358e+004
1.155591e+003, 1.223058e+004
1.156073e+003, 1.259365e+004
1.156555e+003, 1.295759e+004
1.157037e+003, 1.332574e+004
1.157519e+003, 1.370851e+004
1.158001e+003, 1.410459e+004
1.158483e+003, 1.449537e+004
1.158966e+003, 1.487895e+004
1.159448e+003, 1.526421e+004
1.159930e+003, 1.565756e+004
1.160412e+003, 1.604650e+004
1.160894e+003, 1.642422e+004
1.161376e+003, 1.680327e+004
1.161858e+003, 1.719272e+004
1.162340e+003, 1.758856e+004
1.162822e+003, 1.798237e+004
1.163305e+003, 1.837535e+004
1.163787e+003, 1.876087e+004
1.164269e+003, 1.913453e+004
1.164751e+003, 1.951225e+004
1.165233e+003, 1.989726e+004
1.165715e+003, 2.027784e+004
1.166197e+003, 2.064969e+004
1.166679e+003, 2.101499e+004
1.167161e+003, 2.137670e+004
1.167644e+003, 2.173501e+004
1.168126e+003, 2.210270e+004
1.168608e+003, 2.248126e+004
1.169090e+003, 2.282100e+004
1.169572e+003, 2.311832e+004
1.170054e+003, 2.338884e+004
1.170536e+003, 2.363560e+004
1.171018e+003, 2.385757e+004
1.171500e+003, 2.405549e+004
1.171983e+003, 2.421738e+004
1.172465e+003, 2.432446e+004
1.172947e+003, 2.438038e+004
1.173429e+003, 2.439968e+004
1.173911e+003, 2.437892e+004
1.174393e+003, 2.430506e+004
1.174875e+003, 2.417747e+004
1.175357e+003, 2.400238e+004
1.175840e+003, 2.378123e+004
1.176322e+003, 2.351386e+004
1.176804e+003, 2.319537e+004
1.177286e+003, 2.283814e+004
1.177768e+003, 2.244910e+004
1.178250e+003, 2.203737e+004
1.178732e+003, 2.161603e+004
1.179214e+003, 2.118217e+004
1.179697e+003, 2.072586e+004
1.180179e+003, 2.024567e+004
1.180661e+003, 1.975495e+004
1.181143e+003, 1.925765e+004
1.181625e+003, 1.876317e+004
1.182107e+003, 1.827823e+004
1.182589e+003, 1.780018e+004
1.183071e+003, 1.732653e+004
1.183553e+003, 1.686260e+004
1.184036e+003, 1.641679e+004
1.184518e+003, 1.598392e+004
1.185000e+003, 1.554703e+004
1.185482e+003, 1.510556e+004
1.185964e+003, 1.468891e+004
1.186446e+003, 1.431108e+004
1.186928e+003, 1.394428e+004
1.187410e+003, 1.358314e+004
1.187892e+003, 1.323271e+004
1.188375e+003, 1.289725e+004
1.188857e+003, 1.257312e+004
1.189339e+003, 1.225707e+004
1.189821e+003, 1.195053e+004
1.190303e+003, 1.166636e+004
1.190785e+003, 1.140851e+004
1.191267e+003, 1.115102e+004
1.191749e+003, 1.088968e+004
1.192232e+003, 1.064289e+004
1.192714e+003, 1.041481e+004
1.193196e+003, 1.019996e+004
1.193678e+003, 9.996576e+003
1.194160e+003, 9.802979e+003
1.194642e+003, 9.619011e+003
1.195124e+003, 9.442924e+003
1.195606e+003, 9.269144e+003
1.196089e+003, 9.097828e+003
1.196571e+003, 8.934875e+003
1.197053e+003, 8.781193e+003
1.197535e+003, 8.631521e+003
1.198017e+003, 8.485290e+003
1.198499e+003, 8.345081e+003
1.198981e+003, 8.212565e+003
1.199463e+003, 8.088321e+003
1.199945e+003, 7.976018e+003
1.200427e+003, 7.871472e+003
1.200910e+003, 7.763815e+003
1.201392e+003, 7.656820e+003
1.201874e+003, 7.557779e+003
1.202356e+003, 7.466567e+003
1.202838e+003, 7.381732e+003
1.203320e+003, 7.301534e+003
1.203802e+003, 7.220300e+003
1.204284e+003, 7.132445e+003
1.204767e+003, 7.049144e+003
1.205249e+003, 6.981676e+003
1.205731e+003, 6.919794e+003
1.206213e+003, 6.855711e+003
1.206695e+003, 6.792351e+003
1.207177e+003, 6.733069e+003
1.207659e+003, 6.677753e+003
1.208141e+003, 6.624767e+003
1.208624e+003, 6.573937e+003
1.209106e+003, 6.526456e+003
1.209588e+003, 6.485466e+003
1.210070e+003, 6.443993e+003
1.210552e+003, 6.395553e+003
1.211034e+003, 6.351729e+003
1.211516e+003, 6.321238e+003
1.211998e+003, 6.295576e+003
1.212480e+003, 6.267593e+003
1.212963e+003, 6.237038e+003
1.213445e+003, 6.202768e+003
1.213927e+003, 6.162651e+003
1.214409e+003, 6.129821e+003
1.214891e+003, 6.106304e+003
1.215373e+003, 6.081707e+003
1.215855e+003, 6.053770e+003
1.216337e+003, 6.026069e+003
1.216819e+003, 6.000523e+003
1.217302e+003, 5.976817e+003
1.217784e+003, 5.954809e+003
1.218266e+003, 5.934084e+003
1.218748e+003, 5.913505e+003
1.219230e+003, 5.893175e+003
1.219712e+003, 5.872583e+003
1.220194e+003, 5.852186e+003
1.220676e+003, 5.834167e+003
1.221159e+003, 5.819026e+003
1.221641e+003, 5.806418e+003
1.222123e+003, 5.796161e+003
1.222605e+003, 5.786826e+003
1.223087e+003, 5.776940e+003
1.223569e+003, 5.767126e+003
1.224051e+003, 5.758423e+003
1.224533e+003, 5.749846e+003
1.225016e+003, 5.739856e+003
1.225498e+003, 5.729096e+003
1.225980e+003, 5.718918e+003
1.226462e+003, 5.709586e+003
1.226944e+003, 5.700774e+003
1.227426e+003, 5.692740e+003
1.227908e+003, 5.684106e+003
1.228390e+003, 5.673698e+003
1.228872e+003, 5.663491e+003
1.229354e+003, 5.653266e+003
1.229837e+003, 5.644578e+003
1.230319e+003, 5.640358e+003
1.230801e+003, 5.637666e+003
1.231283e+003, 5.631614e+003
1.231765e+003, 5.622243e+003
1.232247e+003, 5.610136e+003
1.232729e+003, 5.593526e+003
1.233211e+003, 5.579726e+003
1.233694e+003, 5.568957e+003
1.234176e+003, 5.562162e+003
1.234658e+003, 5.560987e+003
1.235140e+003, 5.557337e+003
1.235622e+003, 5.544681e+003
1.236104e+003, 5.528858e+003
1.236586e+003, 5.520463e+003
1.237068e+003, 5.517160e+003
1.237551e+003, 5.508590e+003
1.238033e+003, 5.496046e+003
1.238515e+003, 5.484514e+003
1.238997e+003, 5.474674e+003
1.239479e+003, 5.467042e+003
1.239961e+003, 5.461369e+003
1.240443e+003, 5.454606e+003
1.240925e+003, 5.444301e+003
1.241407e+003, 5.435078e+003
1.241890e+003, 5.432901e+003
1.242372e+003, 5.432378e+003
1.242854e+003, 5.428799e+003
1.243336e+003, 5.423238e+003
1.243818e+003, 5.414408e+003
1.244300e+003, 5.405920e+003
1.244782e+003, 5.406433e+003
1.245264e+003, 5.416396e+003
1.245746e+003, 5.422438e+003
1.246229e+003, 5.418484e+003
1.246711e+003, 5.415225e+003
1.247193e+003, 5.412242e+003
1.247675e+003, 5.413289e+003
1.248157e+003, 5.422678e+003
1.248639e+003, 5.432701e+003
1.249121e+003, 5.437499e+003
1.249603e+003, 5.439849e+003
1.250085e+003, 5.444671e+003
1.250568e+003, 5.451859e+003
1.251050e+003, 5.460122e+003
1.251532e+003, 5.469485e+003
1.252014e+003, 5.478816e+003
1.252496e+003, 5.487939e+003
1.252978e+003, 5.500909e+003
1.253460e+003, 5.518918e+003
1.253942e+003, 5.536494e+003
1.254425e+003, 5.549643e+003
1.254907e+003, 5.561897e+003
1.255389e+003, 5.577567e+003
1.255871e+003, 5.595908e+003
1.256353e+003, 5.616962e+003
1.256835e+003, 5.638711e+003
1.257317e+003, 5.655950e+003
1.257799e+003, 5.670546e+003
1.258281e+003, 5.688159e+003
1.258764e+003, 5.709571e+003
1.259246e+003, 5.731334e+003
1.259728e+003, 5.751574e+003
1.260210e+003, 5.773473e+003
1.260692e+003, 5.798120e+003
1.261174e+003, 5.825280e+003
1.261656e+003, 5.855668e+003
1.262138e+003, 5.887841e+003
1.262620e+003, 5.922397e+003
1.263103e+003, 5.957094e+003
1.263585e+003, 5.987036e+003
1.264067e+003, 6.013401e+003
1.264549e+003, 6.044963e+003
1.265031e+003, 6.084718e+003
1.265513e+003, 6.119063e+003
1.265995e+003, 6.146320e+003
1.266477e+003, 6.174065e+003
1.266960e+003, 6.203592e+003
1.267442e+003, 6.236943e+003
1.267924e+003, 6.275537e+003
1.268406e+003, 6.316212e+003
1.268888e+003, 6.355824e+003
1.269370e+003, 6.394681e+003
1.269852e+003, 6.433792e+003
1.270334e+003, 6.472914e+003
1.270817e+003, 6.511355e+003
1.271299e+003, 6.549613e+003
1.271781e+003, 6.589108e+003
1.272263e+003, 6.629761e+003
1.272745e+003, 6.670904e+003
1.273227e+003, 6.712250e+003
1.273709e+003, 6.750421e+003
1.274191e+003, 6.779410e+003
1.274673e+003, 6.810624e+003
1.275156e+003, 6.851205e+003
1.275638e+003, 6.894704e+003
1.276120e+003, 6.937114e+003
1.276602e+003, 6.980154e+003
1.277084e+003, 7.028444e+003
1.277566e+003, 7.078982e+003
1.278048e+003, 7.119925e+003
1.278530e+003, 7.149464e+003
1.279012e+003, 7.186879e+003
1.279495e+003, 7.234154e+003
1.279977e+003, 7.280956e+003
1.280459e+003, 7.326708e+003
1.280941e+003, 7.370143e+003
1.281423e+003, 7.410437e+003
1.281905e+003, 7.451630e+003
1.282387e+003, 7.497516e+003
1.282869e+003, 7.545421e+003
1.283352e+003, 7.591013e+003
1.283834e+003, 7.634124e+003
1.284316e+003, 7.673646e+003
1.284798e+003, 7.709981e+003
##END=



