##NAMES=Wattersite
##RRUFFID=R060626
##IDEAL CHEMISTRY=Hg^1+^_4_Hg^2+^O_2_(Cr^6+^O_4_)
##LOCALITY=Clear Creek claim, San Benito County, California, USA
##OWNER=RRUFF
##SOURCE=Michael Scott
##DESCRIPTION=Black metallic crystals associated with red cinnabar, white quartz, silver balls of liquid mercury. Crystals are twinned by a 2-fold rotation around [100].
##STATUS=The identification of this mineral has been confirmed by single-crystal X-ray diffraction.
##URL=rruff.info/R060626
9.059570e+001, 5.471818e+003
9.107782e+001, 5.301477e+003
9.155994e+001, 5.241172e+003
9.204205e+001, 5.367237e+003
9.252417e+001, 5.551804e+003
9.300629e+001, 5.754964e+003
9.348840e+001, 5.931043e+003
9.397052e+001, 6.037140e+003
9.445264e+001, 6.051372e+003
9.493475e+001, 6.047714e+003
9.541687e+001, 6.040544e+003
9.589898e+001, 6.037811e+003
9.638110e+001, 6.035591e+003
9.686321e+001, 6.030120e+003
9.734533e+001, 6.015814e+003
9.782745e+001, 5.982977e+003
9.830956e+001, 5.953878e+003
9.879168e+001, 5.926210e+003
9.927380e+001, 5.906064e+003
9.975591e+001, 5.897685e+003
1.002380e+002, 5.896964e+003
1.007201e+002, 5.894195e+003
1.012023e+002, 5.882740e+003
1.016844e+002, 5.864495e+003
1.021665e+002, 5.849252e+003
1.026486e+002, 5.836711e+003
1.031307e+002, 5.826284e+003
1.036128e+002, 5.817374e+003
1.040950e+002, 5.809533e+003
1.045771e+002, 5.803411e+003
1.050592e+002, 5.797529e+003
1.055413e+002, 5.791965e+003
1.060234e+002, 5.787616e+003
1.065055e+002, 5.784870e+003
1.069877e+002, 5.783328e+003
1.074698e+002, 5.782177e+003
1.079519e+002, 5.782940e+003
1.084340e+002, 5.781273e+003
1.089161e+002, 5.775028e+003
1.093982e+002, 5.764867e+003
1.098804e+002, 5.752586e+003
1.103625e+002, 5.738675e+003
1.108446e+002, 5.721820e+003
1.113267e+002, 5.710261e+003
1.118088e+002, 5.708201e+003
1.122909e+002, 5.707401e+003
1.127731e+002, 5.704093e+003
1.132552e+002, 5.697723e+003
1.137373e+002, 5.690019e+003
1.142194e+002, 5.683503e+003
1.147015e+002, 5.678658e+003
1.151836e+002, 5.674173e+003
1.156658e+002, 5.672003e+003
1.161479e+002, 5.669302e+003
1.166300e+002, 5.662366e+003
1.171121e+002, 5.649633e+003
1.175942e+002, 5.634247e+003
1.180763e+002, 5.624397e+003
1.185584e+002, 5.623474e+003
1.190406e+002, 5.619811e+003
1.195227e+002, 5.608281e+003
1.200048e+002, 5.591133e+003
1.204869e+002, 5.574251e+003
1.209690e+002, 5.559764e+003
1.214511e+002, 5.547719e+003
1.219333e+002, 5.537358e+003
1.224154e+002, 5.529207e+003
1.228975e+002, 5.521710e+003
1.233796e+002, 5.513351e+003
1.238617e+002, 5.503871e+003
1.243438e+002, 5.495250e+003
1.248260e+002, 5.491323e+003
1.253081e+002, 5.487719e+003
1.257902e+002, 5.479491e+003
1.262723e+002, 5.463396e+003
1.267544e+002, 5.443722e+003
1.272365e+002, 5.430905e+003
1.277187e+002, 5.429874e+003
1.282008e+002, 5.427658e+003
1.286829e+002, 5.420103e+003
1.291650e+002, 5.409243e+003
1.296471e+002, 5.397655e+003
1.301292e+002, 5.386767e+003
1.306114e+002, 5.376625e+003
1.310935e+002, 5.367672e+003
1.315756e+002, 5.363208e+003
1.320577e+002, 5.356811e+003
1.325398e+002, 5.345683e+003
1.330219e+002, 5.331073e+003
1.335041e+002, 5.316122e+003
1.339862e+002, 5.303382e+003
1.344683e+002, 5.292954e+003
1.349504e+002, 5.284584e+003
1.354325e+002, 5.279787e+003
1.359146e+002, 5.275397e+003
1.363968e+002, 5.269695e+003
1.368789e+002, 5.262497e+003
1.373610e+002, 5.254491e+003
1.378431e+002, 5.246188e+003
1.383252e+002, 5.237204e+003
1.388073e+002, 5.230338e+003
1.392895e+002, 5.228149e+003
1.397716e+002, 5.227188e+003
1.402537e+002, 5.222837e+003
1.407358e+002, 5.213526e+003
1.412179e+002, 5.203058e+003
1.417000e+002, 5.197009e+003
1.421821e+002, 5.194974e+003
1.426643e+002, 5.192259e+003
1.431464e+002, 5.186054e+003
1.436285e+002, 5.177423e+003
1.441106e+002, 5.170297e+003
1.445927e+002, 5.166285e+003
1.450748e+002, 5.163278e+003
1.455570e+002, 5.159235e+003
1.460391e+002, 5.154142e+003
1.465212e+002, 5.148975e+003
1.470033e+002, 5.144790e+003
1.474854e+002, 5.141744e+003
1.479675e+002, 5.138053e+003
1.484497e+002, 5.132606e+003
1.489318e+002, 5.126829e+003
1.494139e+002, 5.121174e+003
1.498960e+002, 5.115823e+003
1.503781e+002, 5.111106e+003
1.508602e+002, 5.107737e+003
1.513424e+002, 5.106492e+003
1.518245e+002, 5.104885e+003
1.523066e+002, 5.102850e+003
1.527887e+002, 5.100357e+003
1.532708e+002, 5.096786e+003
1.537529e+002, 5.092021e+003
1.542351e+002, 5.087246e+003
1.547172e+002, 5.085501e+003
1.551993e+002, 5.090763e+003
1.556814e+002, 5.094534e+003
1.561635e+002, 5.096385e+003
1.566456e+002, 5.096569e+003
1.571278e+002, 5.095154e+003
1.576099e+002, 5.092093e+003
1.580920e+002, 5.087807e+003
1.585741e+002, 5.084079e+003
1.590562e+002, 5.080708e+003
1.595383e+002, 5.077956e+003
1.600205e+002, 5.076038e+003
1.605026e+002, 5.074799e+003
1.609847e+002, 5.073840e+003
1.614668e+002, 5.072836e+003
1.619489e+002, 5.072045e+003
1.624310e+002, 5.072410e+003
1.629131e+002, 5.075317e+003
1.633953e+002, 5.077975e+003
1.638774e+002, 5.078290e+003
1.643595e+002, 5.076516e+003
1.648416e+002, 5.075117e+003
1.653237e+002, 5.076011e+003
1.658058e+002, 5.078290e+003
1.662880e+002, 5.079752e+003
1.667701e+002, 5.079865e+003
1.672522e+002, 5.079330e+003
1.677343e+002, 5.078829e+003
1.682164e+002, 5.078341e+003
1.686985e+002, 5.078009e+003
1.691807e+002, 5.077280e+003
1.696628e+002, 5.076880e+003
1.701449e+002, 5.077904e+003
1.706270e+002, 5.080960e+003
1.711091e+002, 5.085567e+003
1.715912e+002, 5.091099e+003
1.720734e+002, 5.099170e+003
1.725555e+002, 5.104991e+003
1.730376e+002, 5.105094e+003
1.735197e+002, 5.102533e+003
1.740018e+002, 5.101761e+003
1.744839e+002, 5.105796e+003
1.749661e+002, 5.113729e+003
1.754482e+002, 5.119905e+003
1.759303e+002, 5.122816e+003
1.764124e+002, 5.125550e+003
1.768945e+002, 5.127319e+003
1.773766e+002, 5.129579e+003
1.778588e+002, 5.134909e+003
1.783409e+002, 5.145704e+003
1.788230e+002, 5.162052e+003
1.793051e+002, 5.175561e+003
1.797872e+002, 5.184544e+003
1.802693e+002, 5.192386e+003
1.807515e+002, 5.199317e+003
1.812336e+002, 5.205790e+003
1.817157e+002, 5.212603e+003
1.821978e+002, 5.220657e+003
1.826799e+002, 5.230302e+003
1.831620e+002, 5.237125e+003
1.836441e+002, 5.236618e+003
1.841263e+002, 5.237804e+003
1.846084e+002, 5.247100e+003
1.850905e+002, 5.263378e+003
1.855726e+002, 5.279358e+003
1.860547e+002, 5.287875e+003
1.865368e+002, 5.287542e+003
1.870190e+002, 5.290401e+003
1.875011e+002, 5.297122e+003
1.879832e+002, 5.306349e+003
1.884653e+002, 5.317820e+003
1.889474e+002, 5.331351e+003
1.894296e+002, 5.345536e+003
1.899117e+002, 5.359608e+003
1.903938e+002, 5.373407e+003
1.908759e+002, 5.384961e+003
1.913580e+002, 5.390917e+003
1.918401e+002, 5.395914e+003
1.923223e+002, 5.406634e+003
1.928044e+002, 5.424982e+003
1.932865e+002, 5.443058e+003
1.937686e+002, 5.451999e+003
1.942507e+002, 5.454208e+003
1.947328e+002, 5.455685e+003
1.952150e+002, 5.458482e+003
1.956971e+002, 5.461718e+003
1.961792e+002, 5.464522e+003
1.966613e+002, 5.468454e+003
1.971434e+002, 5.467964e+003
1.976255e+002, 5.458822e+003
1.981077e+002, 5.442575e+003
1.985898e+002, 5.422411e+003
1.990719e+002, 5.400826e+003
1.995540e+002, 5.376791e+003
2.000361e+002, 5.345691e+003
2.005182e+002, 5.303872e+003
2.010004e+002, 5.259183e+003
2.014825e+002, 5.215398e+003
2.019646e+002, 5.172549e+003
2.024467e+002, 5.131072e+003
2.029288e+002, 5.092089e+003
2.034109e+002, 5.055302e+003
2.038930e+002, 5.016157e+003
2.043752e+002, 4.968131e+003
2.048573e+002, 4.925144e+003
2.053394e+002, 4.894436e+003
2.058215e+002, 4.873354e+003
2.063036e+002, 4.854796e+003
2.067857e+002, 4.832957e+003
2.072679e+002, 4.807516e+003
2.077500e+002, 4.785182e+003
2.082321e+002, 4.766490e+003
2.087142e+002, 4.750643e+003
2.091963e+002, 4.738300e+003
2.096784e+002, 4.728874e+003
2.101606e+002, 4.721153e+003
2.106427e+002, 4.714226e+003
2.111248e+002, 4.708242e+003
2.116069e+002, 4.701958e+003
2.120890e+002, 4.693102e+003
2.125711e+002, 4.686023e+003
2.130533e+002, 4.684438e+003
2.135354e+002, 4.686753e+003
2.140175e+002, 4.687745e+003
2.144996e+002, 4.682269e+003
2.149817e+002, 4.668964e+003
2.154638e+002, 4.658608e+003
2.159460e+002, 4.650227e+003
2.164281e+002, 4.644813e+003
2.169102e+002, 4.644710e+003
2.173923e+002, 4.648776e+003
2.178744e+002, 4.652541e+003
2.183565e+002, 4.651791e+003
2.188387e+002, 4.645835e+003
2.193208e+002, 4.640788e+003
2.198029e+002, 4.636995e+003
2.202850e+002, 4.633670e+003
2.207671e+002, 4.629890e+003
2.212492e+002, 4.625819e+003
2.217314e+002, 4.622986e+003
2.222135e+002, 4.623177e+003
2.226956e+002, 4.626590e+003
2.231777e+002, 4.627833e+003
2.236598e+002, 4.624795e+003
2.241419e+002, 4.621157e+003
2.246240e+002, 4.620698e+003
2.251062e+002, 4.623370e+003
2.255883e+002, 4.624393e+003
2.260704e+002, 4.618511e+003
2.265525e+002, 4.606885e+003
2.270346e+002, 4.599265e+003
2.275167e+002, 4.599474e+003
2.279989e+002, 4.601941e+003
2.284810e+002, 4.601681e+003
2.289631e+002, 4.598416e+003
2.294452e+002, 4.594333e+003
2.299273e+002, 4.590525e+003
2.304094e+002, 4.587143e+003
2.308916e+002, 4.584556e+003
2.313737e+002, 4.582908e+003
2.318558e+002, 4.582053e+003
2.323379e+002, 4.582192e+003
2.328200e+002, 4.583517e+003
2.333021e+002, 4.584460e+003
2.337843e+002, 4.583401e+003
2.342664e+002, 4.581406e+003
2.347485e+002, 4.580161e+003
2.352306e+002, 4.580751e+003
2.357127e+002, 4.581703e+003
2.361948e+002, 4.580616e+003
2.366770e+002, 4.576867e+003
2.371591e+002, 4.573654e+003
2.376412e+002, 4.573373e+003
2.381233e+002, 4.574326e+003
2.386054e+002, 4.574761e+003
2.390875e+002, 4.574178e+003
2.395697e+002, 4.572807e+003
2.400518e+002, 4.570982e+003
2.405339e+002, 4.568687e+003
2.410160e+002, 4.565950e+003
2.414981e+002, 4.561689e+003
2.419802e+002, 4.557452e+003
2.424624e+002, 4.554782e+003
2.429445e+002, 4.554266e+003
2.434266e+002, 4.555323e+003
2.439087e+002, 4.557178e+003
2.443908e+002, 4.560153e+003
2.448729e+002, 4.562986e+003
2.453550e+002, 4.567048e+003
2.458372e+002, 4.569974e+003
2.463193e+002, 4.568798e+003
2.468014e+002, 4.562305e+003
2.472835e+002, 4.553885e+003
2.477656e+002, 4.549922e+003
2.482477e+002, 4.553416e+003
2.487299e+002, 4.554111e+003
2.492120e+002, 4.548618e+003
2.496941e+002, 4.540971e+003
2.501762e+002, 4.533559e+003
2.506583e+002, 4.527209e+003
2.511404e+002, 4.522436e+003
2.516226e+002, 4.520521e+003
2.521047e+002, 4.523515e+003
2.525868e+002, 4.524781e+003
2.530689e+002, 4.523169e+003
2.535510e+002, 4.520329e+003
2.540331e+002, 4.517198e+003
2.545153e+002, 4.514102e+003
2.549974e+002, 4.511059e+003
2.554795e+002, 4.507839e+003
2.559616e+002, 4.503389e+003
2.564437e+002, 4.501312e+003
2.569258e+002, 4.504515e+003
2.574080e+002, 4.507650e+003
2.578901e+002, 4.506427e+003
2.583722e+002, 4.500487e+003
2.588543e+002, 4.493335e+003
2.593364e+002, 4.489672e+003
2.598185e+002, 4.490611e+003
2.603007e+002, 4.492534e+003
2.607828e+002, 4.497429e+003
2.612649e+002, 4.501603e+003
2.617470e+002, 4.502320e+003
2.622291e+002, 4.499581e+003
2.627112e+002, 4.495576e+003
2.631934e+002, 4.492686e+003
2.636755e+002, 4.490947e+003
2.641576e+002, 4.490351e+003
2.646397e+002, 4.492845e+003
2.651218e+002, 4.494625e+003
2.656039e+002, 4.492931e+003
2.660861e+002, 4.488136e+003
2.665682e+002, 4.482847e+003
2.670503e+002, 4.479591e+003
2.675324e+002, 4.478673e+003
2.680145e+002, 4.478086e+003
2.684966e+002, 4.477179e+003
2.689788e+002, 4.477085e+003
2.694609e+002, 4.479808e+003
2.699430e+002, 4.484273e+003
2.704251e+002, 4.486705e+003
2.709072e+002, 4.483537e+003
2.713893e+002, 4.474479e+003
2.718715e+002, 4.469097e+003
2.723536e+002, 4.469484e+003
2.728357e+002, 4.470625e+003
2.733178e+002, 4.470432e+003
2.737999e+002, 4.469219e+003
2.742820e+002, 4.468237e+003
2.747642e+002, 4.468309e+003
2.752463e+002, 4.469376e+003
2.757284e+002, 4.470812e+003
2.762105e+002, 4.473493e+003
2.766926e+002, 4.475508e+003
2.771747e+002, 4.475695e+003
2.776568e+002, 4.474714e+003
2.781389e+002, 4.474218e+003
2.786211e+002, 4.475275e+003
2.791032e+002, 4.477260e+003
2.795853e+002, 4.477361e+003
2.800674e+002, 4.472641e+003
2.805495e+002, 4.469849e+003
2.810316e+002, 4.471868e+003
2.815138e+002, 4.476822e+003
2.819959e+002, 4.481783e+003
2.824780e+002, 4.485729e+003
2.829601e+002, 4.488282e+003
2.834422e+002, 4.487794e+003
2.839243e+002, 4.481160e+003
2.844065e+002, 4.477739e+003
2.848886e+002, 4.481891e+003
2.853707e+002, 4.489772e+003
2.858528e+002, 4.495584e+003
2.863349e+002, 4.497305e+003
2.868170e+002, 4.497259e+003
2.872992e+002, 4.499302e+003
2.877813e+002, 4.503647e+003
2.882634e+002, 4.509006e+003
2.887455e+002, 4.517705e+003
2.892276e+002, 4.526292e+003
2.897097e+002, 4.529101e+003
2.901919e+002, 4.524614e+003
2.906740e+002, 4.519151e+003
2.911561e+002, 4.520449e+003
2.916382e+002, 4.529202e+003
2.921203e+002, 4.539989e+003
2.926024e+002, 4.555894e+003
2.930846e+002, 4.571580e+003
2.935667e+002, 4.580925e+003
2.940488e+002, 4.583273e+003
2.945309e+002, 4.583761e+003
2.950130e+002, 4.586228e+003
2.954951e+002, 4.590990e+003
2.959773e+002, 4.599128e+003
2.964594e+002, 4.612294e+003
2.969415e+002, 4.627667e+003
2.974236e+002, 4.644175e+003
2.979057e+002, 4.661386e+003
2.983878e+002, 4.677103e+003
2.988700e+002, 4.689219e+003
2.993521e+002, 4.698300e+003
2.998342e+002, 4.708937e+003
3.003163e+002, 4.721510e+003
3.007984e+002, 4.735123e+003
3.012805e+002, 4.750469e+003
3.017627e+002, 4.766883e+003
3.022448e+002, 4.781136e+003
3.027269e+002, 4.790271e+003
3.032090e+002, 4.797183e+003
3.036911e+002, 4.810554e+003
3.041732e+002, 4.833773e+003
3.046554e+002, 4.857318e+003
3.051375e+002, 4.876870e+003
3.056196e+002, 4.893556e+003
3.061017e+002, 4.909882e+003
3.065838e+002, 4.926271e+003
3.070659e+002, 4.943731e+003
3.075481e+002, 4.964563e+003
3.080302e+002, 4.989384e+003
3.085123e+002, 5.014197e+003
3.089944e+002, 5.037512e+003
3.094765e+002, 5.060000e+003
3.099586e+002, 5.082377e+003
3.104408e+002, 5.104617e+003
3.109229e+002, 5.127278e+003
3.114050e+002, 5.151201e+003
3.118871e+002, 5.176481e+003
3.123692e+002, 5.201287e+003
3.128513e+002, 5.225301e+003
3.133335e+002, 5.248578e+003
3.138156e+002, 5.270785e+003
3.142977e+002, 5.291719e+003
3.147798e+002, 5.313662e+003
3.152619e+002, 5.341053e+003
3.157440e+002, 5.372930e+003
3.162262e+002, 5.396159e+003
3.167083e+002, 5.402548e+003
3.171904e+002, 5.404907e+003
3.176725e+002, 5.414871e+003
3.181546e+002, 5.432243e+003
3.186367e+002, 5.447870e+003
3.191188e+002, 5.455225e+003
3.196010e+002, 5.455653e+003
3.200831e+002, 5.457746e+003
3.205652e+002, 5.465362e+003
3.210473e+002, 5.470830e+003
3.215294e+002, 5.468458e+003
3.220115e+002, 5.460068e+003
3.224937e+002, 5.452552e+003
3.229758e+002, 5.450171e+003
3.234579e+002, 5.449342e+003
3.239400e+002, 5.440866e+003
3.244221e+002, 5.422766e+003
3.249042e+002, 5.403115e+003
3.253864e+002, 5.383891e+003
3.258685e+002, 5.365172e+003
3.263506e+002, 5.347124e+003
3.268327e+002, 5.329941e+003
3.273148e+002, 5.312882e+003
3.277969e+002, 5.295060e+003
3.282791e+002, 5.276919e+003
3.287612e+002, 5.256325e+003
3.292433e+002, 5.230373e+003
3.297254e+002, 5.202989e+003
3.302075e+002, 5.179270e+003
3.306896e+002, 5.160097e+003
3.311718e+002, 5.141734e+003
3.316539e+002, 5.120002e+003
3.321360e+002, 5.094601e+003
3.326181e+002, 5.071368e+003
3.331002e+002, 5.053180e+003
3.335823e+002, 5.035317e+003
3.340645e+002, 5.012557e+003
3.345466e+002, 4.985811e+003
3.350287e+002, 4.962065e+003
3.355108e+002, 4.947583e+003
3.359929e+002, 4.940389e+003
3.364750e+002, 4.926301e+003
3.369572e+002, 4.898629e+003
3.374393e+002, 4.871724e+003
3.379214e+002, 4.852380e+003
3.384035e+002, 4.838352e+003
3.388856e+002, 4.824458e+003
3.393677e+002, 4.808331e+003
3.398499e+002, 4.790802e+003
3.403320e+002, 4.774231e+003
3.408141e+002, 4.759458e+003
3.412962e+002, 4.744005e+003
3.417783e+002, 4.726103e+003
3.422604e+002, 4.707701e+003
3.427426e+002, 4.691830e+003
3.432247e+002, 4.679424e+003
3.437068e+002, 4.668212e+003
3.441889e+002, 4.654936e+003
3.446710e+002, 4.638222e+003
3.451531e+002, 4.623661e+003
3.456353e+002, 4.612850e+003
3.461174e+002, 4.603256e+003
3.465995e+002, 4.593040e+003
3.470816e+002, 4.582104e+003
3.475637e+002, 4.571134e+003
3.480458e+002, 4.560919e+003
3.485280e+002, 4.551477e+003
3.490101e+002, 4.541696e+003
3.494922e+002, 4.529845e+003
3.499743e+002, 4.519449e+003
3.504564e+002, 4.513194e+003
3.509385e+002, 4.509708e+003
3.514207e+002, 4.505772e+003
3.519028e+002, 4.499555e+003
3.523849e+002, 4.491475e+003
3.528670e+002, 4.483162e+003
3.533491e+002, 4.474866e+003
3.538312e+002, 4.466081e+003
3.543134e+002, 4.455609e+003
3.547955e+002, 4.445084e+003
3.552776e+002, 4.436632e+003
3.557597e+002, 4.430963e+003
3.562418e+002, 4.426656e+003
3.567239e+002, 4.421173e+003
3.572061e+002, 4.413110e+003
3.576882e+002, 4.406812e+003
3.581703e+002, 4.403692e+003
3.586524e+002, 4.401064e+003
3.591345e+002, 4.396962e+003
3.596166e+002, 4.391313e+003
3.600987e+002, 4.385354e+003
3.605808e+002, 4.380084e+003
3.610630e+002, 4.375362e+003
3.615451e+002, 4.372672e+003
3.620272e+002, 4.376256e+003
3.625093e+002, 4.377356e+003
3.629914e+002, 4.370367e+003
3.634735e+002, 4.358911e+003
3.639557e+002, 4.350364e+003
3.644378e+002, 4.349426e+003
3.649199e+002, 4.354082e+003
3.654020e+002, 4.355693e+003
3.658841e+002, 4.351829e+003
3.663662e+002, 4.348083e+003
3.668484e+002, 4.344919e+003
3.673305e+002, 4.342311e+003
3.678126e+002, 4.340596e+003
3.682947e+002, 4.339784e+003
3.687768e+002, 4.338832e+003
3.692589e+002, 4.336021e+003
3.697411e+002, 4.330792e+003
3.702232e+002, 4.325175e+003
3.707053e+002, 4.317696e+003
3.711874e+002, 4.311125e+003
3.716695e+002, 4.307180e+003
3.721516e+002, 4.305664e+003
3.726338e+002, 4.305063e+003
3.731159e+002, 4.304445e+003
3.735980e+002, 4.303762e+003
3.740801e+002, 4.301390e+003
3.745622e+002, 4.294850e+003
3.750443e+002, 4.289674e+003
3.755265e+002, 4.288832e+003
3.760086e+002, 4.290187e+003
3.764907e+002, 4.290599e+003
3.769728e+002, 4.288642e+003
3.774549e+002, 4.284639e+003
3.779370e+002, 4.278552e+003
3.784192e+002, 4.268728e+003
3.789013e+002, 4.261603e+003
3.793834e+002, 4.261467e+003
3.798655e+002, 4.263157e+003
3.803476e+002, 4.263004e+003
3.808297e+002, 4.260271e+003
3.813119e+002, 4.256013e+003
3.817940e+002, 4.250238e+003
3.822761e+002, 4.243023e+003
3.827582e+002, 4.238872e+003
3.832403e+002, 4.241170e+003
3.837224e+002, 4.243345e+003
3.842046e+002, 4.240154e+003
3.846867e+002, 4.232938e+003
3.851688e+002, 4.226558e+003
3.856509e+002, 4.223120e+003
3.861330e+002, 4.222445e+003
3.866151e+002, 4.225330e+003
3.870973e+002, 4.233306e+003
3.875794e+002, 4.239174e+003
3.880615e+002, 4.235705e+003
3.885436e+002, 4.228318e+003
3.890257e+002, 4.224992e+003
3.895078e+002, 4.228852e+003
3.899900e+002, 4.234013e+003
3.904721e+002, 4.235668e+003
3.909542e+002, 4.234048e+003
3.914363e+002, 4.230560e+003
3.919184e+002, 4.224263e+003
3.924005e+002, 4.218049e+003
3.928827e+002, 4.216433e+003
3.933648e+002, 4.219729e+003
3.938469e+002, 4.222479e+003
3.943290e+002, 4.222479e+003
3.948111e+002, 4.220670e+003
3.952932e+002, 4.218354e+003
3.957754e+002, 4.215678e+003
3.962575e+002, 4.212889e+003
3.967396e+002, 4.209937e+003
3.972217e+002, 4.206985e+003
3.977038e+002, 4.205123e+003
3.981859e+002, 4.206699e+003
3.986681e+002, 4.207368e+003
3.991501e+002, 4.203166e+003
3.996323e+002, 4.195343e+003
4.001144e+002, 4.188261e+003
4.005965e+002, 4.183807e+003
4.010786e+002, 4.181940e+003
4.015607e+002, 4.183100e+003
4.020428e+002, 4.189538e+003
4.025250e+002, 4.194505e+003
4.030071e+002, 4.196086e+003
4.034892e+002, 4.195911e+003
4.039713e+002, 4.195705e+003
4.044534e+002, 4.195886e+003
4.049355e+002, 4.196067e+003
4.054177e+002, 4.195840e+003
4.058998e+002, 4.195219e+003
4.063819e+002, 4.193978e+003
4.068640e+002, 4.191352e+003
4.073461e+002, 4.188933e+003
4.078282e+002, 4.186880e+003
4.083104e+002, 4.185664e+003
4.087925e+002, 4.186605e+003
4.092746e+002, 4.190854e+003
4.097567e+002, 4.197159e+003
4.102388e+002, 4.199717e+003
4.107209e+002, 4.193133e+003
4.112031e+002, 4.189755e+003
4.116852e+002, 4.193138e+003
4.121673e+002, 4.198721e+003
4.126494e+002, 4.202032e+003
4.131315e+002, 4.201977e+003
4.136136e+002, 4.200721e+003
4.140958e+002, 4.201414e+003
4.145779e+002, 4.205033e+003
4.150600e+002, 4.206686e+003
4.155421e+002, 4.203843e+003
4.160242e+002, 4.201359e+003
4.165063e+002, 4.201509e+003
4.169885e+002, 4.203585e+003
4.174706e+002, 4.205405e+003
4.179527e+002, 4.205162e+003
4.184348e+002, 4.204040e+003
4.189169e+002, 4.206807e+003
4.193990e+002, 4.216342e+003
4.198812e+002, 4.223300e+003
4.203633e+002, 4.222442e+003
4.208454e+002, 4.219116e+003
4.213275e+002, 4.218530e+003
4.218096e+002, 4.221994e+003
4.222917e+002, 4.225809e+003
4.227739e+002, 4.225443e+003
4.232560e+002, 4.221159e+003
4.237381e+002, 4.219004e+003
4.242202e+002, 4.221101e+003
4.247023e+002, 4.223792e+003
4.251844e+002, 4.223781e+003
4.256666e+002, 4.221840e+003
4.261487e+002, 4.220836e+003
4.266308e+002, 4.223118e+003
4.271129e+002, 4.226500e+003
4.275950e+002, 4.227337e+003
4.280771e+002, 4.225453e+003
4.285593e+002, 4.224123e+003
4.290414e+002, 4.226165e+003
4.295235e+002, 4.229292e+003
4.300056e+002, 4.228270e+003
4.304877e+002, 4.220858e+003
4.309698e+002, 4.214441e+003
4.314520e+002, 4.214916e+003
4.319341e+002, 4.218667e+003
4.324162e+002, 4.217381e+003
4.328983e+002, 4.208446e+003
4.333804e+002, 4.198454e+003
4.338625e+002, 4.195564e+003
4.343447e+002, 4.201016e+003
4.348268e+002, 4.204009e+003
4.353089e+002, 4.204164e+003
4.357910e+002, 4.201773e+003
4.362731e+002, 4.196207e+003
4.367552e+002, 4.188095e+003
4.372374e+002, 4.179076e+003
4.377195e+002, 4.169933e+003
4.382016e+002, 4.160930e+003
4.386837e+002, 4.153267e+003
4.391658e+002, 4.148099e+003
4.396479e+002, 4.142801e+003
4.401301e+002, 4.136141e+003
4.406122e+002, 4.129913e+003
4.410943e+002, 4.126463e+003
4.415764e+002, 4.125957e+003
4.420585e+002, 4.126053e+003
4.425406e+002, 4.124218e+003
4.430227e+002, 4.120386e+003
4.435049e+002, 4.115181e+003
4.439870e+002, 4.105577e+003
4.444691e+002, 4.097789e+003
4.449512e+002, 4.095360e+003
4.454333e+002, 4.095778e+003
4.459154e+002, 4.095009e+003
4.463976e+002, 4.091068e+003
4.468797e+002, 4.084496e+003
4.473618e+002, 4.075613e+003
4.478439e+002, 4.062429e+003
4.483260e+002, 4.052891e+003
4.488081e+002, 4.051571e+003
4.492903e+002, 4.052052e+003
4.497724e+002, 4.051040e+003
4.502545e+002, 4.048053e+003
4.507366e+002, 4.043430e+003
4.512187e+002, 4.036412e+003
4.517008e+002, 4.027754e+003
4.521830e+002, 4.020840e+003
4.526651e+002, 4.015856e+003
4.531472e+002, 4.012353e+003
4.536293e+002, 4.011735e+003
4.541114e+002, 4.012026e+003
4.545935e+002, 4.010301e+003
4.550757e+002, 4.005606e+003
4.555578e+002, 3.999433e+003
4.560399e+002, 3.991401e+003
4.565220e+002, 3.982490e+003
4.570041e+002, 3.977547e+003
4.574862e+002, 3.979247e+003
4.579684e+002, 3.982607e+003
4.584505e+002, 3.981019e+003
4.589326e+002, 3.974689e+003
4.594147e+002, 3.967357e+003
4.598968e+002, 3.957224e+003
4.603789e+002, 3.948176e+003
4.608611e+002, 3.945070e+003
4.613432e+002, 3.946969e+003
4.618253e+002, 3.947743e+003
4.623074e+002, 3.943362e+003
4.627895e+002, 3.935267e+003
4.632716e+002, 3.929298e+003
4.637538e+002, 3.927632e+003
4.642359e+002, 3.925115e+003
4.647180e+002, 3.920642e+003
4.652001e+002, 3.915289e+003
4.656822e+002, 3.909773e+003
4.661643e+002, 3.904393e+003
4.666465e+002, 3.899760e+003
4.671286e+002, 3.896668e+003
4.676107e+002, 3.895277e+003
4.680928e+002, 3.893458e+003
4.685749e+002, 3.890449e+003
4.690570e+002, 3.887767e+003
4.695392e+002, 3.886825e+003
4.700213e+002, 3.886175e+003
4.705034e+002, 3.883323e+003
4.709855e+002, 3.877078e+003
4.714676e+002, 3.869600e+003
4.719497e+002, 3.865187e+003
4.724319e+002, 3.864992e+003
4.729140e+002, 3.862818e+003
4.733961e+002, 3.854875e+003
4.738782e+002, 3.847275e+003
4.743603e+002, 3.844497e+003
4.748424e+002, 3.845552e+003
4.753246e+002, 3.845609e+003
4.758067e+002, 3.841121e+003
4.762888e+002, 3.833990e+003
4.767709e+002, 3.828185e+003
4.772530e+002, 3.823838e+003
4.777351e+002, 3.820160e+003
4.782173e+002, 3.816610e+003
4.786994e+002, 3.813693e+003
4.791815e+002, 3.812442e+003
4.796636e+002, 3.813544e+003
4.801457e+002, 3.813922e+003
4.806278e+002, 3.811928e+003
4.811100e+002, 3.808177e+003
4.815920e+002, 3.803756e+003
4.820742e+002, 3.798849e+003
4.825563e+002, 3.793013e+003
4.830384e+002, 3.785046e+003
4.835205e+002, 3.775161e+003
4.840026e+002, 3.769137e+003
4.844847e+002, 3.768717e+003
4.849669e+002, 3.769964e+003
4.854490e+002, 3.773143e+003
4.859311e+002, 3.776497e+003
4.864132e+002, 3.776838e+003
4.868953e+002, 3.773000e+003
4.873774e+002, 3.766956e+003
4.878596e+002, 3.762026e+003
4.883417e+002, 3.759032e+003
4.888238e+002, 3.754771e+003
4.893059e+002, 3.746663e+003
4.897880e+002, 3.739975e+003
4.902701e+002, 3.738587e+003
4.907523e+002, 3.740691e+003
4.912344e+002, 3.741942e+003
4.917165e+002, 3.739663e+003
4.921986e+002, 3.735016e+003
4.926807e+002, 3.731231e+003
4.931628e+002, 3.728864e+003
4.936450e+002, 3.725874e+003
4.941271e+002, 3.720348e+003
4.946092e+002, 3.715177e+003
4.950913e+002, 3.712350e+003
4.955734e+002, 3.711934e+003
4.960555e+002, 3.712655e+003
4.965377e+002, 3.715506e+003
4.970198e+002, 3.718684e+003
4.975019e+002, 3.716342e+003
4.979840e+002, 3.707225e+003
4.984661e+002, 3.697971e+003
4.989482e+002, 3.692440e+003
4.994304e+002, 3.688941e+003
4.999125e+002, 3.683943e+003
5.003946e+002, 3.676157e+003
5.008767e+002, 3.669571e+003
5.013588e+002, 3.667077e+003
5.018409e+002, 3.666845e+003
5.023231e+002, 3.665155e+003
5.028052e+002, 3.661232e+003
5.032873e+002, 3.657999e+003
5.037694e+002, 3.658828e+003
5.042515e+002, 3.663919e+003
5.047336e+002, 3.665263e+003
5.052158e+002, 3.658813e+003
5.056979e+002, 3.653584e+003
5.061800e+002, 3.653982e+003
5.066621e+002, 3.657294e+003
5.071442e+002, 3.659808e+003
5.076263e+002, 3.660083e+003
5.081085e+002, 3.657966e+003
5.085906e+002, 3.652388e+003
5.090727e+002, 3.640856e+003
5.095548e+002, 3.634836e+003
5.100369e+002, 3.639586e+003
5.105190e+002, 3.644593e+003
5.110012e+002, 3.646476e+003
5.114833e+002, 3.645596e+003
5.119654e+002, 3.642881e+003
5.124475e+002, 3.638379e+003
5.129296e+002, 3.633617e+003
5.134117e+002, 3.632407e+003
5.138939e+002, 3.635681e+003
5.143760e+002, 3.635101e+003
5.148581e+002, 3.626177e+003
5.153402e+002, 3.615421e+003
5.158223e+002, 3.607568e+003
5.163044e+002, 3.602613e+003
5.167866e+002, 3.599953e+003
5.172687e+002, 3.601246e+003
5.177508e+002, 3.603599e+003
5.182329e+002, 3.602911e+003
5.187150e+002, 3.599364e+003
5.191971e+002, 3.596117e+003
5.196793e+002, 3.594681e+003
5.201614e+002, 3.594410e+003
5.206435e+002, 3.593942e+003
5.211256e+002, 3.593198e+003
5.216077e+002, 3.592492e+003
5.220898e+002, 3.592634e+003
5.225720e+002, 3.592299e+003
5.230541e+002, 3.589578e+003
5.235362e+002, 3.584944e+003
5.240183e+002, 3.581044e+003
5.245004e+002, 3.579905e+003
5.249825e+002, 3.580956e+003
5.254647e+002, 3.581253e+003
5.259468e+002, 3.580954e+003
5.264289e+002, 3.579572e+003
5.269110e+002, 3.575510e+003
5.273931e+002, 3.571489e+003
5.278752e+002, 3.570364e+003
5.283574e+002, 3.572025e+003
5.288395e+002, 3.573535e+003
5.293216e+002, 3.572167e+003
5.298037e+002, 3.568391e+003
5.302858e+002, 3.564777e+003
5.307679e+002, 3.560755e+003
5.312501e+002, 3.558261e+003
5.317322e+002, 3.559891e+003
5.322143e+002, 3.562641e+003
5.326964e+002, 3.563729e+003
5.331785e+002, 3.562806e+003
5.336606e+002, 3.559702e+003
5.341428e+002, 3.552046e+003
5.346249e+002, 3.542552e+003
5.351070e+002, 3.537356e+003
5.355891e+002, 3.537421e+003
5.360712e+002, 3.539304e+003
5.365533e+002, 3.540879e+003
5.370355e+002, 3.542100e+003
5.375176e+002, 3.542784e+003
5.379997e+002, 3.543331e+003
5.384818e+002, 3.542922e+003
5.389639e+002, 3.540114e+003
5.394460e+002, 3.536782e+003
5.399282e+002, 3.535860e+003
5.404103e+002, 3.537661e+003
5.408924e+002, 3.539342e+003
5.413745e+002, 3.537740e+003
5.418566e+002, 3.532729e+003
5.423387e+002, 3.528793e+003
5.428209e+002, 3.525917e+003
5.433029e+002, 3.524291e+003
5.437850e+002, 3.524777e+003
5.442672e+002, 3.526140e+003
5.447493e+002, 3.527376e+003
5.452314e+002, 3.528135e+003
5.457135e+002, 3.527797e+003
5.461956e+002, 3.525282e+003
5.466777e+002, 3.520774e+003
5.471599e+002, 3.516318e+003
5.476420e+002, 3.511479e+003
5.481241e+002, 3.507868e+003
5.486062e+002, 3.507243e+003
5.490883e+002, 3.508378e+003
5.495704e+002, 3.509352e+003
5.500526e+002, 3.509448e+003
5.505347e+002, 3.510221e+003
5.510168e+002, 3.513649e+003
5.514989e+002, 3.518283e+003
5.519810e+002, 3.520885e+003
5.524631e+002, 3.520747e+003
5.529453e+002, 3.519760e+003
5.534274e+002, 3.519603e+003
5.539095e+002, 3.520274e+003
5.543916e+002, 3.520929e+003
5.548737e+002, 3.522251e+003
5.553558e+002, 3.522730e+003
5.558380e+002, 3.521421e+003
5.563201e+002, 3.519274e+003
5.568022e+002, 3.517055e+003
5.572843e+002, 3.515136e+003
5.577664e+002, 3.514323e+003
5.582485e+002, 3.516161e+003
5.587307e+002, 3.520840e+003
5.592128e+002, 3.522337e+003
5.596949e+002, 3.517807e+003
5.601770e+002, 3.514130e+003
5.606591e+002, 3.514273e+003
5.611412e+002, 3.516163e+003
5.616234e+002, 3.517721e+003
5.621055e+002, 3.518549e+003
5.625876e+002, 3.517681e+003
5.630697e+002, 3.514007e+003
5.635518e+002, 3.507947e+003
5.640339e+002, 3.499989e+003
5.645161e+002, 3.489385e+003
5.649982e+002, 3.481044e+003
5.654803e+002, 3.479879e+003
5.659624e+002, 3.483952e+003
5.664445e+002, 3.484157e+003
5.669266e+002, 3.477679e+003
5.674088e+002, 3.471379e+003
5.678909e+002, 3.467647e+003
5.683730e+002, 3.465359e+003
5.688551e+002, 3.463223e+003
5.693372e+002, 3.460962e+003
5.698193e+002, 3.458815e+003
5.703015e+002, 3.457188e+003
5.707836e+002, 3.455968e+003
5.712657e+002, 3.453187e+003
5.717478e+002, 3.448277e+003
5.722299e+002, 3.442399e+003
5.727120e+002, 3.432781e+003
5.731942e+002, 3.424118e+003
5.736763e+002, 3.422093e+003
5.741584e+002, 3.426842e+003
5.746405e+002, 3.431809e+003
5.751226e+002, 3.430594e+003
5.756047e+002, 3.424753e+003
5.760869e+002, 3.420813e+003
5.765690e+002, 3.419100e+003
5.770511e+002, 3.417960e+003
5.775332e+002, 3.417286e+003
5.780153e+002, 3.416338e+003
5.784974e+002, 3.413984e+003
5.789796e+002, 3.410005e+003
5.794617e+002, 3.405538e+003
5.799438e+002, 3.399587e+003
5.804259e+002, 3.394231e+003
5.809080e+002, 3.393373e+003
5.813901e+002, 3.396263e+003
5.818723e+002, 3.396518e+003
5.823544e+002, 3.389514e+003
5.828365e+002, 3.378059e+003
5.833186e+002, 3.371658e+003
5.838007e+002, 3.373545e+003
5.842828e+002, 3.375875e+003
5.847650e+002, 3.379854e+003
5.852471e+002, 3.383121e+003
5.857292e+002, 3.384666e+003
5.862113e+002, 3.384145e+003
5.866934e+002, 3.380680e+003
5.871755e+002, 3.372735e+003
5.876577e+002, 3.363380e+003
5.881398e+002, 3.360648e+003
5.886219e+002, 3.365737e+003
5.891040e+002, 3.369196e+003
5.895861e+002, 3.368460e+003
5.900682e+002, 3.365604e+003
5.905504e+002, 3.361897e+003
5.910325e+002, 3.357606e+003
5.915146e+002, 3.354611e+003
5.919967e+002, 3.354612e+003
5.924788e+002, 3.355182e+003
5.929609e+002, 3.354192e+003
5.934431e+002, 3.352064e+003
5.939252e+002, 3.350246e+003
5.944073e+002, 3.349305e+003
5.948894e+002, 3.348387e+003
5.953715e+002, 3.346124e+003
5.958536e+002, 3.341892e+003
5.963358e+002, 3.339175e+003
5.968179e+002, 3.339089e+003
5.973000e+002, 3.339048e+003
5.977821e+002, 3.338591e+003
5.982642e+002, 3.337440e+003
5.987463e+002, 3.334846e+003
5.992285e+002, 3.330630e+003
5.997106e+002, 3.326607e+003
6.001927e+002, 3.325193e+003
6.006748e+002, 3.326281e+003
6.011569e+002, 3.327431e+003
6.016390e+002, 3.328946e+003
6.021212e+002, 3.329622e+003
6.026033e+002, 3.328429e+003
6.030854e+002, 3.326021e+003
6.035675e+002, 3.323019e+003
6.040496e+002, 3.318813e+003
6.045317e+002, 3.316004e+003
6.050139e+002, 3.317633e+003
6.054960e+002, 3.320692e+003
6.059781e+002, 3.320558e+003
6.064602e+002, 3.316873e+003
6.069423e+002, 3.312163e+003
6.074244e+002, 3.308056e+003
6.079066e+002, 3.304621e+003
6.083887e+002, 3.302077e+003
6.088708e+002, 3.299865e+003
6.093529e+002, 3.299555e+003
6.098350e+002, 3.303706e+003
6.103171e+002, 3.307706e+003
6.107993e+002, 3.308106e+003
6.112814e+002, 3.305281e+003
6.117635e+002, 3.301690e+003
6.122456e+002, 3.298790e+003
6.127277e+002, 3.296222e+003
6.132098e+002, 3.292690e+003
6.136920e+002, 3.287905e+003
6.141741e+002, 3.285522e+003
6.146562e+002, 3.287773e+003
6.151383e+002, 3.290911e+003
6.156204e+002, 3.291062e+003
6.161025e+002, 3.288674e+003
6.165847e+002, 3.286209e+003
6.170668e+002, 3.284128e+003
6.175489e+002, 3.282146e+003
6.180310e+002, 3.279354e+003
6.185131e+002, 3.276662e+003
6.189952e+002, 3.276867e+003
6.194774e+002, 3.280624e+003
6.199595e+002, 3.283655e+003
6.204416e+002, 3.280322e+003
6.209237e+002, 3.269929e+003
6.214058e+002, 3.263700e+003
6.218879e+002, 3.265318e+003
6.223701e+002, 3.266772e+003
6.228522e+002, 3.266569e+003
6.233343e+002, 3.265342e+003
6.238164e+002, 3.263339e+003
6.242985e+002, 3.260783e+003
6.247806e+002, 3.258924e+003
6.252628e+002, 3.259740e+003
6.257448e+002, 3.261899e+003
6.262269e+002, 3.261028e+003
6.267090e+002, 3.256659e+003
6.271912e+002, 3.254198e+003
6.276733e+002, 3.257313e+003
6.281554e+002, 3.262607e+003
6.286375e+002, 3.263402e+003
6.291196e+002, 3.259134e+003
6.296017e+002, 3.254357e+003
6.300839e+002, 3.246965e+003
6.305660e+002, 3.241699e+003
6.310481e+002, 3.244141e+003
6.315302e+002, 3.251198e+003
6.320123e+002, 3.254714e+003
6.324944e+002, 3.250925e+003
6.329766e+002, 3.244815e+003
6.334587e+002, 3.246262e+003
6.339408e+002, 3.258214e+003
6.344229e+002, 3.262078e+003
6.349050e+002, 3.250154e+003
6.353871e+002, 3.239835e+003
6.358693e+002, 3.241376e+003
6.363514e+002, 3.248323e+003
6.368335e+002, 3.250516e+003
6.373156e+002, 3.244832e+003
6.377977e+002, 3.237659e+003
6.382798e+002, 3.232824e+003
6.387620e+002, 3.229884e+003
6.392441e+002, 3.228296e+003
6.397262e+002, 3.227958e+003
6.402083e+002, 3.227874e+003
6.406904e+002, 3.227399e+003
6.411725e+002, 3.226703e+003
6.416547e+002, 3.226394e+003
6.421368e+002, 3.228694e+003
6.426189e+002, 3.227919e+003
6.431010e+002, 3.221219e+003
6.435831e+002, 3.213990e+003
6.440652e+002, 3.209182e+003
6.445474e+002, 3.206750e+003
6.450295e+002, 3.205904e+003
6.455116e+002, 3.206507e+003
6.459937e+002, 3.207219e+003
6.464758e+002, 3.205390e+003
6.469579e+002, 3.201051e+003
6.474401e+002, 3.198146e+003
6.479222e+002, 3.198108e+003
6.484043e+002, 3.197808e+003
6.488864e+002, 3.194159e+003
6.493685e+002, 3.188340e+003
6.498506e+002, 3.184167e+003
6.503328e+002, 3.183098e+003
6.508149e+002, 3.181935e+003
6.512970e+002, 3.178919e+003
6.517791e+002, 3.175451e+003
6.522612e+002, 3.172734e+003
6.527433e+002, 3.171198e+003
6.532255e+002, 3.171896e+003
6.537076e+002, 3.176048e+003
6.541897e+002, 3.182058e+003
6.546718e+002, 3.183632e+003
6.551539e+002, 3.178524e+003
6.556360e+002, 3.174359e+003
6.561182e+002, 3.173551e+003
6.566003e+002, 3.172688e+003
6.570824e+002, 3.168493e+003
6.575645e+002, 3.162535e+003
6.580466e+002, 3.159964e+003
6.585287e+002, 3.164316e+003
6.590109e+002, 3.170122e+003
6.594930e+002, 3.172851e+003
6.599751e+002, 3.172871e+003
6.604572e+002, 3.170791e+003
6.609393e+002, 3.166681e+003
6.614214e+002, 3.162215e+003
6.619036e+002, 3.158756e+003
6.623857e+002, 3.156270e+003
6.628678e+002, 3.154356e+003
6.633499e+002, 3.153149e+003
6.638320e+002, 3.152431e+003
6.643141e+002, 3.153301e+003
6.647963e+002, 3.153844e+003
6.652784e+002, 3.151737e+003
6.657605e+002, 3.147713e+003
6.662426e+002, 3.145125e+003
6.667247e+002, 3.146746e+003
6.672068e+002, 3.149787e+003
6.676890e+002, 3.148173e+003
6.681711e+002, 3.142114e+003
6.686532e+002, 3.139539e+003
6.691353e+002, 3.143723e+003
6.696174e+002, 3.148117e+003
6.700995e+002, 3.145858e+003
6.705817e+002, 3.137662e+003
6.710638e+002, 3.131954e+003
6.715459e+002, 3.128714e+003
6.720280e+002, 3.128119e+003
6.725101e+002, 3.133240e+003
6.729922e+002, 3.139260e+003
6.734744e+002, 3.140700e+003
6.739565e+002, 3.137231e+003
6.744386e+002, 3.132121e+003
6.749207e+002, 3.127614e+003
6.754028e+002, 3.123685e+003
6.758849e+002, 3.120273e+003
6.763671e+002, 3.117448e+003
6.768492e+002, 3.114741e+003
6.773313e+002, 3.111094e+003
6.778134e+002, 3.108673e+003
6.782955e+002, 3.110479e+003
6.787776e+002, 3.115060e+003
6.792598e+002, 3.117121e+003
6.797419e+002, 3.114220e+003
6.802240e+002, 3.110126e+003
6.807061e+002, 3.105995e+003
6.811882e+002, 3.102518e+003
6.816703e+002, 3.101148e+003
6.821525e+002, 3.101927e+003
6.826346e+002, 3.103228e+003
6.831167e+002, 3.103886e+003
6.835988e+002, 3.103761e+003
6.840809e+002, 3.101817e+003
6.845630e+002, 3.096196e+003
6.850452e+002, 3.092853e+003
6.855273e+002, 3.095035e+003
6.860094e+002, 3.097563e+003
6.864915e+002, 3.097366e+003
6.869736e+002, 3.095000e+003
6.874557e+002, 3.092611e+003
6.879379e+002, 3.091145e+003
6.884200e+002, 3.089612e+003
6.889021e+002, 3.086469e+003
6.893842e+002, 3.082678e+003
6.898663e+002, 3.080760e+003
6.903484e+002, 3.081118e+003
6.908306e+002, 3.082073e+003
6.913127e+002, 3.082466e+003
6.917948e+002, 3.082246e+003
6.922769e+002, 3.081141e+003
6.927590e+002, 3.079093e+003
6.932411e+002, 3.076226e+003
6.937233e+002, 3.070054e+003
6.942054e+002, 3.065458e+003
6.946875e+002, 3.067274e+003
6.951696e+002, 3.073045e+003
6.956517e+002, 3.076162e+003
6.961339e+002, 3.073287e+003
6.966160e+002, 3.068252e+003
6.970981e+002, 3.064786e+003
6.975802e+002, 3.062684e+003
6.980623e+002, 3.061324e+003
6.985444e+002, 3.060663e+003
6.990266e+002, 3.060197e+003
6.995087e+002, 3.059822e+003
6.999908e+002, 3.059186e+003
7.004729e+002, 3.056958e+003
7.009550e+002, 3.050953e+003
7.014371e+002, 3.046658e+003
7.019193e+002, 3.044372e+003
7.024014e+002, 3.043567e+003
7.028835e+002, 3.045113e+003
7.033656e+002, 3.047696e+003
7.038477e+002, 3.048525e+003
7.043298e+002, 3.046235e+003
7.048120e+002, 3.043428e+003
7.052941e+002, 3.044030e+003
7.057762e+002, 3.047107e+003
7.062583e+002, 3.047740e+003
7.067404e+002, 3.045183e+003
7.072225e+002, 3.042222e+003
7.077046e+002, 3.040106e+003
7.081867e+002, 3.038940e+003
7.086688e+002, 3.039183e+003
7.091509e+002, 3.041744e+003
7.096331e+002, 3.043278e+003
7.101152e+002, 3.044303e+003
7.105973e+002, 3.043487e+003
7.110794e+002, 3.037555e+003
7.115615e+002, 3.029874e+003
7.120436e+002, 3.026840e+003
7.125258e+002, 3.030664e+003
7.130079e+002, 3.036487e+003
7.134900e+002, 3.038847e+003
7.139721e+002, 3.038280e+003
7.144542e+002, 3.037833e+003
7.149363e+002, 3.037668e+003
7.154185e+002, 3.037219e+003
7.159006e+002, 3.036447e+003
7.163827e+002, 3.035050e+003
7.168648e+002, 3.032030e+003
7.173469e+002, 3.026851e+003
7.178290e+002, 3.023473e+003
7.183112e+002, 3.024083e+003
7.187933e+002, 3.024600e+003
7.192754e+002, 3.023075e+003
7.197575e+002, 3.020147e+003
7.202396e+002, 3.016250e+003
7.207217e+002, 3.011813e+003
7.212039e+002, 3.008490e+003
7.216860e+002, 3.008111e+003
7.221681e+002, 3.010111e+003
7.226502e+002, 3.012823e+003
7.231323e+002, 3.016583e+003
7.236144e+002, 3.018360e+003
7.240966e+002, 3.016835e+003
7.245787e+002, 3.013475e+003
7.250608e+002, 3.009094e+003
7.255429e+002, 3.003745e+003
7.260250e+002, 3.001242e+003
7.265071e+002, 3.005731e+003
7.269893e+002, 3.008396e+003
7.274714e+002, 3.003813e+003
7.279535e+002, 2.997087e+003
7.284356e+002, 2.994018e+003
7.289177e+002, 2.995185e+003
7.293998e+002, 2.998000e+003
7.298820e+002, 3.001317e+003
7.303641e+002, 3.003669e+003
7.308462e+002, 3.000299e+003
7.313283e+002, 2.990891e+003
7.318104e+002, 2.984951e+003
7.322925e+002, 2.984981e+003
7.327747e+002, 2.987276e+003
7.332568e+002, 2.989856e+003
7.337389e+002, 2.992237e+003
7.342210e+002, 2.992224e+003
7.347031e+002, 2.986835e+003
7.351852e+002, 2.983621e+003
7.356674e+002, 2.985755e+003
7.361495e+002, 2.989285e+003
7.366316e+002, 2.991944e+003
7.371137e+002, 2.993039e+003
7.375958e+002, 2.991772e+003
7.380779e+002, 2.987621e+003
7.385601e+002, 2.982075e+003
7.390422e+002, 2.976412e+003
7.395243e+002, 2.970940e+003
7.400064e+002, 2.969111e+003
7.404885e+002, 2.971988e+003
7.409706e+002, 2.975031e+003
7.414528e+002, 2.976047e+003
7.419349e+002, 2.975411e+003
7.424170e+002, 2.973670e+003
7.428991e+002, 2.970372e+003
7.433812e+002, 2.967693e+003
7.438633e+002, 2.966378e+003
7.443455e+002, 2.965161e+003
7.448276e+002, 2.963730e+003
7.453097e+002, 2.961841e+003
7.457918e+002, 2.958314e+003
7.462739e+002, 2.953203e+003
7.467560e+002, 2.949910e+003
7.472382e+002, 2.954023e+003
7.477203e+002, 2.962150e+003
7.482024e+002, 2.962561e+003
7.486845e+002, 2.955031e+003
7.491666e+002, 2.949518e+003
7.496487e+002, 2.949872e+003
7.501309e+002, 2.952164e+003
7.506130e+002, 2.951798e+003
7.510951e+002, 2.948568e+003
7.515772e+002, 2.946093e+003
7.520593e+002, 2.944536e+003
7.525414e+002, 2.943380e+003
7.530236e+002, 2.942223e+003
7.535057e+002, 2.941560e+003
7.539878e+002, 2.941578e+003
7.544699e+002, 2.942464e+003
7.549520e+002, 2.944964e+003
7.554341e+002, 2.950367e+003
7.559163e+002, 2.955708e+003
7.563984e+002, 2.956680e+003
7.568805e+002, 2.953927e+003
7.573626e+002, 2.949477e+003
7.578447e+002, 2.943445e+003
7.583268e+002, 2.939473e+003
7.588090e+002, 2.941171e+003
7.592911e+002, 2.945908e+003
7.597732e+002, 2.944575e+003
7.602553e+002, 2.930829e+003
7.607374e+002, 2.922714e+003
7.612195e+002, 2.924357e+003
7.617017e+002, 2.926999e+003
7.621838e+002, 2.927398e+003
7.626659e+002, 2.925793e+003
7.631480e+002, 2.922285e+003
7.636301e+002, 2.916787e+003
7.641122e+002, 2.912564e+003
7.645944e+002, 2.913070e+003
7.650765e+002, 2.915833e+003
7.655586e+002, 2.917288e+003
7.660407e+002, 2.917329e+003
7.665228e+002, 2.916415e+003
7.670049e+002, 2.914691e+003
7.674871e+002, 2.912156e+003
7.679692e+002, 2.908507e+003
7.684513e+002, 2.903550e+003
7.689334e+002, 2.901063e+003
7.694155e+002, 2.901376e+003
7.698976e+002, 2.903602e+003
7.703798e+002, 2.910340e+003
7.708619e+002, 2.916603e+003
7.713440e+002, 2.917670e+003
7.718261e+002, 2.914316e+003
7.723082e+002, 2.911575e+003
7.727903e+002, 2.912049e+003
7.732725e+002, 2.912506e+003
7.737546e+002, 2.909977e+003
7.742367e+002, 2.906314e+003
7.747188e+002, 2.904656e+003
7.752009e+002, 2.905155e+003
7.756830e+002, 2.905685e+003
7.761652e+002, 2.904825e+003
7.766473e+002, 2.903234e+003
7.771294e+002, 2.902814e+003
7.776115e+002, 2.904069e+003
7.780936e+002, 2.902942e+003
7.785757e+002, 2.897618e+003
7.790579e+002, 2.892784e+003
7.795400e+002, 2.890894e+003
7.800221e+002, 2.891165e+003
7.805042e+002, 2.892962e+003
7.809863e+002, 2.897152e+003
7.814684e+002, 2.898492e+003
7.819506e+002, 2.892191e+003
7.824327e+002, 2.886179e+003
7.829148e+002, 2.886448e+003
7.833969e+002, 2.890196e+003
7.838790e+002, 2.892863e+003
7.843611e+002, 2.893060e+003
7.848433e+002, 2.891292e+003
7.853254e+002, 2.887043e+003
7.858075e+002, 2.881785e+003
7.862896e+002, 2.880957e+003
7.867717e+002, 2.884653e+003
7.872538e+002, 2.885659e+003
7.877360e+002, 2.881282e+003
7.882181e+002, 2.876550e+003
7.887002e+002, 2.876335e+003
7.891823e+002, 2.880028e+003
7.896644e+002, 2.882426e+003
7.901465e+002, 2.884511e+003
7.906286e+002, 2.883980e+003
7.911107e+002, 2.876589e+003
7.915928e+002, 2.870306e+003
7.920750e+002, 2.872100e+003
7.925571e+002, 2.878685e+003
7.930392e+002, 2.882339e+003
7.935213e+002, 2.880060e+003
7.940034e+002, 2.876515e+003
7.944855e+002, 2.876106e+003
7.949677e+002, 2.877086e+003
7.954498e+002, 2.876035e+003
7.959319e+002, 2.873022e+003
7.964140e+002, 2.869728e+003
7.968961e+002, 2.866731e+003
7.973782e+002, 2.864874e+003
7.978604e+002, 2.865885e+003
7.983425e+002, 2.870034e+003
7.988246e+002, 2.869674e+003
7.993067e+002, 2.861148e+003
7.997888e+002, 2.854685e+003
8.002709e+002, 2.854395e+003
8.007531e+002, 2.855830e+003
8.012352e+002, 2.856070e+003
8.017173e+002, 2.855186e+003
8.021994e+002, 2.854131e+003
8.026815e+002, 2.852575e+003
8.031636e+002, 2.851759e+003
8.036458e+002, 2.852059e+003
8.041279e+002, 2.853651e+003
8.046100e+002, 2.858238e+003
8.050921e+002, 2.864506e+003
8.055742e+002, 2.867929e+003
8.060563e+002, 2.865943e+003
8.065385e+002, 2.861260e+003
8.070206e+002, 2.858007e+003
8.075027e+002, 2.856079e+003
8.079848e+002, 2.853688e+003
8.084669e+002, 2.850397e+003
8.089490e+002, 2.848765e+003
8.094312e+002, 2.850926e+003
8.099133e+002, 2.853974e+003
8.103954e+002, 2.853339e+003
8.108775e+002, 2.848303e+003
8.113596e+002, 2.844169e+003
8.118417e+002, 2.840509e+003
8.123239e+002, 2.838297e+003
8.128060e+002, 2.838823e+003
8.132881e+002, 2.840200e+003
8.137702e+002, 2.840395e+003
8.142523e+002, 2.839641e+003
8.147344e+002, 2.840020e+003
8.152166e+002, 2.843375e+003
8.156987e+002, 2.846543e+003
8.161808e+002, 2.845092e+003
8.166629e+002, 2.841227e+003
8.171450e+002, 2.840688e+003
8.176271e+002, 2.843602e+003
8.181093e+002, 2.844516e+003
8.185914e+002, 2.840064e+003
8.190735e+002, 2.833254e+003
8.195556e+002, 2.830290e+003
8.200377e+002, 2.832145e+003
8.205198e+002, 2.831165e+003
8.210020e+002, 2.824667e+003
8.214841e+002, 2.820348e+003
8.219662e+002, 2.822678e+003
8.224483e+002, 2.827498e+003
8.229304e+002, 2.830431e+003
8.234125e+002, 2.831473e+003
8.238947e+002, 2.832189e+003
8.243768e+002, 2.833626e+003
8.248589e+002, 2.833940e+003
8.253410e+002, 2.831278e+003
8.258231e+002, 2.827802e+003
8.263052e+002, 2.826306e+003
8.267874e+002, 2.826513e+003
8.272695e+002, 2.825819e+003
8.277516e+002, 2.822515e+003
8.282337e+002, 2.818897e+003
8.287158e+002, 2.819116e+003
8.291979e+002, 2.821917e+003
8.296801e+002, 2.821619e+003
8.301622e+002, 2.817712e+003
8.306443e+002, 2.813515e+003
8.311264e+002, 2.810428e+003
8.316085e+002, 2.808618e+003
8.320906e+002, 2.808440e+003
8.325728e+002, 2.810044e+003
8.330549e+002, 2.812140e+003
8.335370e+002, 2.817565e+003
8.340191e+002, 2.819210e+003
8.345012e+002, 2.811178e+003
8.349833e+002, 2.802409e+003
8.354655e+002, 2.801236e+003
8.359476e+002, 2.806407e+003
8.364297e+002, 2.809612e+003
8.369118e+002, 2.806526e+003
8.373939e+002, 2.803939e+003
8.378760e+002, 2.807993e+003
8.383582e+002, 2.812935e+003
8.388403e+002, 2.809668e+003
8.393224e+002, 2.800781e+003
8.398045e+002, 2.797662e+003
8.402866e+002, 2.805733e+003
8.407687e+002, 2.816346e+003
8.412509e+002, 2.816855e+003
8.417330e+002, 2.809155e+003
8.422151e+002, 2.804232e+003
8.426972e+002, 2.802453e+003
8.431793e+002, 2.800308e+003
8.436614e+002, 2.796064e+003
8.441436e+002, 2.792499e+003
8.446257e+002, 2.793535e+003
8.451078e+002, 2.798970e+003
8.455899e+002, 2.800558e+003
8.460720e+002, 2.794472e+003
8.465541e+002, 2.790037e+003
8.470363e+002, 2.789151e+003
8.475184e+002, 2.789031e+003
8.480005e+002, 2.788117e+003
8.484826e+002, 2.786562e+003
8.489647e+002, 2.784926e+003
8.494468e+002, 2.783311e+003
8.499290e+002, 2.781806e+003
8.504111e+002, 2.780698e+003
8.508932e+002, 2.779542e+003
8.513753e+002, 2.777073e+003
8.518574e+002, 2.774344e+003
8.523395e+002, 2.774746e+003
8.528217e+002, 2.778833e+003
8.533038e+002, 2.781747e+003
8.537859e+002, 2.777948e+003
8.542680e+002, 2.769991e+003
8.547501e+002, 2.765655e+003
8.552322e+002, 2.764929e+003
8.557144e+002, 2.767010e+003
8.561965e+002, 2.772864e+003
8.566786e+002, 2.776173e+003
8.571607e+002, 2.770743e+003
8.576428e+002, 2.760253e+003
8.581249e+002, 2.756855e+003
8.586071e+002, 2.765679e+003
8.590892e+002, 2.770439e+003
8.595713e+002, 2.768905e+003
8.600534e+002, 2.765995e+003
8.605355e+002, 2.761534e+003
8.610176e+002, 2.757680e+003
8.614998e+002, 2.757845e+003
8.619819e+002, 2.762085e+003
8.624640e+002, 2.764821e+003
8.629461e+002, 2.761614e+003
8.634282e+002, 2.758555e+003
8.639103e+002, 2.760824e+003
8.643925e+002, 2.765302e+003
8.648746e+002, 2.768768e+003
8.653567e+002, 2.770048e+003
8.658388e+002, 2.766782e+003
8.663209e+002, 2.757126e+003
8.668030e+002, 2.746146e+003
8.672852e+002, 2.742255e+003
8.677673e+002, 2.744162e+003
8.682494e+002, 2.744866e+003
8.687315e+002, 2.743920e+003
8.692136e+002, 2.743875e+003
8.696957e+002, 2.746211e+003
8.701779e+002, 2.748419e+003
8.706600e+002, 2.747035e+003
8.711421e+002, 2.742028e+003
8.716242e+002, 2.736836e+003
8.721063e+002, 2.729881e+003
8.725884e+002, 2.725511e+003
8.730705e+002, 2.725346e+003
8.735526e+002, 2.727187e+003
8.740347e+002, 2.730721e+003
8.745168e+002, 2.735141e+003
8.749990e+002, 2.738918e+003
8.754811e+002, 2.742343e+003
8.759632e+002, 2.743360e+003
8.764453e+002, 2.740066e+003
8.769274e+002, 2.735244e+003
8.774095e+002, 2.729444e+003
8.778917e+002, 2.724158e+003
8.783738e+002, 2.721976e+003
8.788559e+002, 2.723182e+003
8.793380e+002, 2.725062e+003
8.798201e+002, 2.725759e+003
8.803022e+002, 2.725622e+003
8.807844e+002, 2.724918e+003
8.812665e+002, 2.723867e+003
8.817486e+002, 2.723378e+003
8.822307e+002, 2.723562e+003
8.827128e+002, 2.723736e+003
8.831949e+002, 2.723528e+003
8.836771e+002, 2.722799e+003
8.841592e+002, 2.721180e+003
8.846413e+002, 2.718539e+003
8.851234e+002, 2.715758e+003
8.856055e+002, 2.712263e+003
8.860876e+002, 2.710048e+003
8.865698e+002, 2.710246e+003
8.870519e+002, 2.711535e+003
8.875340e+002, 2.713188e+003
8.880161e+002, 2.715011e+003
8.884982e+002, 2.714300e+003
8.889803e+002, 2.707746e+003
8.894625e+002, 2.703218e+003
8.899446e+002, 2.703265e+003
8.904267e+002, 2.704618e+003
8.909088e+002, 2.705679e+003
8.913909e+002, 2.706170e+003
8.918730e+002, 2.705824e+003
8.923552e+002, 2.704543e+003
8.928373e+002, 2.703352e+003
8.933194e+002, 2.703439e+003
8.938015e+002, 2.703526e+003
8.942836e+002, 2.701728e+003
8.947657e+002, 2.699022e+003
8.952479e+002, 2.698017e+003
8.957300e+002, 2.698886e+003
8.962121e+002, 2.698629e+003
8.966942e+002, 2.694642e+003
8.971763e+002, 2.689458e+003
8.976584e+002, 2.689023e+003
8.981406e+002, 2.692669e+003
8.986227e+002, 2.693466e+003
8.991048e+002, 2.690589e+003
8.995869e+002, 2.687122e+003
9.000690e+002, 2.684333e+003
9.005511e+002, 2.682109e+003
9.010333e+002, 2.680169e+003
9.015154e+002, 2.678448e+003
9.019975e+002, 2.678494e+003
9.024796e+002, 2.681863e+003
9.029617e+002, 2.684125e+003
9.034438e+002, 2.684167e+003
9.039260e+002, 2.683149e+003
9.044081e+002, 2.681949e+003
9.048902e+002, 2.680326e+003
9.053723e+002, 2.677384e+003
9.058544e+002, 2.672095e+003
9.063365e+002, 2.668226e+003
9.068187e+002, 2.666733e+003
9.073008e+002, 2.666880e+003
9.077829e+002, 2.670407e+003
9.082650e+002, 2.674164e+003
9.087471e+002, 2.673386e+003
9.092292e+002, 2.667864e+003
9.097114e+002, 2.661917e+003
9.101935e+002, 2.657309e+003
9.106756e+002, 2.654591e+003
9.111577e+002, 2.656424e+003
9.116398e+002, 2.659658e+003
9.121219e+002, 2.656767e+003
9.126041e+002, 2.648845e+003
9.130862e+002, 2.644955e+003
9.135683e+002, 2.649409e+003
9.140504e+002, 2.656003e+003
9.145325e+002, 2.656570e+003
9.150146e+002, 2.651939e+003
9.154968e+002, 2.645864e+003
9.159789e+002, 2.638206e+003
9.164610e+002, 2.633977e+003
9.169431e+002, 2.634905e+003
9.174252e+002, 2.637345e+003
9.179073e+002, 2.638437e+003
9.183895e+002, 2.638526e+003
9.188716e+002, 2.638960e+003
9.193537e+002, 2.640397e+003
9.198358e+002, 2.640462e+003
9.203179e+002, 2.639131e+003
9.208000e+002, 2.636379e+003
9.212822e+002, 2.630048e+003
9.217643e+002, 2.623625e+003
9.222464e+002, 2.621662e+003
9.227285e+002, 2.623957e+003
9.232106e+002, 2.624841e+003
9.236927e+002, 2.621876e+003
9.241749e+002, 2.619625e+003
9.246570e+002, 2.620106e+003
9.251391e+002, 2.621121e+003
9.256212e+002, 2.620761e+003
9.261033e+002, 2.619625e+003
9.265854e+002, 2.619447e+003
9.270676e+002, 2.620785e+003
9.275497e+002, 2.621721e+003
9.280318e+002, 2.620761e+003
9.285139e+002, 2.619038e+003
9.289960e+002, 2.618421e+003
9.294781e+002, 2.617652e+003
9.299603e+002, 2.613016e+003
9.304424e+002, 2.604969e+003
9.309245e+002, 2.599215e+003
9.314066e+002, 2.599597e+003
9.318887e+002, 2.602849e+003
9.323708e+002, 2.603919e+003
9.328530e+002, 2.603418e+003
9.333351e+002, 2.604295e+003
9.338172e+002, 2.606550e+003
9.342993e+002, 2.607737e+003
9.347814e+002, 2.606999e+003
9.352635e+002, 2.603942e+003
9.357457e+002, 2.597410e+003
9.362278e+002, 2.588614e+003
9.367099e+002, 2.585197e+003
9.371920e+002, 2.588416e+003
9.376741e+002, 2.591573e+003
9.381563e+002, 2.594155e+003
9.386384e+002, 2.596109e+003
9.391205e+002, 2.597739e+003
9.396026e+002, 2.598466e+003
9.400847e+002, 2.597030e+003
9.405668e+002, 2.592979e+003
9.410490e+002, 2.589489e+003
9.415311e+002, 2.586991e+003
9.420132e+002, 2.584460e+003
9.424953e+002, 2.580371e+003
9.429774e+002, 2.577412e+003
9.434595e+002, 2.579288e+003
9.439417e+002, 2.583671e+003
9.444238e+002, 2.584005e+003
9.449059e+002, 2.577578e+003
9.453880e+002, 2.572711e+003
9.458701e+002, 2.572825e+003
9.463522e+002, 2.574930e+003
9.468344e+002, 2.578823e+003
9.473165e+002, 2.582502e+003
9.477986e+002, 2.583120e+003
9.482807e+002, 2.580738e+003
9.487628e+002, 2.577893e+003
9.492449e+002, 2.575687e+003
9.497271e+002, 2.574132e+003
9.502092e+002, 2.573966e+003
9.506913e+002, 2.574019e+003
9.511734e+002, 2.572019e+003
9.516555e+002, 2.568523e+003
9.521376e+002, 2.565907e+003
9.526198e+002, 2.564914e+003
9.531019e+002, 2.563997e+003
9.535840e+002, 2.561193e+003
9.540661e+002, 2.558001e+003
9.545482e+002, 2.559395e+003
9.550303e+002, 2.564244e+003
9.555124e+002, 2.563971e+003
9.559945e+002, 2.557390e+003
9.564766e+002, 2.552599e+003
9.569587e+002, 2.554165e+003
9.574409e+002, 2.558522e+003
9.579230e+002, 2.559879e+003
9.584051e+002, 2.558315e+003
9.588872e+002, 2.558278e+003
9.593693e+002, 2.560277e+003
9.598514e+002, 2.561641e+003
9.603336e+002, 2.561870e+003
9.608157e+002, 2.561166e+003
9.612978e+002, 2.559567e+003
9.617799e+002, 2.557200e+003
9.622620e+002, 2.554257e+003
9.627441e+002, 2.550007e+003
9.632263e+002, 2.547473e+003
9.637084e+002, 2.547571e+003
9.641905e+002, 2.548196e+003
9.646726e+002, 2.550170e+003
9.651547e+002, 2.551329e+003
9.656368e+002, 2.548993e+003
9.661190e+002, 2.544034e+003
9.666011e+002, 2.540545e+003
9.670832e+002, 2.539429e+003
9.675653e+002, 2.538958e+003
9.680474e+002, 2.539296e+003
9.685295e+002, 2.539607e+003
9.690117e+002, 2.539782e+003
9.694938e+002, 2.539431e+003
9.699759e+002, 2.537860e+003
9.704580e+002, 2.535157e+003
9.709401e+002, 2.532501e+003
9.714222e+002, 2.530450e+003
9.719044e+002, 2.528534e+003
9.723865e+002, 2.526137e+003
9.728686e+002, 2.523985e+003
9.733507e+002, 2.522896e+003
9.738328e+002, 2.522711e+003
9.743149e+002, 2.523230e+003
9.747971e+002, 2.524252e+003
9.752792e+002, 2.524698e+003
9.757613e+002, 2.523584e+003
9.762434e+002, 2.521560e+003
9.767255e+002, 2.519110e+003
9.772076e+002, 2.516530e+003
9.776898e+002, 2.514383e+003
9.781719e+002, 2.512736e+003
9.786540e+002, 2.511720e+003
9.791361e+002, 2.511383e+003
9.796182e+002, 2.510791e+003
9.801003e+002, 2.508022e+003
9.805825e+002, 2.504325e+003
9.810646e+002, 2.504955e+003
9.815467e+002, 2.509176e+003
9.820288e+002, 2.510738e+003
9.825109e+002, 2.508415e+003
9.829930e+002, 2.504922e+003
9.834752e+002, 2.501779e+003
9.839573e+002, 2.499746e+003
9.844394e+002, 2.500913e+003
9.849215e+002, 2.505324e+003
9.854036e+002, 2.506599e+003
9.858857e+002, 2.504000e+003
9.863679e+002, 2.502885e+003
9.868500e+002, 2.505208e+003
9.873321e+002, 2.507498e+003
9.878142e+002, 2.506719e+003
9.882963e+002, 2.503954e+003
9.887784e+002, 2.502937e+003
9.892606e+002, 2.505195e+003
9.897427e+002, 2.503336e+003
9.902248e+002, 2.493648e+003
9.907069e+002, 2.487074e+003
9.911890e+002, 2.488575e+003
9.916711e+002, 2.492823e+003
9.921533e+002, 2.495446e+003
9.926354e+002, 2.496473e+003
9.931175e+002, 2.495908e+003
9.935996e+002, 2.490995e+003
9.940817e+002, 2.489477e+003
9.945638e+002, 2.495725e+003
9.950460e+002, 2.500289e+003
9.955281e+002, 2.497743e+003
9.960102e+002, 2.492951e+003
9.964923e+002, 2.491449e+003
9.969744e+002, 2.492966e+003
9.974565e+002, 2.493328e+003
9.979387e+002, 2.491472e+003
9.984208e+002, 2.488883e+003
9.989029e+002, 2.484032e+003
9.993850e+002, 2.480548e+003
9.998671e+002, 2.482743e+003
1.000349e+003, 2.486707e+003
1.000831e+003, 2.485952e+003
1.001313e+003, 2.480268e+003
1.001796e+003, 2.476485e+003
1.002278e+003, 2.478460e+003
1.002760e+003, 2.481396e+003
1.003242e+003, 2.482710e+003
1.003724e+003, 2.483772e+003
1.004206e+003, 2.487148e+003
1.004688e+003, 2.490860e+003
1.005170e+003, 2.490696e+003
1.005653e+003, 2.485876e+003
1.006135e+003, 2.479766e+003
1.006617e+003, 2.472009e+003
1.007099e+003, 2.467144e+003
1.007581e+003, 2.472611e+003
1.008063e+003, 2.481648e+003
1.008545e+003, 2.484458e+003
1.009027e+003, 2.481899e+003
1.009509e+003, 2.479743e+003
1.009992e+003, 2.479919e+003
1.010474e+003, 2.479280e+003
1.010956e+003, 2.474188e+003
1.011438e+003, 2.467672e+003
1.011920e+003, 2.464300e+003
1.012402e+003, 2.463093e+003
1.012884e+003, 2.461761e+003
1.013366e+003, 2.460175e+003
1.013849e+003, 2.459351e+003
1.014331e+003, 2.459721e+003
1.014813e+003, 2.460709e+003
1.015295e+003, 2.462213e+003
1.015777e+003, 2.463418e+003
1.016259e+003, 2.461323e+003
1.016741e+003, 2.456917e+003
1.017223e+003, 2.455187e+003
1.017705e+003, 2.456672e+003
1.018188e+003, 2.458441e+003
1.018670e+003, 2.458998e+003
1.019152e+003, 2.458984e+003
1.019634e+003, 2.459309e+003
1.020116e+003, 2.459819e+003
1.020598e+003, 2.459607e+003
1.021080e+003, 2.458717e+003
1.021562e+003, 2.458755e+003
1.022044e+003, 2.460116e+003
1.022527e+003, 2.459917e+003
1.023009e+003, 2.456261e+003
1.023491e+003, 2.451312e+003
1.023973e+003, 2.448656e+003
1.024455e+003, 2.448107e+003
1.024937e+003, 2.446246e+003
1.025419e+003, 2.442783e+003
1.025901e+003, 2.440828e+003
1.026384e+003, 2.441321e+003
1.026866e+003, 2.441624e+003
1.027348e+003, 2.439863e+003
1.027830e+003, 2.437486e+003
1.028312e+003, 2.437544e+003
1.028794e+003, 2.440270e+003
1.029276e+003, 2.439302e+003
1.029758e+003, 2.432872e+003
1.030240e+003, 2.429253e+003
1.030723e+003, 2.431133e+003
1.031205e+003, 2.433361e+003
1.031687e+003, 2.432343e+003
1.032169e+003, 2.429727e+003
1.032651e+003, 2.428895e+003
1.033133e+003, 2.430065e+003
1.033615e+003, 2.430994e+003
1.034097e+003, 2.431085e+003
1.034579e+003, 2.432311e+003
1.035062e+003, 2.436273e+003
1.035544e+003, 2.439529e+003
1.036026e+003, 2.439556e+003
1.036508e+003, 2.437422e+003
1.036990e+003, 2.435011e+003
1.037472e+003, 2.431864e+003
1.037954e+003, 2.431073e+003
1.038436e+003, 2.435938e+003
1.038919e+003, 2.437815e+003
1.039401e+003, 2.432991e+003
1.039883e+003, 2.427226e+003
1.040365e+003, 2.423755e+003
1.040847e+003, 2.422091e+003
1.041329e+003, 2.421496e+003
1.041811e+003, 2.422374e+003
1.042293e+003, 2.422287e+003
1.042776e+003, 2.420105e+003
1.043258e+003, 2.418530e+003
1.043740e+003, 2.417865e+003
1.044222e+003, 2.418167e+003
1.044704e+003, 2.421489e+003
1.045186e+003, 2.425147e+003
1.045668e+003, 2.422759e+003
1.046150e+003, 2.412452e+003
1.046632e+003, 2.406846e+003
1.047115e+003, 2.412479e+003
1.047597e+003, 2.415760e+003
1.048079e+003, 2.411231e+003
1.048561e+003, 2.405366e+003
1.049043e+003, 2.401359e+003
1.049525e+003, 2.399694e+003
1.050007e+003, 2.401535e+003
1.050489e+003, 2.407430e+003
1.050971e+003, 2.411545e+003
1.051454e+003, 2.412113e+003
1.051936e+003, 2.411609e+003
1.052418e+003, 2.409868e+003
1.052900e+003, 2.408165e+003
1.053382e+003, 2.408245e+003
1.053864e+003, 2.408684e+003
1.054346e+003, 2.406248e+003
1.054828e+003, 2.400375e+003
1.055311e+003, 2.396276e+003
1.055793e+003, 2.396772e+003
1.056275e+003, 2.397301e+003
1.056757e+003, 2.396359e+003
1.057239e+003, 2.394847e+003
1.057721e+003, 2.392713e+003
1.058203e+003, 2.390833e+003
1.058685e+003, 2.390685e+003
1.059167e+003, 2.392474e+003
1.059650e+003, 2.394642e+003
1.060132e+003, 2.397802e+003
1.060614e+003, 2.399750e+003
1.061096e+003, 2.398014e+003
1.061578e+003, 2.396350e+003
1.062060e+003, 2.399512e+003
1.062542e+003, 2.403869e+003
1.063024e+003, 2.402207e+003
1.063506e+003, 2.393949e+003
1.063989e+003, 2.387524e+003
1.064471e+003, 2.386931e+003
1.064953e+003, 2.387318e+003
1.065435e+003, 2.386909e+003
1.065917e+003, 2.386487e+003
1.066399e+003, 2.387114e+003
1.066881e+003, 2.387901e+003
1.067363e+003, 2.387072e+003
1.067846e+003, 2.384651e+003
1.068328e+003, 2.383074e+003
1.068810e+003, 2.383958e+003
1.069292e+003, 2.384624e+003
1.069774e+003, 2.382316e+003
1.070256e+003, 2.380957e+003
1.070738e+003, 2.384965e+003
1.071220e+003, 2.390992e+003
1.071703e+003, 2.394151e+003
1.072185e+003, 2.394061e+003
1.072667e+003, 2.393744e+003
1.073149e+003, 2.395475e+003
1.073631e+003, 2.394438e+003
1.074113e+003, 2.385965e+003
1.074595e+003, 2.376435e+003
1.075077e+003, 2.369039e+003
1.075559e+003, 2.364302e+003
1.076042e+003, 2.363675e+003
1.076524e+003, 2.366151e+003
1.077006e+003, 2.367196e+003
1.077488e+003, 2.364736e+003
1.077970e+003, 2.362423e+003
1.078452e+003, 2.362375e+003
1.078934e+003, 2.362587e+003
1.079416e+003, 2.361747e+003
1.079898e+003, 2.360369e+003
1.080380e+003, 2.359101e+003
1.080863e+003, 2.357964e+003
1.081345e+003, 2.356714e+003
1.081827e+003, 2.355306e+003
1.082309e+003, 2.353645e+003
1.082791e+003, 2.350488e+003
1.083273e+003, 2.348424e+003
1.083755e+003, 2.350063e+003
1.084237e+003, 2.352812e+003
1.084720e+003, 2.353821e+003
1.085202e+003, 2.353442e+003
1.085684e+003, 2.353573e+003
1.086166e+003, 2.354797e+003
1.086648e+003, 2.355457e+003
1.087130e+003, 2.355746e+003
1.087612e+003, 2.354163e+003
1.088094e+003, 2.346697e+003
1.088577e+003, 2.339775e+003
1.089059e+003, 2.341324e+003
1.089541e+003, 2.347591e+003
1.090023e+003, 2.349896e+003
1.090505e+003, 2.346459e+003
1.090987e+003, 2.342026e+003
1.091469e+003, 2.336010e+003
1.091951e+003, 2.332533e+003
1.092433e+003, 2.335708e+003
1.092916e+003, 2.339856e+003
1.093398e+003, 2.340817e+003
1.093880e+003, 2.339443e+003
1.094362e+003, 2.337423e+003
1.094844e+003, 2.335104e+003
1.095326e+003, 2.332871e+003
1.095808e+003, 2.330553e+003
1.096290e+003, 2.328800e+003
1.096772e+003, 2.327948e+003
1.097255e+003, 2.327598e+003
1.097737e+003, 2.327798e+003
1.098219e+003, 2.328133e+003
1.098701e+003, 2.328341e+003
1.099183e+003, 2.328238e+003
1.099665e+003, 2.326904e+003
1.100147e+003, 2.322055e+003
1.100629e+003, 2.320274e+003
1.101112e+003, 2.327423e+003
1.101594e+003, 2.333050e+003
1.102076e+003, 2.330175e+003
1.102558e+003, 2.324586e+003
1.103040e+003, 2.322403e+003
1.103522e+003, 2.323180e+003
1.104004e+003, 2.323468e+003
1.104486e+003, 2.322573e+003
1.104969e+003, 2.321781e+003
1.105451e+003, 2.321395e+003
1.105933e+003, 2.321043e+003
1.106415e+003, 2.320185e+003
1.106897e+003, 2.319681e+003
1.107379e+003, 2.320637e+003
1.107861e+003, 2.322396e+003
1.108343e+003, 2.323588e+003
1.108825e+003, 2.324367e+003
1.109307e+003, 2.323109e+003
1.109790e+003, 2.317363e+003
1.110272e+003, 2.312846e+003
1.110754e+003, 2.311724e+003
1.111236e+003, 2.311086e+003
1.111718e+003, 2.308891e+003
1.112200e+003, 2.306191e+003
1.112682e+003, 2.304614e+003
1.113164e+003, 2.304200e+003
1.113647e+003, 2.304859e+003
1.114129e+003, 2.308380e+003
1.114611e+003, 2.310021e+003
1.115093e+003, 2.308738e+003
1.115575e+003, 2.306517e+003
1.116057e+003, 2.303586e+003
1.116539e+003, 2.300709e+003
1.117021e+003, 2.298863e+003
1.117504e+003, 2.297901e+003
1.117986e+003, 2.296768e+003
1.118468e+003, 2.295245e+003
1.118950e+003, 2.294075e+003
1.119432e+003, 2.293513e+003
1.119914e+003, 2.292630e+003
1.120396e+003, 2.290088e+003
1.120878e+003, 2.288966e+003
1.121360e+003, 2.292886e+003
1.121843e+003, 2.299558e+003
1.122325e+003, 2.302124e+003
1.122807e+003, 2.299966e+003
1.123289e+003, 2.297203e+003
1.123771e+003, 2.293150e+003
1.124253e+003, 2.290835e+003
1.124735e+003, 2.290989e+003
1.125217e+003, 2.292989e+003
1.125699e+003, 2.297092e+003
1.126182e+003, 2.301414e+003
1.126664e+003, 2.302631e+003
1.127146e+003, 2.300876e+003
1.127628e+003, 2.298502e+003
1.128110e+003, 2.295501e+003
1.128592e+003, 2.291544e+003
1.129074e+003, 2.286203e+003
1.129556e+003, 2.283370e+003
1.130039e+003, 2.285233e+003
1.130521e+003, 2.287740e+003
1.131003e+003, 2.285951e+003
1.131485e+003, 2.281570e+003
1.131967e+003, 2.281289e+003
1.132449e+003, 2.284747e+003
1.132931e+003, 2.284661e+003
1.133413e+003, 2.280773e+003
1.133896e+003, 2.280120e+003
1.134378e+003, 2.284841e+003
1.134860e+003, 2.288934e+003
1.135342e+003, 2.287553e+003
1.135824e+003, 2.283776e+003
1.136306e+003, 2.284006e+003
1.136788e+003, 2.286532e+003
1.137270e+003, 2.282866e+003
1.137752e+003, 2.274996e+003
1.138234e+003, 2.274204e+003
1.138717e+003, 2.281446e+003
1.139199e+003, 2.287427e+003
1.139681e+003, 2.287403e+003
1.140163e+003, 2.284376e+003
1.140645e+003, 2.280751e+003
1.141127e+003, 2.277254e+003
1.141609e+003, 2.275454e+003
1.142091e+003, 2.274691e+003
1.142574e+003, 2.273475e+003
1.143056e+003, 2.271882e+003
1.143538e+003, 2.270897e+003
1.144020e+003, 2.270739e+003
1.144502e+003, 2.270324e+003
1.144984e+003, 2.268387e+003
1.145466e+003, 2.267072e+003
1.145948e+003, 2.270389e+003
1.146431e+003, 2.274186e+003
1.146913e+003, 2.271875e+003
1.147395e+003, 2.266626e+003
1.147877e+003, 2.265236e+003
1.148359e+003, 2.267787e+003
1.148841e+003, 2.269051e+003
1.149323e+003, 2.266698e+003
1.149805e+003, 2.263625e+003
1.150287e+003, 2.260390e+003
1.150770e+003, 2.258527e+003
1.151252e+003, 2.260360e+003
1.151734e+003, 2.263152e+003
1.152216e+003, 2.263446e+003
1.152698e+003, 2.262350e+003
1.153180e+003, 2.263677e+003
1.153662e+003, 2.268199e+003
1.154144e+003, 2.270358e+003
1.154626e+003, 2.265981e+003
1.155109e+003, 2.262269e+003
1.155591e+003, 2.262280e+003
1.156073e+003, 2.262939e+003
1.156555e+003, 2.262667e+003
1.157037e+003, 2.261692e+003
1.157519e+003, 2.260098e+003
1.158001e+003, 2.258103e+003
1.158483e+003, 2.256996e+003
1.158966e+003, 2.257498e+003
1.159448e+003, 2.257562e+003
1.159930e+003, 2.255344e+003
1.160412e+003, 2.255091e+003
1.160894e+003, 2.260737e+003
1.161376e+003, 2.265495e+003
1.161858e+003, 2.263056e+003
1.162340e+003, 2.256951e+003
1.162822e+003, 2.255242e+003
1.163305e+003, 2.258590e+003
1.163787e+003, 2.258828e+003
1.164269e+003, 2.254017e+003
1.164751e+003, 2.252022e+003
1.165233e+003, 2.254879e+003
1.165715e+003, 2.257685e+003
1.166197e+003, 2.258142e+003
1.166679e+003, 2.257418e+003
1.167161e+003, 2.256595e+003
1.167644e+003, 2.256046e+003
1.168126e+003, 2.258225e+003
1.168608e+003, 2.263367e+003
1.169090e+003, 2.263004e+003
1.169572e+003, 2.256611e+003
1.170054e+003, 2.250945e+003
1.170536e+003, 2.247833e+003
1.171018e+003, 2.246844e+003
1.171500e+003, 2.247837e+003
1.171983e+003, 2.249753e+003
1.172465e+003, 2.251240e+003
1.172947e+003, 2.252137e+003
1.173429e+003, 2.251712e+003
1.173911e+003, 2.250222e+003
1.174393e+003, 2.248263e+003
1.174875e+003, 2.246181e+003
1.175357e+003, 2.245046e+003
1.175840e+003, 2.245233e+003
1.176322e+003, 2.246199e+003
1.176804e+003, 2.247835e+003
1.177286e+003, 2.249241e+003
1.177768e+003, 2.249333e+003
1.178250e+003, 2.248454e+003
1.178732e+003, 2.246548e+003
1.179214e+003, 2.244298e+003
1.179697e+003, 2.243075e+003
1.180179e+003, 2.242828e+003
1.180661e+003, 2.242410e+003
1.181143e+003, 2.241360e+003
1.181625e+003, 2.239954e+003
1.182107e+003, 2.236990e+003
1.182589e+003, 2.235377e+003
1.183071e+003, 2.238657e+003
1.183553e+003, 2.242737e+003
1.184036e+003, 2.242562e+003
1.184518e+003, 2.240674e+003
1.185000e+003, 2.242679e+003
1.185482e+003, 2.249169e+003
1.185964e+003, 2.255150e+003
1.186446e+003, 2.262733e+003
1.186928e+003, 2.264550e+003
1.187410e+003, 2.254548e+003
1.187892e+003, 2.244596e+003
1.188375e+003, 2.239310e+003
1.188857e+003, 2.236688e+003
1.189339e+003, 2.235757e+003
1.189821e+003, 2.235692e+003
1.190303e+003, 2.233848e+003
1.190785e+003, 2.229515e+003
1.191267e+003, 2.227785e+003
1.191749e+003, 2.229755e+003
1.192232e+003, 2.231244e+003
1.192714e+003, 2.231489e+003
1.193196e+003, 2.231632e+003
1.193678e+003, 2.232591e+003
1.194160e+003, 2.232492e+003
1.194642e+003, 2.228462e+003
1.195124e+003, 2.222154e+003
1.195606e+003, 2.220767e+003
1.196089e+003, 2.224043e+003
1.196571e+003, 2.225073e+003
1.197053e+003, 2.223688e+003
1.197535e+003, 2.223550e+003
1.198017e+003, 2.225527e+003
1.198499e+003, 2.228369e+003
1.198981e+003, 2.231442e+003
1.199463e+003, 2.232985e+003
1.199945e+003, 2.229013e+003
1.200427e+003, 2.223147e+003
1.200910e+003, 2.223310e+003
1.201392e+003, 2.226972e+003
1.201874e+003, 2.229108e+003
1.202356e+003, 2.229308e+003
1.202838e+003, 2.228152e+003
1.203320e+003, 2.226007e+003
1.203802e+003, 2.223973e+003
1.204284e+003, 2.222985e+003
1.204767e+003, 2.221378e+003
1.205249e+003, 2.216474e+003
1.205731e+003, 2.211966e+003
1.206213e+003, 2.212073e+003
1.206695e+003, 2.213548e+003
1.207177e+003, 2.212166e+003
1.207659e+003, 2.208647e+003
1.208141e+003, 2.205788e+003
1.208624e+003, 2.204116e+003
1.209106e+003, 2.203577e+003
1.209588e+003, 2.205444e+003
1.210070e+003, 2.206523e+003
1.210552e+003, 2.204943e+003
1.211034e+003, 2.203864e+003
1.211516e+003, 2.205448e+003
1.211998e+003, 2.207792e+003
1.212480e+003, 2.209483e+003
1.212963e+003, 2.210222e+003
1.213445e+003, 2.208549e+003
1.213927e+003, 2.203404e+003
1.214409e+003, 2.201360e+003
1.214891e+003, 2.203449e+003
1.215373e+003, 2.204495e+003
1.215855e+003, 2.203515e+003
1.216337e+003, 2.201233e+003
1.216819e+003, 2.197732e+003
1.217302e+003, 2.194936e+003
1.217784e+003, 2.195674e+003
1.218266e+003, 2.198221e+003
1.218748e+003, 2.196615e+003
1.219230e+003, 2.191912e+003
1.219712e+003, 2.189497e+003
1.220194e+003, 2.189192e+003
1.220676e+003, 2.188646e+003
1.221159e+003, 2.187172e+003
1.221641e+003, 2.183789e+003
1.222123e+003, 2.177802e+003
1.222605e+003, 2.173663e+003
1.223087e+003, 2.177172e+003
1.223569e+003, 2.183508e+003
1.224051e+003, 2.188821e+003
1.224533e+003, 2.192272e+003
1.225016e+003, 2.191292e+003
1.225498e+003, 2.188138e+003
1.225980e+003, 2.187134e+003
1.226462e+003, 2.188832e+003
1.226944e+003, 2.191470e+003
1.227426e+003, 2.195924e+003
1.227908e+003, 2.196720e+003
1.228390e+003, 2.187466e+003
1.228872e+003, 2.180069e+003
1.229354e+003, 2.181081e+003
1.229837e+003, 2.184365e+003
1.230319e+003, 2.185997e+003
1.230801e+003, 2.186077e+003
1.231283e+003, 2.184767e+003
1.231765e+003, 2.182143e+003
1.232247e+003, 2.180593e+003
1.232729e+003, 2.180531e+003
1.233211e+003, 2.180472e+003
1.233694e+003, 2.180630e+003
1.234176e+003, 2.179645e+003
1.234658e+003, 2.176749e+003
1.235140e+003, 2.174363e+003
1.235622e+003, 2.174379e+003
1.236104e+003, 2.175338e+003
1.236586e+003, 2.174831e+003
1.237068e+003, 2.173075e+003
1.237551e+003, 2.170161e+003
1.238033e+003, 2.166811e+003
1.238515e+003, 2.166677e+003
1.238997e+003, 2.169466e+003
1.239479e+003, 2.172752e+003
1.239961e+003, 2.175344e+003
1.240443e+003, 2.174292e+003
1.240925e+003, 2.166657e+003
1.241407e+003, 2.160435e+003
1.241890e+003, 2.166642e+003
1.242372e+003, 2.174498e+003
1.242854e+003, 2.172544e+003
1.243336e+003, 2.166667e+003
1.243818e+003, 2.163011e+003
1.244300e+003, 2.162227e+003
1.244782e+003, 2.165253e+003
1.245264e+003, 2.171579e+003
1.245746e+003, 2.173638e+003
1.246229e+003, 2.166122e+003
1.246711e+003, 2.160425e+003
1.247193e+003, 2.160031e+003
1.247675e+003, 2.159574e+003
1.248157e+003, 2.156359e+003
1.248639e+003, 2.153510e+003
1.249121e+003, 2.153051e+003
1.249603e+003, 2.154597e+003
1.250085e+003, 2.158065e+003
1.250568e+003, 2.163139e+003
1.251050e+003, 2.163899e+003
1.251532e+003, 2.159685e+003
1.252014e+003, 2.158700e+003
1.252496e+003, 2.161702e+003
1.252978e+003, 2.163608e+003
1.253460e+003, 2.162895e+003
1.253942e+003, 2.161218e+003
1.254425e+003, 2.159631e+003
1.254907e+003, 2.158615e+003
1.255389e+003, 2.159243e+003
1.255871e+003, 2.160627e+003
1.256353e+003, 2.161571e+003
1.256835e+003, 2.161770e+003
1.257317e+003, 2.159535e+003
1.257799e+003, 2.156372e+003
1.258281e+003, 2.156993e+003
1.258764e+003, 2.161279e+003
1.259246e+003, 2.162330e+003
1.259728e+003, 2.155929e+003
1.260210e+003, 2.151019e+003
1.260692e+003, 2.153041e+003
1.261174e+003, 2.155856e+003
1.261656e+003, 2.156007e+003
1.262138e+003, 2.156392e+003
1.262620e+003, 2.160678e+003
1.263103e+003, 2.165877e+003
1.263585e+003, 2.166690e+003
1.264067e+003, 2.163706e+003
1.264549e+003, 2.162204e+003
1.265031e+003, 2.163121e+003
1.265513e+003, 2.161952e+003
1.265995e+003, 2.157907e+003
1.266477e+003, 2.155287e+003
1.266960e+003, 2.155221e+003
1.267442e+003, 2.155238e+003
1.267924e+003, 2.153856e+003
1.268406e+003, 2.152981e+003
1.268888e+003, 2.155286e+003
1.269370e+003, 2.158994e+003
1.269852e+003, 2.159683e+003
1.270334e+003, 2.158633e+003
1.270817e+003, 2.159552e+003
1.271299e+003, 2.161466e+003
1.271781e+003, 2.160815e+003
1.272263e+003, 2.157774e+003
1.272745e+003, 2.155656e+003
1.273227e+003, 2.155735e+003
1.273709e+003, 2.155551e+003
1.274191e+003, 2.152760e+003
1.274673e+003, 2.150574e+003
1.275156e+003, 2.150136e+003
1.275638e+003, 2.151335e+003
1.276120e+003, 2.156166e+003
1.276602e+003, 2.160944e+003
1.277084e+003, 2.161105e+003
1.277566e+003, 2.157748e+003
1.278048e+003, 2.154983e+003
1.278530e+003, 2.152865e+003
1.279012e+003, 2.150434e+003
1.279495e+003, 2.145508e+003
1.279977e+003, 2.149587e+003
1.280459e+003, 2.166913e+003
1.280941e+003, 2.176865e+003
1.281423e+003, 2.171365e+003
1.281905e+003, 2.161695e+003
1.282387e+003, 2.156350e+003
1.282869e+003, 2.154442e+003
1.283352e+003, 2.155685e+003
1.283834e+003, 2.158332e+003
1.284316e+003, 2.158482e+003
1.284798e+003, 2.156239e+003
##END=



