##NAMES=Waylandite
##RRUFFID=R130361
##IDEAL CHEMISTRY=Bi^3+^Al_3_(PO_4_)_2_(OH)_6_
##LOCALITY=Ngussa, Kivu, Zaire
##OWNER=RRUFF
##SOURCE=Rock Currier
##DESCRIPTION=Colorless to pale brown crystals, associated with prismatic dark brown or bluish fluor-dravite
##STATUS=The identification of this mineral has been confirmed only by single crystal X-ray diffraction.
##URL=rruff.info/R130361
8.936163e+001, 0.000000e+000
8.984375e+001, 2.468108e+002
9.032587e+001, 2.489053e+002
9.080798e+001, 2.493092e+002
9.129010e+001, 2.473567e+002
9.177222e+001, 2.444863e+002
9.225433e+001, 2.424850e+002
9.273645e+001, 2.412702e+002
9.321857e+001, 2.400443e+002
9.370068e+001, 2.383787e+002
9.418280e+001, 2.362226e+002
9.466492e+001, 2.333691e+002
9.514703e+001, 2.291977e+002
9.562915e+001, 2.243883e+002
9.611127e+001, 2.207997e+002
9.659338e+001, 2.185583e+002
9.707550e+001, 2.170300e+002
9.755762e+001, 2.155237e+002
9.803973e+001, 2.140318e+002
9.852185e+001, 2.126691e+002
9.900397e+001, 2.115939e+002
9.948608e+001, 2.108144e+002
9.996820e+001, 2.096970e+002
1.004503e+002, 2.082126e+002
1.009324e+002, 2.064026e+002
1.014146e+002, 2.043384e+002
1.018967e+002, 2.019863e+002
1.023788e+002, 1.994251e+002
1.028609e+002, 1.964096e+002
1.033430e+002, 1.924335e+002
1.038251e+002, 1.898250e+002
1.043073e+002, 1.893391e+002
1.047894e+002, 1.904479e+002
1.052715e+002, 1.903820e+002
1.057536e+002, 1.886913e+002
1.062357e+002, 1.863237e+002
1.067178e+002, 1.838248e+002
1.072000e+002, 1.806310e+002
1.076821e+002, 1.781698e+002
1.081642e+002, 1.769398e+002
1.086463e+002, 1.770672e+002
1.091284e+002, 1.766720e+002
1.096105e+002, 1.756538e+002
1.100927e+002, 1.741513e+002
1.105748e+002, 1.723066e+002
1.110569e+002, 1.695886e+002
1.115390e+002, 1.670303e+002
1.120211e+002, 1.649320e+002
1.125032e+002, 1.634407e+002
1.129854e+002, 1.619061e+002
1.134675e+002, 1.603196e+002
1.139496e+002, 1.586324e+002
1.144317e+002, 1.567484e+002
1.149138e+002, 1.536782e+002
1.153959e+002, 1.511397e+002
1.158781e+002, 1.501528e+002
1.163602e+002, 1.518225e+002
1.168423e+002, 1.530184e+002
1.173244e+002, 1.524350e+002
1.178065e+002, 1.505265e+002
1.182886e+002, 1.484487e+002
1.187708e+002, 1.465188e+002
1.192529e+002, 1.446956e+002
1.197350e+002, 1.429422e+002
1.202171e+002, 1.410230e+002
1.206992e+002, 1.394353e+002
1.211813e+002, 1.384485e+002
1.216635e+002, 1.380518e+002
1.221456e+002, 1.382332e+002
1.226277e+002, 1.399154e+002
1.231098e+002, 1.419595e+002
1.235919e+002, 1.428497e+002
1.240740e+002, 1.413614e+002
1.245562e+002, 1.388897e+002
1.250383e+002, 1.368693e+002
1.255204e+002, 1.352881e+002
1.260025e+002, 1.337304e+002
1.264846e+002, 1.316880e+002
1.269667e+002, 1.293703e+002
1.274489e+002, 1.273005e+002
1.279310e+002, 1.257700e+002
1.284131e+002, 1.246297e+002
1.288952e+002, 1.236323e+002
1.293773e+002, 1.227857e+002
1.298594e+002, 1.219971e+002
1.303416e+002, 1.212077e+002
1.308237e+002, 1.204047e+002
1.313058e+002, 1.194415e+002
1.317879e+002, 1.181162e+002
1.322700e+002, 1.165223e+002
1.327521e+002, 1.150843e+002
1.332343e+002, 1.137868e+002
1.337164e+002, 1.127350e+002
1.341985e+002, 1.122321e+002
1.346806e+002, 1.123256e+002
1.351627e+002, 1.123376e+002
1.356448e+002, 1.117355e+002
1.361270e+002, 1.105063e+002
1.366091e+002, 1.094430e+002
1.370912e+002, 1.086742e+002
1.375733e+002, 1.081242e+002
1.380554e+002, 1.074773e+002
1.385375e+002, 1.066979e+002
1.390197e+002, 1.059208e+002
1.395018e+002, 1.052906e+002
1.399839e+002, 1.048911e+002
1.404660e+002, 1.042801e+002
1.409481e+002, 1.032847e+002
1.414302e+002, 1.019560e+002
1.419124e+002, 1.009046e+002
1.423945e+002, 1.001520e+002
1.428766e+002, 9.964880e+001
1.433587e+002, 9.942019e+001
1.438408e+002, 9.972160e+001
1.443229e+002, 9.977633e+001
1.448051e+002, 9.938626e+001
1.452872e+002, 9.848927e+001
1.457693e+002, 9.754179e+001
1.462514e+002, 9.637585e+001
1.467335e+002, 9.525115e+001
1.472156e+002, 9.448717e+001
1.476978e+002, 9.425361e+001
1.481799e+002, 9.418771e+001
1.486620e+002, 9.433527e+001
1.491441e+002, 9.508366e+001
1.496262e+002, 9.496892e+001
1.501083e+002, 9.307045e+001
1.505905e+002, 9.045971e+001
1.510726e+002, 8.901564e+001
1.515547e+002, 9.001257e+001
1.520368e+002, 9.108398e+001
1.525189e+002, 9.153976e+001
1.530010e+002, 9.116143e+001
1.534832e+002, 9.050175e+001
1.539653e+002, 8.926088e+001
1.544474e+002, 8.774195e+001
1.549295e+002, 8.667260e+001
1.554116e+002, 8.655236e+001
1.558937e+002, 8.660368e+001
1.563759e+002, 8.647810e+001
1.568580e+002, 8.599385e+001
1.573401e+002, 8.551024e+001
1.578222e+002, 8.497141e+001
1.583043e+002, 8.445095e+001
1.587864e+002, 8.421995e+001
1.592686e+002, 8.478360e+001
1.597507e+002, 8.540833e+001
1.602328e+002, 8.562440e+001
1.607149e+002, 8.503188e+001
1.611970e+002, 8.430758e+001
1.616791e+002, 8.353578e+001
1.621613e+002, 8.276156e+001
1.626434e+002, 8.221060e+001
1.631255e+002, 8.202621e+001
1.636076e+002, 8.209207e+001
1.640897e+002, 8.230459e+001
1.645718e+002, 8.286333e+001
1.650540e+002, 8.336864e+001
1.655361e+002, 8.356136e+001
1.660182e+002, 8.345361e+001
1.665003e+002, 8.336681e+001
1.669824e+002, 8.351035e+001
1.674645e+002, 8.376528e+001
1.679467e+002, 8.398239e+001
1.684288e+002, 8.387949e+001
1.689109e+002, 8.387411e+001
1.693930e+002, 8.425938e+001
1.698751e+002, 8.505350e+001
1.703572e+002, 8.611214e+001
1.708394e+002, 8.734412e+001
1.713215e+002, 8.878544e+001
1.718036e+002, 9.047337e+001
1.722857e+002, 9.235836e+001
1.727678e+002, 9.454526e+001
1.732499e+002, 9.703585e+001
1.737321e+002, 9.981409e+001
1.742142e+002, 1.032133e+002
1.746963e+002, 1.078039e+002
1.751784e+002, 1.133101e+002
1.756605e+002, 1.191029e+002
1.761426e+002, 1.244805e+002
1.766248e+002, 1.300306e+002
1.771069e+002, 1.366131e+002
1.775890e+002, 1.444400e+002
1.780711e+002, 1.528573e+002
1.785532e+002, 1.609991e+002
1.790353e+002, 1.691419e+002
1.795175e+002, 1.779531e+002
1.799996e+002, 1.884612e+002
1.804817e+002, 1.998442e+002
1.809638e+002, 2.106799e+002
1.814459e+002, 2.207368e+002
1.819280e+002, 2.304571e+002
1.824102e+002, 2.408580e+002
1.828923e+002, 2.516286e+002
1.833744e+002, 2.620502e+002
1.838565e+002, 2.711020e+002
1.843386e+002, 2.793418e+002
1.848207e+002, 2.882468e+002
1.853029e+002, 2.984387e+002
1.857850e+002, 3.087528e+002
1.862671e+002, 3.170912e+002
1.867492e+002, 3.235135e+002
1.872313e+002, 3.300632e+002
1.877134e+002, 3.384585e+002
1.881956e+002, 3.483558e+002
1.886777e+002, 3.575867e+002
1.891598e+002, 3.655996e+002
1.896419e+002, 3.731643e+002
1.901240e+002, 3.821021e+002
1.906061e+002, 3.925831e+002
1.910883e+002, 4.033351e+002
1.915704e+002, 4.132112e+002
1.920525e+002, 4.224563e+002
1.925346e+002, 4.326602e+002
1.930167e+002, 4.442167e+002
1.934988e+002, 4.565119e+002
1.939810e+002, 4.669015e+002
1.944631e+002, 4.748442e+002
1.949452e+002, 4.828595e+002
1.954273e+002, 4.913594e+002
1.959094e+002, 5.003214e+002
1.963915e+002, 5.086218e+002
1.968737e+002, 5.158594e+002
1.973558e+002, 5.223558e+002
1.978379e+002, 5.295610e+002
1.983200e+002, 5.376409e+002
1.988021e+002, 5.455869e+002
1.992842e+002, 5.523475e+002
1.997664e+002, 5.579348e+002
2.002485e+002, 5.633096e+002
2.007306e+002, 5.686451e+002
2.012127e+002, 5.739760e+002
2.016948e+002, 5.796588e+002
2.021769e+002, 5.858221e+002
2.026591e+002, 5.920175e+002
2.031412e+002, 5.977558e+002
2.036233e+002, 6.030491e+002
2.041054e+002, 6.081303e+002
2.045875e+002, 6.130009e+002
2.050696e+002, 6.176901e+002
2.055518e+002, 6.224024e+002
2.060339e+002, 6.270613e+002
2.065160e+002, 6.318926e+002
2.069981e+002, 6.374750e+002
2.074802e+002, 6.441609e+002
2.079623e+002, 6.496511e+002
2.084445e+002, 6.529571e+002
2.089266e+002, 6.542234e+002
2.094087e+002, 6.568549e+002
2.098908e+002, 6.612927e+002
2.103729e+002, 6.662764e+002
2.108550e+002, 6.703647e+002
2.113372e+002, 6.732001e+002
2.118193e+002, 6.763004e+002
2.123014e+002, 6.802542e+002
2.127835e+002, 6.850325e+002
2.132656e+002, 6.888139e+002
2.137477e+002, 6.911544e+002
2.142299e+002, 6.931411e+002
2.147120e+002, 6.961260e+002
2.151941e+002, 7.005783e+002
2.156762e+002, 7.047499e+002
2.161583e+002, 7.081765e+002
2.166404e+002, 7.107842e+002
2.171226e+002, 7.134109e+002
2.176047e+002, 7.159872e+002
2.180868e+002, 7.186558e+002
2.185689e+002, 7.217415e+002
2.190510e+002, 7.256370e+002
2.195331e+002, 7.290441e+002
2.200153e+002, 7.314642e+002
2.204974e+002, 7.327491e+002
2.209795e+002, 7.349863e+002
2.214616e+002, 7.386959e+002
2.219437e+002, 7.428528e+002
2.224258e+002, 7.462219e+002
2.229080e+002, 7.484822e+002
2.233901e+002, 7.506222e+002
2.238722e+002, 7.528095e+002
2.243543e+002, 7.550505e+002
2.248364e+002, 7.574804e+002
2.253185e+002, 7.602435e+002
2.258007e+002, 7.630088e+002
2.262828e+002, 7.653306e+002
2.267649e+002, 7.668546e+002
2.272470e+002, 7.685648e+002
2.277291e+002, 7.708275e+002
2.282112e+002, 7.738332e+002
2.286934e+002, 7.759980e+002
2.291755e+002, 7.768867e+002
2.296576e+002, 7.773080e+002
2.301397e+002, 7.783320e+002
2.306218e+002, 7.803710e+002
2.311039e+002, 7.822903e+002
2.315861e+002, 7.837150e+002
2.320682e+002, 7.845611e+002
2.325503e+002, 7.858013e+002
2.330324e+002, 7.877776e+002
2.335145e+002, 7.898935e+002
2.339966e+002, 7.913401e+002
2.344788e+002, 7.915839e+002
2.349609e+002, 7.921365e+002
2.354430e+002, 7.934713e+002
2.359251e+002, 7.957261e+002
2.364072e+002, 7.978142e+002
2.368893e+002, 7.996628e+002
2.373715e+002, 8.013956e+002
2.378536e+002, 8.031816e+002
2.383357e+002, 8.051849e+002
2.388178e+002, 8.069413e+002
2.392999e+002, 8.082001e+002
2.397820e+002, 8.088070e+002
2.402642e+002, 8.099474e+002
2.407463e+002, 8.119542e+002
2.412284e+002, 8.141810e+002
2.417105e+002, 8.158484e+002
2.421926e+002, 8.168007e+002
2.426747e+002, 8.174250e+002
2.431569e+002, 8.176650e+002
2.436390e+002, 8.174149e+002
2.441211e+002, 8.176464e+002
2.446032e+002, 8.186232e+002
2.450853e+002, 8.198428e+002
2.455674e+002, 8.207141e+002
2.460496e+002, 8.210712e+002
2.465317e+002, 8.214175e+002
2.470138e+002, 8.219423e+002
2.474959e+002, 8.227040e+002
2.479780e+002, 8.230774e+002
2.484601e+002, 8.228163e+002
2.489423e+002, 8.224482e+002
2.494244e+002, 8.226237e+002
2.499065e+002, 8.237921e+002
2.503886e+002, 8.246429e+002
2.508707e+002, 8.247129e+002
2.513528e+002, 8.239434e+002
2.518350e+002, 8.239234e+002
2.523171e+002, 8.250354e+002
2.527992e+002, 8.264744e+002
2.532813e+002, 8.273817e+002
2.537634e+002, 8.274347e+002
2.542455e+002, 8.276064e+002
2.547277e+002, 8.281059e+002
2.552098e+002, 8.289308e+002
2.556919e+002, 8.296687e+002
2.561740e+002, 8.301467e+002
2.566561e+002, 8.307180e+002
2.571382e+002, 8.317719e+002
2.576204e+002, 8.335820e+002
2.581025e+002, 8.352077e+002
2.585846e+002, 8.364553e+002
2.590667e+002, 8.373401e+002
2.595488e+002, 8.381006e+002
2.600309e+002, 8.387932e+002
2.605131e+002, 8.392716e+002
2.609952e+002, 8.393900e+002
2.614773e+002, 8.391070e+002
2.619594e+002, 8.386141e+002
2.624415e+002, 8.379127e+002
2.629236e+002, 8.370230e+002
2.634058e+002, 8.361272e+002
2.638879e+002, 8.351464e+002
2.643700e+002, 8.342974e+002
2.648521e+002, 8.337702e+002
2.653342e+002, 8.336755e+002
2.658163e+002, 8.335535e+002
2.662985e+002, 8.333375e+002
2.667806e+002, 8.330399e+002
2.672627e+002, 8.327126e+002
2.677448e+002, 8.323177e+002
2.682269e+002, 8.319603e+002
2.687090e+002, 8.318188e+002
2.691912e+002, 8.320464e+002
2.696733e+002, 8.316586e+002
2.701554e+002, 8.300823e+002
2.706375e+002, 8.278898e+002
2.711196e+002, 8.277068e+002
2.716017e+002, 8.301152e+002
2.720839e+002, 8.328937e+002
2.725660e+002, 8.347305e+002
2.730481e+002, 8.356780e+002
2.735302e+002, 8.352829e+002
2.740123e+002, 8.329865e+002
2.744944e+002, 8.296528e+002
2.749766e+002, 8.278941e+002
2.754587e+002, 8.280219e+002
2.759408e+002, 8.285434e+002
2.764229e+002, 8.285126e+002
2.769050e+002, 8.278636e+002
2.773871e+002, 8.275735e+002
2.778693e+002, 8.277604e+002
2.783514e+002, 8.282972e+002
2.788335e+002, 8.290345e+002
2.793156e+002, 8.300647e+002
2.797977e+002, 8.308058e+002
2.802798e+002, 8.308804e+002
2.807620e+002, 8.302844e+002
2.812441e+002, 8.294277e+002
2.817262e+002, 8.281266e+002
2.822083e+002, 8.269173e+002
2.826904e+002, 8.269484e+002
2.831725e+002, 8.282961e+002
2.836547e+002, 8.296896e+002
2.841368e+002, 8.306164e+002
2.846189e+002, 8.310714e+002
2.851010e+002, 8.309490e+002
2.855831e+002, 8.300735e+002
2.860652e+002, 8.291044e+002
2.865474e+002, 8.292016e+002
2.870295e+002, 8.303400e+002
2.875116e+002, 8.312664e+002
2.879937e+002, 8.310862e+002
2.884758e+002, 8.301013e+002
2.889579e+002, 8.303139e+002
2.894401e+002, 8.319377e+002
2.899222e+002, 8.336779e+002
2.904043e+002, 8.335530e+002
2.908864e+002, 8.318406e+002
2.913685e+002, 8.307848e+002
2.918506e+002, 8.317509e+002
2.923328e+002, 8.339512e+002
2.928149e+002, 8.349358e+002
2.932970e+002, 8.346390e+002
2.937791e+002, 8.340051e+002
2.942612e+002, 8.339993e+002
2.947433e+002, 8.344841e+002
2.952255e+002, 8.349233e+002
2.957076e+002, 8.351610e+002
2.961897e+002, 8.352297e+002
2.966718e+002, 8.350750e+002
2.971539e+002, 8.347054e+002
2.976360e+002, 8.344678e+002
2.981182e+002, 8.348528e+002
2.986003e+002, 8.356047e+002
2.990824e+002, 8.360504e+002
2.995645e+002, 8.357853e+002
3.000466e+002, 8.353743e+002
3.005287e+002, 8.357624e+002
3.010109e+002, 8.368422e+002
3.014930e+002, 8.378690e+002
3.019751e+002, 8.383846e+002
3.024572e+002, 8.384691e+002
3.029393e+002, 8.381471e+002
3.034214e+002, 8.371667e+002
3.039036e+002, 8.362652e+002
3.043857e+002, 8.363184e+002
3.048678e+002, 8.371597e+002
3.053499e+002, 8.381770e+002
3.058320e+002, 8.390469e+002
3.063141e+002, 8.398670e+002
3.067963e+002, 8.407647e+002
3.072784e+002, 8.418212e+002
3.077605e+002, 8.428083e+002
3.082426e+002, 8.435499e+002
3.087247e+002, 8.440701e+002
3.092068e+002, 8.444327e+002
3.096890e+002, 8.444719e+002
3.101711e+002, 8.444572e+002
3.106532e+002, 8.446296e+002
3.111353e+002, 8.450273e+002
3.116174e+002, 8.454629e+002
3.120995e+002, 8.457341e+002
3.125817e+002, 8.459576e+002
3.130638e+002, 8.463305e+002
3.135459e+002, 8.469686e+002
3.140280e+002, 8.477580e+002
3.145101e+002, 8.486825e+002
3.149922e+002, 8.497533e+002
3.154744e+002, 8.508113e+002
3.159565e+002, 8.518456e+002
3.164386e+002, 8.528251e+002
3.169207e+002, 8.537008e+002
3.174028e+002, 8.549521e+002
3.178849e+002, 8.556900e+002
3.183671e+002, 8.552132e+002
3.188492e+002, 8.535996e+002
3.193313e+002, 8.524029e+002
3.198134e+002, 8.521511e+002
3.202955e+002, 8.525192e+002
3.207776e+002, 8.532440e+002
3.212598e+002, 8.548885e+002
3.217419e+002, 8.562059e+002
3.222240e+002, 8.567003e+002
3.227061e+002, 8.565229e+002
3.231882e+002, 8.565065e+002
3.236703e+002, 8.569435e+002
3.241525e+002, 8.574766e+002
3.246346e+002, 8.578962e+002
3.251167e+002, 8.578885e+002
3.255988e+002, 8.581667e+002
3.260809e+002, 8.589890e+002
3.265630e+002, 8.601672e+002
3.270452e+002, 8.611809e+002
3.275273e+002, 8.620895e+002
3.280094e+002, 8.627556e+002
3.284915e+002, 8.630506e+002
3.289736e+002, 8.625519e+002
3.294557e+002, 8.626494e+002
3.299379e+002, 8.640264e+002
3.304200e+002, 8.657841e+002
3.309021e+002, 8.663884e+002
3.313842e+002, 8.644784e+002
3.318663e+002, 8.632184e+002
3.323484e+002, 8.637465e+002
3.328306e+002, 8.664713e+002
3.333127e+002, 8.681314e+002
3.337948e+002, 8.682145e+002
3.342769e+002, 8.676808e+002
3.347590e+002, 8.675512e+002
3.352411e+002, 8.678768e+002
3.357233e+002, 8.685325e+002
3.362054e+002, 8.696731e+002
3.366875e+002, 8.712546e+002
3.371696e+002, 8.721441e+002
3.376517e+002, 8.719771e+002
3.381339e+002, 8.718513e+002
3.386160e+002, 8.729410e+002
3.390981e+002, 8.756975e+002
3.395802e+002, 8.773968e+002
3.400623e+002, 8.773214e+002
3.405444e+002, 8.760584e+002
3.410266e+002, 8.755424e+002
3.415087e+002, 8.758057e+002
3.419908e+002, 8.765417e+002
3.424729e+002, 8.778658e+002
3.429550e+002, 8.797477e+002
3.434371e+002, 8.807590e+002
3.439193e+002, 8.805803e+002
3.444014e+002, 8.798289e+002
3.448835e+002, 8.795443e+002
3.453656e+002, 8.797257e+002
3.458477e+002, 8.801473e+002
3.463298e+002, 8.808266e+002
3.468120e+002, 8.816978e+002
3.472941e+002, 8.824339e+002
3.477762e+002, 8.830469e+002
3.482583e+002, 8.835300e+002
3.487404e+002, 8.838321e+002
3.492225e+002, 8.839926e+002
3.497047e+002, 8.841437e+002
3.501868e+002, 8.842668e+002
3.506689e+002, 8.844441e+002
3.511510e+002, 8.848801e+002
3.516331e+002, 8.855639e+002
3.521152e+002, 8.862479e+002
3.525974e+002, 8.866364e+002
3.530795e+002, 8.868817e+002
3.535616e+002, 8.873068e+002
3.540437e+002, 8.881948e+002
3.545258e+002, 8.890380e+002
3.550079e+002, 8.891376e+002
3.554901e+002, 8.886679e+002
3.559722e+002, 8.884070e+002
3.564543e+002, 8.888406e+002
3.569364e+002, 8.897319e+002
3.574185e+002, 8.909758e+002
3.579006e+002, 8.928076e+002
3.583828e+002, 8.943033e+002
3.588649e+002, 8.946315e+002
3.593470e+002, 8.942217e+002
3.598291e+002, 8.939467e+002
3.603112e+002, 8.941058e+002
3.607933e+002, 8.945720e+002
3.612755e+002, 8.952960e+002
3.617576e+002, 8.962820e+002
3.622397e+002, 8.974127e+002
3.627218e+002, 8.989023e+002
3.632039e+002, 9.004110e+002
3.636860e+002, 9.015603e+002
3.641682e+002, 9.022197e+002
3.646503e+002, 9.025341e+002
3.651324e+002, 9.022021e+002
3.656145e+002, 9.012793e+002
3.660966e+002, 9.010765e+002
3.665787e+002, 9.024584e+002
3.670609e+002, 9.042260e+002
3.675430e+002, 9.056132e+002
3.680251e+002, 9.062427e+002
3.685072e+002, 9.068749e+002
3.689893e+002, 9.077305e+002
3.694714e+002, 9.086546e+002
3.699536e+002, 9.090660e+002
3.704357e+002, 9.083029e+002
3.709178e+002, 9.077309e+002
3.713999e+002, 9.078940e+002
3.718820e+002, 9.089701e+002
3.723641e+002, 9.103752e+002
3.728463e+002, 9.123958e+002
3.733284e+002, 9.145361e+002
3.738105e+002, 9.159060e+002
3.742926e+002, 9.159285e+002
3.747747e+002, 9.165208e+002
3.752568e+002, 9.186210e+002
3.757390e+002, 9.222607e+002
3.762211e+002, 9.241232e+002
3.767032e+002, 9.237267e+002
3.771853e+002, 9.225696e+002
3.776674e+002, 9.220420e+002
3.781495e+002, 9.221971e+002
3.786317e+002, 9.224599e+002
3.791138e+002, 9.226911e+002
3.795959e+002, 9.229770e+002
3.800780e+002, 9.237220e+002
3.805601e+002, 9.249791e+002
3.810422e+002, 9.261367e+002
3.815244e+002, 9.268367e+002
3.820065e+002, 9.271088e+002
3.824886e+002, 9.269420e+002
3.829707e+002, 9.262321e+002
3.834528e+002, 9.254301e+002
3.839349e+002, 9.250988e+002
3.844171e+002, 9.252248e+002
3.848992e+002, 9.256798e+002
3.853813e+002, 9.263069e+002
3.858634e+002, 9.272521e+002
3.863455e+002, 9.290460e+002
3.868276e+002, 9.317339e+002
3.873098e+002, 9.342302e+002
3.877919e+002, 9.355189e+002
3.882740e+002, 9.359819e+002
3.887561e+002, 9.362991e+002
3.892382e+002, 9.366254e+002
3.897203e+002, 9.369468e+002
3.902025e+002, 9.369719e+002
3.906846e+002, 9.368516e+002
3.911667e+002, 9.373478e+002
3.916488e+002, 9.400666e+002
3.921309e+002, 9.429259e+002
3.926130e+002, 9.440230e+002
3.930952e+002, 9.422612e+002
3.935773e+002, 9.403117e+002
3.940594e+002, 9.390624e+002
3.945415e+002, 9.384338e+002
3.950236e+002, 9.382740e+002
3.955057e+002, 9.390314e+002
3.959879e+002, 9.398370e+002
3.964700e+002, 9.403336e+002
3.969521e+002, 9.404559e+002
3.974342e+002, 9.405887e+002
3.979163e+002, 9.409705e+002
3.983984e+002, 9.413127e+002
3.988806e+002, 9.413509e+002
3.993627e+002, 9.410105e+002
3.998448e+002, 9.404145e+002
4.003269e+002, 9.391381e+002
4.008090e+002, 9.373998e+002
4.012911e+002, 9.369396e+002
4.017733e+002, 9.385126e+002
4.022554e+002, 9.404539e+002
4.027375e+002, 9.419071e+002
4.032196e+002, 9.426633e+002
4.037017e+002, 9.434713e+002
4.041838e+002, 9.443936e+002
4.046660e+002, 9.453311e+002
4.051481e+002, 9.462418e+002
4.056302e+002, 9.473710e+002
4.061123e+002, 9.475543e+002
4.065944e+002, 9.457546e+002
4.070765e+002, 9.421491e+002
4.075587e+002, 9.410942e+002
4.080408e+002, 9.430809e+002
4.085229e+002, 9.456850e+002
4.090050e+002, 9.460571e+002
4.094871e+002, 9.443867e+002
4.099692e+002, 9.436053e+002
4.104514e+002, 9.445782e+002
4.109335e+002, 9.465193e+002
4.114156e+002, 9.479894e+002
4.118977e+002, 9.489821e+002
4.123798e+002, 9.496230e+002
4.128619e+002, 9.497689e+002
4.133441e+002, 9.496573e+002
4.138262e+002, 9.498301e+002
4.143083e+002, 9.504288e+002
4.147904e+002, 9.509470e+002
4.152725e+002, 9.508945e+002
4.157546e+002, 9.504067e+002
4.162368e+002, 9.497541e+002
4.167189e+002, 9.487308e+002
4.172010e+002, 9.478397e+002
4.176831e+002, 9.474297e+002
4.181652e+002, 9.475107e+002
4.186473e+002, 9.480153e+002
4.191295e+002, 9.491592e+002
4.196116e+002, 9.505800e+002
4.200937e+002, 9.519920e+002
4.205758e+002, 9.538395e+002
4.210579e+002, 9.549408e+002
4.215400e+002, 9.544412e+002
4.220222e+002, 9.529163e+002
4.225043e+002, 9.517740e+002
4.229864e+002, 9.515266e+002
4.234685e+002, 9.515795e+002
4.239506e+002, 9.517532e+002
4.244327e+002, 9.520863e+002
4.249149e+002, 9.523969e+002
4.253970e+002, 9.523314e+002
4.258791e+002, 9.524303e+002
4.263612e+002, 9.532968e+002
4.268433e+002, 9.556995e+002
4.273254e+002, 9.576233e+002
4.278076e+002, 9.587516e+002
4.282897e+002, 9.591359e+002
4.287718e+002, 9.589761e+002
4.292539e+002, 9.578320e+002
4.297360e+002, 9.569926e+002
4.302181e+002, 9.575689e+002
4.307003e+002, 9.599465e+002
4.311824e+002, 9.609904e+002
4.316645e+002, 9.602781e+002
4.321466e+002, 9.586933e+002
4.326287e+002, 9.574670e+002
4.331108e+002, 9.566083e+002
4.335930e+002, 9.565878e+002
4.340751e+002, 9.581337e+002
4.345572e+002, 9.606070e+002
4.350393e+002, 9.616032e+002
4.355214e+002, 9.610931e+002
4.360035e+002, 9.605566e+002
4.364857e+002, 9.617111e+002
4.369678e+002, 9.638392e+002
4.374499e+002, 9.651563e+002
4.379320e+002, 9.650450e+002
4.384141e+002, 9.644388e+002
4.388962e+002, 9.640168e+002
4.393784e+002, 9.638725e+002
4.398605e+002, 9.642943e+002
4.403426e+002, 9.658134e+002
4.408247e+002, 9.677083e+002
4.413068e+002, 9.696285e+002
4.417889e+002, 9.715801e+002
4.422711e+002, 9.727673e+002
4.427532e+002, 9.720515e+002
4.432353e+002, 9.706535e+002
4.437174e+002, 9.698421e+002
4.441995e+002, 9.705076e+002
4.446816e+002, 9.712352e+002
4.451638e+002, 9.715799e+002
4.456459e+002, 9.716354e+002
4.461280e+002, 9.718660e+002
4.466101e+002, 9.728843e+002
4.470922e+002, 9.736409e+002
4.475743e+002, 9.735765e+002
4.480565e+002, 9.721622e+002
4.485386e+002, 9.712638e+002
4.490207e+002, 9.710580e+002
4.495028e+002, 9.712653e+002
4.499849e+002, 9.715777e+002
4.504670e+002, 9.721354e+002
4.509492e+002, 9.725033e+002
4.514313e+002, 9.725725e+002
4.519134e+002, 9.723814e+002
4.523955e+002, 9.721464e+002
4.528776e+002, 9.718939e+002
4.533597e+002, 9.715724e+002
4.538419e+002, 9.710607e+002
4.543240e+002, 9.703777e+002
4.548061e+002, 9.699842e+002
4.552882e+002, 9.699669e+002
4.557703e+002, 9.701308e+002
4.562524e+002, 9.701403e+002
4.567346e+002, 9.700343e+002
4.572167e+002, 9.700896e+002
4.576988e+002, 9.705993e+002
4.581809e+002, 9.712520e+002
4.586630e+002, 9.712927e+002
4.591451e+002, 9.707706e+002
4.596273e+002, 9.706173e+002
4.601094e+002, 9.720480e+002
4.605915e+002, 9.740844e+002
4.610736e+002, 9.754633e+002
4.615557e+002, 9.758430e+002
4.620378e+002, 9.757001e+002
4.625200e+002, 9.748536e+002
4.630021e+002, 9.737480e+002
4.634842e+002, 9.732618e+002
4.639663e+002, 9.745387e+002
4.644484e+002, 9.758366e+002
4.649305e+002, 9.761797e+002
4.654127e+002, 9.754623e+002
4.658948e+002, 9.750336e+002
4.663769e+002, 9.752857e+002
4.668590e+002, 9.758662e+002
4.673411e+002, 9.765237e+002
4.678232e+002, 9.775920e+002
4.683054e+002, 9.782881e+002
4.687875e+002, 9.784262e+002
4.692696e+002, 9.781950e+002
4.697517e+002, 9.779833e+002
4.702338e+002, 9.775016e+002
4.707159e+002, 9.775917e+002
4.711981e+002, 9.788457e+002
4.716802e+002, 9.813470e+002
4.721623e+002, 9.824139e+002
4.726444e+002, 9.814550e+002
4.731265e+002, 9.806227e+002
4.736086e+002, 9.828307e+002
4.740908e+002, 9.879962e+002
4.745729e+002, 9.911171e+002
4.750550e+002, 9.909366e+002
4.755371e+002, 9.888105e+002
4.760192e+002, 9.865650e+002
4.765013e+002, 9.843362e+002
4.769835e+002, 9.832839e+002
4.774656e+002, 9.852039e+002
4.779477e+002, 9.882842e+002
4.784298e+002, 9.892640e+002
4.789119e+002, 9.879484e+002
4.793940e+002, 9.865850e+002
4.798762e+002, 9.874164e+002
4.803583e+002, 9.891165e+002
4.808404e+002, 9.898798e+002
4.813225e+002, 9.884357e+002
4.818046e+002, 9.870004e+002
4.822867e+002, 9.869697e+002
4.827689e+002, 9.878687e+002
4.832510e+002, 9.884554e+002
4.837331e+002, 9.880510e+002
4.842152e+002, 9.875169e+002
4.846973e+002, 9.872926e+002
4.851794e+002, 9.875221e+002
4.856616e+002, 9.875206e+002
4.861437e+002, 9.867053e+002
4.866258e+002, 9.859600e+002
4.871079e+002, 9.860042e+002
4.875900e+002, 9.874880e+002
4.880721e+002, 9.885709e+002
4.885543e+002, 9.888727e+002
4.890364e+002, 9.887151e+002
4.895185e+002, 9.891415e+002
4.900006e+002, 9.903915e+002
4.904827e+002, 9.913742e+002
4.909648e+002, 9.913842e+002
4.914470e+002, 9.904902e+002
4.919291e+002, 9.903788e+002
4.924112e+002, 9.911725e+002
4.928933e+002, 9.921666e+002
4.933754e+002, 9.927526e+002
4.938575e+002, 9.929635e+002
4.943397e+002, 9.928685e+002
4.948218e+002, 9.924393e+002
4.953039e+002, 9.918344e+002
4.957860e+002, 9.909846e+002
4.962681e+002, 9.900841e+002
4.967502e+002, 9.897736e+002
4.972324e+002, 9.906743e+002
4.977145e+002, 9.921506e+002
4.981966e+002, 9.938187e+002
4.986787e+002, 9.956621e+002
4.991608e+002, 9.970668e+002
4.996429e+002, 9.973032e+002
5.001251e+002, 9.971599e+002
5.006072e+002, 9.973456e+002
5.010893e+002, 9.982448e+002
5.015714e+002, 9.991349e+002
5.020535e+002, 9.998661e+002
5.025356e+002, 1.000470e+003
5.030178e+002, 1.001034e+003
5.034999e+002, 1.001552e+003
5.039820e+002, 1.002065e+003
5.044641e+002, 1.002581e+003
5.049462e+002, 1.003108e+003
5.054283e+002, 1.003734e+003
5.059105e+002, 1.004608e+003
5.063926e+002, 1.005385e+003
5.068747e+002, 1.005677e+003
5.073568e+002, 1.005351e+003
5.078389e+002, 1.005567e+003
5.083210e+002, 1.006539e+003
5.088032e+002, 1.007910e+003
5.092853e+002, 1.009082e+003
5.097674e+002, 1.010062e+003
5.102495e+002, 1.011050e+003
5.107316e+002, 1.012196e+003
5.112137e+002, 1.013365e+003
5.116959e+002, 1.014236e+003
5.121780e+002, 1.014808e+003
5.126601e+002, 1.015349e+003
5.131422e+002, 1.015998e+003
5.136243e+002, 1.016737e+003
5.141064e+002, 1.017551e+003
5.145886e+002, 1.018438e+003
5.150707e+002, 1.019407e+003
5.155528e+002, 1.020599e+003
5.160349e+002, 1.021856e+003
5.165170e+002, 1.022971e+003
5.169991e+002, 1.024057e+003
5.174813e+002, 1.024841e+003
5.179634e+002, 1.024933e+003
5.184455e+002, 1.024491e+003
5.189276e+002, 1.024690e+003
5.194097e+002, 1.026626e+003
5.198918e+002, 1.028394e+003
5.203740e+002, 1.029112e+003
5.208561e+002, 1.028292e+003
5.213382e+002, 1.028057e+003
5.218203e+002, 1.028703e+003
5.223024e+002, 1.029554e+003
5.227845e+002, 1.029785e+003
5.232667e+002, 1.029260e+003
5.237488e+002, 1.028791e+003
5.242309e+002, 1.028607e+003
5.247130e+002, 1.028497e+003
5.251951e+002, 1.027798e+003
5.256772e+002, 1.026524e+003
5.261594e+002, 1.025424e+003
5.266415e+002, 1.025241e+003
5.271236e+002, 1.025479e+003
5.276057e+002, 1.024972e+003
5.280878e+002, 1.023691e+003
5.285699e+002, 1.022188e+003
5.290521e+002, 1.020498e+003
5.295342e+002, 1.019034e+003
5.300163e+002, 1.018479e+003
5.304984e+002, 1.019663e+003
5.309805e+002, 1.020606e+003
5.314626e+002, 1.019916e+003
5.319448e+002, 1.018232e+003
5.324269e+002, 1.016803e+003
5.329090e+002, 1.015656e+003
5.333911e+002, 1.015108e+003
5.338732e+002, 1.015514e+003
5.343553e+002, 1.016907e+003
5.348375e+002, 1.017853e+003
5.353196e+002, 1.018235e+003
5.358017e+002, 1.018205e+003
5.362838e+002, 1.017725e+003
5.367659e+002, 1.016376e+003
5.372480e+002, 1.015752e+003
5.377302e+002, 1.016085e+003
5.382123e+002, 1.016828e+003
5.386944e+002, 1.017325e+003
5.391765e+002, 1.017604e+003
5.396586e+002, 1.017264e+003
5.401407e+002, 1.015991e+003
5.406229e+002, 1.014242e+003
5.411050e+002, 1.013094e+003
5.415871e+002, 1.012532e+003
5.420692e+002, 1.012243e+003
5.425513e+002, 1.012031e+003
5.430334e+002, 1.012001e+003
5.435156e+002, 1.012435e+003
5.439977e+002, 1.013385e+003
5.444798e+002, 1.014238e+003
5.449619e+002, 1.014652e+003
5.454440e+002, 1.014693e+003
5.459261e+002, 1.014370e+003
5.464083e+002, 1.013016e+003
5.468904e+002, 1.012224e+003
5.473725e+002, 1.013147e+003
5.478546e+002, 1.014941e+003
5.483367e+002, 1.015846e+003
5.488188e+002, 1.014225e+003
5.493010e+002, 1.013112e+003
5.497831e+002, 1.013479e+003
5.502652e+002, 1.015288e+003
5.507473e+002, 1.016425e+003
5.512294e+002, 1.016641e+003
5.517115e+002, 1.016610e+003
5.521937e+002, 1.016714e+003
5.526758e+002, 1.016967e+003
5.531579e+002, 1.017476e+003
5.536400e+002, 1.018402e+003
5.541221e+002, 1.019217e+003
5.546042e+002, 1.019092e+003
5.550864e+002, 1.018159e+003
5.555685e+002, 1.017120e+003
5.560506e+002, 1.015872e+003
5.565327e+002, 1.015030e+003
5.570148e+002, 1.015920e+003
5.574969e+002, 1.018100e+003
5.579791e+002, 1.019935e+003
5.584612e+002, 1.020320e+003
5.589433e+002, 1.020056e+003
5.594254e+002, 1.019613e+003
5.599075e+002, 1.019014e+003
5.603896e+002, 1.018675e+003
5.608718e+002, 1.018978e+003
5.613539e+002, 1.019480e+003
5.618360e+002, 1.019855e+003
5.623181e+002, 1.019868e+003
5.628002e+002, 1.020081e+003
5.632823e+002, 1.020908e+003
5.637645e+002, 1.021818e+003
5.642466e+002, 1.021888e+003
5.647287e+002, 1.020584e+003
5.652108e+002, 1.019716e+003
5.656929e+002, 1.019853e+003
5.661750e+002, 1.020730e+003
5.666572e+002, 1.021084e+003
5.671393e+002, 1.020833e+003
5.676214e+002, 1.020593e+003
5.681035e+002, 1.020806e+003
5.685856e+002, 1.021327e+003
5.690677e+002, 1.021479e+003
5.695499e+002, 1.021190e+003
5.700320e+002, 1.021168e+003
5.705141e+002, 1.022556e+003
5.709962e+002, 1.024531e+003
5.714783e+002, 1.025674e+003
5.719604e+002, 1.025287e+003
5.724426e+002, 1.024748e+003
5.729247e+002, 1.025113e+003
5.734068e+002, 1.025920e+003
5.738889e+002, 1.026349e+003
5.743710e+002, 1.025744e+003
5.748531e+002, 1.025129e+003
5.753353e+002, 1.024763e+003
5.758174e+002, 1.024675e+003
5.762995e+002, 1.024989e+003
5.767816e+002, 1.026142e+003
5.772637e+002, 1.027184e+003
5.777458e+002, 1.027638e+003
5.782280e+002, 1.027336e+003
5.787101e+002, 1.027338e+003
5.791922e+002, 1.027711e+003
5.796743e+002, 1.028233e+003
5.801564e+002, 1.028750e+003
5.806385e+002, 1.029248e+003
5.811207e+002, 1.029386e+003
5.816028e+002, 1.028910e+003
5.820849e+002, 1.028484e+003
5.825670e+002, 1.029602e+003
5.830491e+002, 1.031702e+003
5.835313e+002, 1.033018e+003
5.840134e+002, 1.031482e+003
5.844955e+002, 1.029653e+003
5.849776e+002, 1.030026e+003
5.854597e+002, 1.032314e+003
5.859418e+002, 1.034805e+003
5.864240e+002, 1.037492e+003
5.869061e+002, 1.039519e+003
5.873882e+002, 1.040245e+003
5.878703e+002, 1.039217e+003
5.883524e+002, 1.038336e+003
5.888345e+002, 1.037719e+003
5.893167e+002, 1.037397e+003
5.897988e+002, 1.037460e+003
5.902809e+002, 1.038220e+003
5.907630e+002, 1.038625e+003
5.912451e+002, 1.038505e+003
5.917272e+002, 1.038099e+003
5.922094e+002, 1.037744e+003
5.926915e+002, 1.037419e+003
5.931736e+002, 1.037561e+003
5.936557e+002, 1.038526e+003
5.941378e+002, 1.039921e+003
5.946199e+002, 1.040822e+003
5.951021e+002, 1.041260e+003
5.955842e+002, 1.041528e+003
5.960663e+002, 1.041718e+003
5.965484e+002, 1.041891e+003
5.970305e+002, 1.042006e+003
5.975126e+002, 1.042047e+003
5.979948e+002, 1.042470e+003
5.984769e+002, 1.044119e+003
5.989590e+002, 1.045925e+003
5.994411e+002, 1.046943e+003
5.999232e+002, 1.046351e+003
6.004053e+002, 1.046027e+003
6.008875e+002, 1.046579e+003
6.013696e+002, 1.047440e+003
6.018517e+002, 1.047792e+003
6.023338e+002, 1.047333e+003
6.028159e+002, 1.046955e+003
6.032980e+002, 1.046753e+003
6.037802e+002, 1.046767e+003
6.042623e+002, 1.047251e+003
6.047444e+002, 1.048265e+003
6.052265e+002, 1.049165e+003
6.057086e+002, 1.049374e+003
6.061907e+002, 1.049187e+003
6.066729e+002, 1.049853e+003
6.071550e+002, 1.051337e+003
6.076371e+002, 1.052634e+003
6.081192e+002, 1.052761e+003
6.086013e+002, 1.052269e+003
6.090834e+002, 1.051803e+003
6.095656e+002, 1.051410e+003
6.100477e+002, 1.051305e+003
6.105298e+002, 1.051943e+003
6.110119e+002, 1.052813e+003
6.114940e+002, 1.053353e+003
6.119761e+002, 1.053365e+003
6.124583e+002, 1.053156e+003
6.129404e+002, 1.052499e+003
6.134225e+002, 1.051723e+003
6.139046e+002, 1.051569e+003
6.143867e+002, 1.052330e+003
6.148688e+002, 1.053166e+003
6.153510e+002, 1.053982e+003
6.158331e+002, 1.054685e+003
6.163152e+002, 1.054507e+003
6.167973e+002, 1.053322e+003
6.172794e+002, 1.052341e+003
6.177615e+002, 1.052598e+003
6.182437e+002, 1.053650e+003
6.187258e+002, 1.054165e+003
6.192079e+002, 1.054031e+003
6.196900e+002, 1.054068e+003
6.201721e+002, 1.055489e+003
6.206542e+002, 1.057271e+003
6.211364e+002, 1.058084e+003
6.216185e+002, 1.057334e+003
6.221006e+002, 1.056267e+003
6.225827e+002, 1.055066e+003
6.230648e+002, 1.054012e+003
6.235469e+002, 1.053499e+003
6.240291e+002, 1.054299e+003
6.245112e+002, 1.054868e+003
6.249933e+002, 1.055068e+003
6.254754e+002, 1.054921e+003
6.259575e+002, 1.054427e+003
6.264396e+002, 1.053523e+003
6.269218e+002, 1.052489e+003
6.274039e+002, 1.051209e+003
6.278860e+002, 1.049860e+003
6.283681e+002, 1.049678e+003
6.288502e+002, 1.050695e+003
6.293323e+002, 1.051940e+003
6.298145e+002, 1.052659e+003
6.302966e+002, 1.053089e+003
6.307787e+002, 1.053784e+003
6.312608e+002, 1.054819e+003
6.317429e+002, 1.055668e+003
6.322250e+002, 1.055804e+003
6.327072e+002, 1.055591e+003
6.331893e+002, 1.055430e+003
6.336714e+002, 1.055479e+003
6.341535e+002, 1.055457e+003
6.346356e+002, 1.055266e+003
6.351177e+002, 1.054957e+003
6.355999e+002, 1.054565e+003
6.360820e+002, 1.053485e+003
6.365641e+002, 1.053341e+003
6.370462e+002, 1.054709e+003
6.375283e+002, 1.057112e+003
6.380104e+002, 1.059321e+003
6.384926e+002, 1.061572e+003
6.389747e+002, 1.062212e+003
6.394568e+002, 1.059387e+003
6.399389e+002, 1.054576e+003
6.404210e+002, 1.053085e+003
6.409031e+002, 1.054766e+003
6.413853e+002, 1.057109e+003
6.418674e+002, 1.058828e+003
6.423495e+002, 1.059928e+003
6.428316e+002, 1.060228e+003
6.433137e+002, 1.059644e+003
6.437958e+002, 1.059015e+003
6.442780e+002, 1.058687e+003
6.447601e+002, 1.058527e+003
6.452422e+002, 1.058408e+003
6.457243e+002, 1.058027e+003
6.462064e+002, 1.058125e+003
6.466885e+002, 1.059020e+003
6.471707e+002, 1.060203e+003
6.476528e+002, 1.060913e+003
6.481349e+002, 1.060884e+003
6.486170e+002, 1.061279e+003
6.490991e+002, 1.062516e+003
6.495812e+002, 1.064083e+003
6.500634e+002, 1.064807e+003
6.505455e+002, 1.064727e+003
6.510276e+002, 1.064326e+003
6.515097e+002, 1.063498e+003
6.519918e+002, 1.062688e+003
6.524739e+002, 1.062547e+003
6.529561e+002, 1.063045e+003
6.534382e+002, 1.064005e+003
6.539203e+002, 1.066160e+003
6.544024e+002, 1.068100e+003
6.548845e+002, 1.068652e+003
6.553666e+002, 1.067564e+003
6.558488e+002, 1.066744e+003
6.563309e+002, 1.066843e+003
6.568130e+002, 1.067172e+003
6.572951e+002, 1.067288e+003
6.577772e+002, 1.066995e+003
6.582593e+002, 1.067036e+003
6.587415e+002, 1.067453e+003
6.592236e+002, 1.068145e+003
6.597057e+002, 1.069166e+003
6.601878e+002, 1.070498e+003
6.606699e+002, 1.071394e+003
6.611520e+002, 1.071652e+003
6.616342e+002, 1.071566e+003
6.621163e+002, 1.071338e+003
6.625984e+002, 1.071086e+003
6.630805e+002, 1.071138e+003
6.635626e+002, 1.071955e+003
6.640447e+002, 1.072769e+003
6.645269e+002, 1.073059e+003
6.650090e+002, 1.072907e+003
6.654911e+002, 1.072572e+003
6.659732e+002, 1.071311e+003
6.664553e+002, 1.070697e+003
6.669374e+002, 1.071906e+003
6.674196e+002, 1.074745e+003
6.679017e+002, 1.076042e+003
6.683838e+002, 1.075125e+003
6.688659e+002, 1.073985e+003
6.693480e+002, 1.073663e+003
6.698301e+002, 1.074149e+003
6.703123e+002, 1.074432e+003
6.707944e+002, 1.074516e+003
6.712765e+002, 1.074377e+003
6.717586e+002, 1.073521e+003
6.722407e+002, 1.072490e+003
6.727228e+002, 1.072683e+003
6.732050e+002, 1.074438e+003
6.736871e+002, 1.076368e+003
6.741692e+002, 1.077540e+003
6.746513e+002, 1.078253e+003
6.751334e+002, 1.078833e+003
6.756155e+002, 1.079222e+003
6.760977e+002, 1.079676e+003
6.765798e+002, 1.080316e+003
6.770619e+002, 1.081017e+003
6.775440e+002, 1.081589e+003
6.780261e+002, 1.081994e+003
6.785082e+002, 1.082374e+003
6.789904e+002, 1.082813e+003
6.794725e+002, 1.083228e+003
6.799546e+002, 1.083411e+003
6.804367e+002, 1.083372e+003
6.809188e+002, 1.083115e+003
6.814009e+002, 1.082369e+003
6.818831e+002, 1.081610e+003
6.823652e+002, 1.081884e+003
6.828473e+002, 1.083034e+003
6.833294e+002, 1.084239e+003
6.838115e+002, 1.085182e+003
6.842936e+002, 1.085884e+003
6.847758e+002, 1.086343e+003
6.852579e+002, 1.086554e+003
6.857400e+002, 1.086672e+003
6.862221e+002, 1.086307e+003
6.867042e+002, 1.086214e+003
6.871863e+002, 1.086779e+003
6.876685e+002, 1.088105e+003
6.881506e+002, 1.089681e+003
6.886327e+002, 1.091645e+003
6.891148e+002, 1.093599e+003
6.895969e+002, 1.095321e+003
6.900790e+002, 1.096785e+003
6.905612e+002, 1.097406e+003
6.910433e+002, 1.096985e+003
6.915254e+002, 1.096352e+003
6.920075e+002, 1.096766e+003
6.924896e+002, 1.097594e+003
6.929717e+002, 1.097579e+003
6.934539e+002, 1.095899e+003
6.939360e+002, 1.094255e+003
6.944181e+002, 1.093486e+003
6.949002e+002, 1.093438e+003
6.953823e+002, 1.093872e+003
6.958644e+002, 1.095544e+003
6.963466e+002, 1.096732e+003
6.968287e+002, 1.097048e+003
6.973108e+002, 1.096813e+003
6.977929e+002, 1.096884e+003
6.982750e+002, 1.097462e+003
6.987571e+002, 1.097672e+003
6.992393e+002, 1.097011e+003
6.997214e+002, 1.095939e+003
7.002035e+002, 1.095997e+003
7.006856e+002, 1.097068e+003
7.011677e+002, 1.098090e+003
7.016498e+002, 1.098187e+003
7.021320e+002, 1.098052e+003
7.026141e+002, 1.098572e+003
7.030962e+002, 1.099676e+003
7.035783e+002, 1.100631e+003
7.040604e+002, 1.101002e+003
7.045425e+002, 1.101172e+003
7.050247e+002, 1.101204e+003
7.055068e+002, 1.100958e+003
7.059889e+002, 1.101437e+003
7.064710e+002, 1.103307e+003
7.069531e+002, 1.105010e+003
7.074352e+002, 1.105389e+003
7.079174e+002, 1.104300e+003
7.083995e+002, 1.103545e+003
7.088816e+002, 1.103175e+003
7.093637e+002, 1.103082e+003
7.098458e+002, 1.103159e+003
7.103279e+002, 1.103441e+003
7.108101e+002, 1.104185e+003
7.112922e+002, 1.105647e+003
7.117743e+002, 1.106672e+003
7.122564e+002, 1.105875e+003
7.127385e+002, 1.104373e+003
7.132206e+002, 1.103496e+003
7.137028e+002, 1.103990e+003
7.141849e+002, 1.104620e+003
7.146670e+002, 1.105047e+003
7.151491e+002, 1.105546e+003
7.156312e+002, 1.106647e+003
7.161133e+002, 1.108868e+003
7.165955e+002, 1.110125e+003
7.170776e+002, 1.109783e+003
7.175597e+002, 1.108586e+003
7.180418e+002, 1.107955e+003
7.185239e+002, 1.107871e+003
7.190060e+002, 1.108318e+003
7.194882e+002, 1.109576e+003
7.199703e+002, 1.111006e+003
7.204524e+002, 1.111715e+003
7.209345e+002, 1.111914e+003
7.214166e+002, 1.112290e+003
7.218987e+002, 1.113479e+003
7.223809e+002, 1.114597e+003
7.228630e+002, 1.115104e+003
7.233451e+002, 1.115073e+003
7.238272e+002, 1.115245e+003
7.243093e+002, 1.115784e+003
7.247914e+002, 1.116367e+003
7.252736e+002, 1.117030e+003
7.257557e+002, 1.117723e+003
7.262378e+002, 1.117353e+003
7.267199e+002, 1.115738e+003
7.272020e+002, 1.114725e+003
7.276841e+002, 1.116432e+003
7.281663e+002, 1.119425e+003
7.286484e+002, 1.120188e+003
7.291305e+002, 1.118689e+003
7.296126e+002, 1.117138e+003
7.300947e+002, 1.116819e+003
7.305768e+002, 1.117204e+003
7.310590e+002, 1.118056e+003
7.315411e+002, 1.119514e+003
7.320232e+002, 1.120450e+003
7.325053e+002, 1.119700e+003
7.329874e+002, 1.119120e+003
7.334695e+002, 1.120072e+003
7.339517e+002, 1.123409e+003
7.344338e+002, 1.125026e+003
7.349159e+002, 1.124553e+003
7.353980e+002, 1.123411e+003
7.358801e+002, 1.122628e+003
7.363622e+002, 1.122395e+003
7.368444e+002, 1.124019e+003
7.373265e+002, 1.128162e+003
7.378086e+002, 1.131853e+003
7.382907e+002, 1.131918e+003
7.387728e+002, 1.129994e+003
7.392549e+002, 1.128155e+003
7.397371e+002, 1.126896e+003
7.402192e+002, 1.125912e+003
7.407013e+002, 1.124630e+003
7.411834e+002, 1.123829e+003
7.416655e+002, 1.124693e+003
7.421476e+002, 1.128593e+003
7.426298e+002, 1.130707e+003
7.431119e+002, 1.129941e+003
7.435940e+002, 1.127789e+003
7.440761e+002, 1.126722e+003
7.445582e+002, 1.126696e+003
7.450403e+002, 1.127419e+003
7.455225e+002, 1.129007e+003
7.460046e+002, 1.130909e+003
7.464867e+002, 1.132718e+003
7.469688e+002, 1.134296e+003
7.474509e+002, 1.135340e+003
7.479330e+002, 1.135478e+003
7.484152e+002, 1.135314e+003
7.488973e+002, 1.134981e+003
7.493794e+002, 1.134532e+003
7.498615e+002, 1.134102e+003
7.503436e+002, 1.133537e+003
7.508257e+002, 1.133357e+003
7.513079e+002, 1.133911e+003
7.517900e+002, 1.134891e+003
7.522721e+002, 1.135030e+003
7.527542e+002, 1.134343e+003
7.532363e+002, 1.133695e+003
7.537184e+002, 1.133323e+003
7.542006e+002, 1.133380e+003
7.546827e+002, 1.134503e+003
7.551648e+002, 1.136392e+003
7.556469e+002, 1.137748e+003
7.561290e+002, 1.137443e+003
7.566111e+002, 1.136854e+003
7.570933e+002, 1.136728e+003
7.575754e+002, 1.137065e+003
7.580575e+002, 1.137178e+003
7.585396e+002, 1.136700e+003
7.590217e+002, 1.136472e+003
7.595038e+002, 1.136943e+003
7.599860e+002, 1.138008e+003
7.604681e+002, 1.138445e+003
7.609502e+002, 1.138186e+003
7.614323e+002, 1.138036e+003
7.619144e+002, 1.138670e+003
7.623965e+002, 1.139719e+003
7.628787e+002, 1.140571e+003
7.633608e+002, 1.141200e+003
7.638429e+002, 1.141652e+003
7.643250e+002, 1.141514e+003
7.648071e+002, 1.141539e+003
7.652892e+002, 1.142432e+003
7.657714e+002, 1.144436e+003
7.662535e+002, 1.145826e+003
7.667356e+002, 1.146306e+003
7.672177e+002, 1.146446e+003
7.676998e+002, 1.146409e+003
7.681819e+002, 1.146152e+003
7.686641e+002, 1.146850e+003
7.691462e+002, 1.148687e+003
7.696283e+002, 1.150060e+003
7.701104e+002, 1.148720e+003
7.705925e+002, 1.146210e+003
7.710746e+002, 1.145736e+003
7.715568e+002, 1.147658e+003
7.720389e+002, 1.149774e+003
7.725210e+002, 1.150907e+003
7.730031e+002, 1.151530e+003
7.734852e+002, 1.151985e+003
7.739673e+002, 1.152263e+003
7.744495e+002, 1.152488e+003
7.749316e+002, 1.152703e+003
7.754137e+002, 1.152796e+003
7.758958e+002, 1.152606e+003
7.763779e+002, 1.152089e+003
7.768600e+002, 1.151778e+003
7.773422e+002, 1.151657e+003
7.778243e+002, 1.151967e+003
7.783064e+002, 1.153283e+003
7.787885e+002, 1.155134e+003
7.792706e+002, 1.156794e+003
7.797527e+002, 1.158249e+003
7.802349e+002, 1.158851e+003
7.807170e+002, 1.157406e+003
7.811991e+002, 1.155421e+003
7.816812e+002, 1.154242e+003
7.821633e+002, 1.154556e+003
7.826454e+002, 1.154826e+003
7.831276e+002, 1.155183e+003
7.836097e+002, 1.155347e+003
7.840918e+002, 1.154656e+003
7.845739e+002, 1.153068e+003
7.850560e+002, 1.153247e+003
7.855381e+002, 1.155726e+003
7.860203e+002, 1.158458e+003
7.865024e+002, 1.159027e+003
7.869845e+002, 1.158306e+003
7.874666e+002, 1.157773e+003
7.879487e+002, 1.157732e+003
7.884308e+002, 1.157945e+003
7.889130e+002, 1.158262e+003
7.893951e+002, 1.158772e+003
7.898772e+002, 1.159599e+003
7.903593e+002, 1.161112e+003
7.908414e+002, 1.162183e+003
7.913235e+002, 1.162527e+003
7.918057e+002, 1.162769e+003
7.922878e+002, 1.163834e+003
7.927699e+002, 1.165642e+003
7.932520e+002, 1.166711e+003
7.937341e+002, 1.166701e+003
7.942162e+002, 1.166516e+003
7.946984e+002, 1.167182e+003
7.951805e+002, 1.168322e+003
7.956626e+002, 1.169413e+003
7.961447e+002, 1.170591e+003
7.966268e+002, 1.171147e+003
7.971089e+002, 1.170381e+003
7.975911e+002, 1.169114e+003
7.980732e+002, 1.168272e+003
7.985553e+002, 1.168047e+003
7.990374e+002, 1.167866e+003
7.995195e+002, 1.167721e+003
8.000016e+002, 1.167609e+003
8.004838e+002, 1.167483e+003
8.009659e+002, 1.167376e+003
8.014480e+002, 1.167428e+003
8.019301e+002, 1.167679e+003
8.024122e+002, 1.168083e+003
8.028943e+002, 1.168721e+003
8.033765e+002, 1.169436e+003
8.038586e+002, 1.169982e+003
8.043407e+002, 1.169943e+003
8.048228e+002, 1.170366e+003
8.053049e+002, 1.172075e+003
8.057870e+002, 1.173973e+003
8.062692e+002, 1.174829e+003
8.067513e+002, 1.174164e+003
8.072334e+002, 1.174392e+003
8.077155e+002, 1.175897e+003
8.081976e+002, 1.177762e+003
8.086797e+002, 1.179254e+003
8.091619e+002, 1.180129e+003
8.096440e+002, 1.179284e+003
8.101261e+002, 1.175866e+003
8.106082e+002, 1.173103e+003
8.110903e+002, 1.174150e+003
8.115724e+002, 1.176804e+003
8.120546e+002, 1.178652e+003
8.125367e+002, 1.178416e+003
8.130188e+002, 1.178764e+003
8.135009e+002, 1.180292e+003
8.139830e+002, 1.182017e+003
8.144651e+002, 1.182807e+003
8.149473e+002, 1.182623e+003
8.154294e+002, 1.182427e+003
8.159115e+002, 1.182279e+003
8.163936e+002, 1.182385e+003
8.168757e+002, 1.183396e+003
8.173578e+002, 1.184716e+003
8.178400e+002, 1.185118e+003
8.183221e+002, 1.183924e+003
8.188042e+002, 1.183240e+003
8.192863e+002, 1.184213e+003
8.197684e+002, 1.186052e+003
8.202505e+002, 1.188114e+003
8.207327e+002, 1.190906e+003
8.212148e+002, 1.192505e+003
8.216969e+002, 1.192627e+003
8.221790e+002, 1.191997e+003
8.226611e+002, 1.190916e+003
8.231432e+002, 1.189587e+003
8.236254e+002, 1.189790e+003
8.241075e+002, 1.191871e+003
8.245896e+002, 1.193955e+003
8.250717e+002, 1.194148e+003
8.255538e+002, 1.193470e+003
8.260359e+002, 1.193045e+003
8.265181e+002, 1.193130e+003
8.270002e+002, 1.193357e+003
8.274823e+002, 1.193851e+003
8.279644e+002, 1.194351e+003
8.284465e+002, 1.194758e+003
8.289286e+002, 1.195172e+003
8.294108e+002, 1.195077e+003
8.298929e+002, 1.194408e+003
8.303750e+002, 1.193647e+003
8.308571e+002, 1.192993e+003
8.313392e+002, 1.192647e+003
8.318214e+002, 1.193266e+003
8.323035e+002, 1.194949e+003
8.327856e+002, 1.196424e+003
8.332677e+002, 1.196604e+003
8.337498e+002, 1.196435e+003
8.342319e+002, 1.196642e+003
8.347141e+002, 1.197419e+003
8.351962e+002, 1.197938e+003
8.356783e+002, 1.197996e+003
8.361604e+002, 1.198066e+003
8.366425e+002, 1.198408e+003
8.371246e+002, 1.199011e+003
8.376068e+002, 1.199888e+003
8.380889e+002, 1.201036e+003
8.385710e+002, 1.202252e+003
8.390531e+002, 1.203408e+003
8.395352e+002, 1.204543e+003
8.400173e+002, 1.205885e+003
8.404995e+002, 1.207442e+003
8.409816e+002, 1.208354e+003
8.414637e+002, 1.207459e+003
8.419458e+002, 1.206726e+003
8.424279e+002, 1.207143e+003
8.429100e+002, 1.208678e+003
8.433922e+002, 1.209707e+003
8.438743e+002, 1.210142e+003
8.443564e+002, 1.210490e+003
8.448385e+002, 1.211014e+003
8.453206e+002, 1.211667e+003
8.458027e+002, 1.212555e+003
8.462849e+002, 1.213562e+003
8.467670e+002, 1.214037e+003
8.472491e+002, 1.212716e+003
8.477312e+002, 1.211600e+003
8.482133e+002, 1.212120e+003
8.486954e+002, 1.214128e+003
8.491776e+002, 1.215552e+003
8.496597e+002, 1.216179e+003
8.501418e+002, 1.216618e+003
8.506239e+002, 1.217017e+003
8.511060e+002, 1.217427e+003
8.515881e+002, 1.218191e+003
8.520703e+002, 1.219220e+003
8.525524e+002, 1.219696e+003
8.530345e+002, 1.218606e+003
8.535166e+002, 1.217328e+003
8.539987e+002, 1.216911e+003
8.544808e+002, 1.217280e+003
8.549630e+002, 1.218273e+003
8.554451e+002, 1.220973e+003
8.559272e+002, 1.222801e+003
8.564093e+002, 1.222808e+003
8.568914e+002, 1.221821e+003
8.573735e+002, 1.221754e+003
8.578557e+002, 1.222659e+003
8.583378e+002, 1.223834e+003
8.588199e+002, 1.225245e+003
8.593020e+002, 1.226549e+003
8.597841e+002, 1.227102e+003
8.602662e+002, 1.227182e+003
8.607484e+002, 1.227345e+003
8.612305e+002, 1.227833e+003
8.617126e+002, 1.228390e+003
8.621947e+002, 1.229226e+003
8.626768e+002, 1.229951e+003
8.631589e+002, 1.229930e+003
8.636411e+002, 1.228620e+003
8.641232e+002, 1.228188e+003
8.646053e+002, 1.228994e+003
8.650874e+002, 1.230308e+003
8.655695e+002, 1.231280e+003
8.660516e+002, 1.231967e+003
8.665338e+002, 1.232632e+003
8.670159e+002, 1.233395e+003
8.674980e+002, 1.233775e+003
8.679801e+002, 1.232754e+003
8.684622e+002, 1.231577e+003
8.689443e+002, 1.231539e+003
8.694265e+002, 1.233601e+003
8.699086e+002, 1.234960e+003
8.703907e+002, 1.235380e+003
8.708728e+002, 1.235463e+003
8.713549e+002, 1.235702e+003
8.718370e+002, 1.236070e+003
8.723192e+002, 1.236113e+003
8.728013e+002, 1.235802e+003
8.732834e+002, 1.235639e+003
8.737655e+002, 1.236083e+003
8.742476e+002, 1.236837e+003
8.747297e+002, 1.237819e+003
8.752119e+002, 1.239034e+003
8.756940e+002, 1.239517e+003
8.761761e+002, 1.238025e+003
8.766582e+002, 1.236799e+003
8.771403e+002, 1.236876e+003
8.776224e+002, 1.238123e+003
8.781046e+002, 1.238661e+003
8.785867e+002, 1.238457e+003
8.790688e+002, 1.238340e+003
8.795509e+002, 1.238968e+003
8.800330e+002, 1.239903e+003
8.805151e+002, 1.240943e+003
8.809973e+002, 1.241844e+003
8.814794e+002, 1.241653e+003
8.819615e+002, 1.237822e+003
8.824436e+002, 1.235186e+003
8.829257e+002, 1.236552e+003
8.834078e+002, 1.240360e+003
8.838900e+002, 1.242230e+003
8.843721e+002, 1.241830e+003
8.848542e+002, 1.241175e+003
8.853363e+002, 1.240714e+003
8.858184e+002, 1.240490e+003
8.863005e+002, 1.240614e+003
8.867827e+002, 1.241031e+003
8.872648e+002, 1.241623e+003
8.877469e+002, 1.242342e+003
8.882290e+002, 1.243200e+003
8.887111e+002, 1.244624e+003
8.891932e+002, 1.246004e+003
8.896754e+002, 1.246404e+003
8.901575e+002, 1.245308e+003
8.906396e+002, 1.244631e+003
8.911217e+002, 1.244675e+003
8.916038e+002, 1.244820e+003
8.920859e+002, 1.243719e+003
8.925681e+002, 1.242085e+003
8.930502e+002, 1.242474e+003
8.935323e+002, 1.245581e+003
8.940144e+002, 1.248559e+003
8.944965e+002, 1.249353e+003
8.949786e+002, 1.249185e+003
8.954608e+002, 1.248933e+003
8.959429e+002, 1.248470e+003
8.964250e+002, 1.248969e+003
8.969071e+002, 1.250955e+003
8.973892e+002, 1.252821e+003
8.978713e+002, 1.253390e+003
8.983535e+002, 1.252846e+003
8.988356e+002, 1.251958e+003
8.993177e+002, 1.250795e+003
8.997998e+002, 1.250225e+003
9.002819e+002, 1.251306e+003
9.007640e+002, 1.252816e+003
9.012462e+002, 1.253946e+003
9.017283e+002, 1.254663e+003
9.022104e+002, 1.255191e+003
9.026925e+002, 1.255707e+003
9.031746e+002, 1.255786e+003
9.036567e+002, 1.255119e+003
9.041389e+002, 1.254039e+003
9.046210e+002, 1.253591e+003
9.051031e+002, 1.253734e+003
9.055852e+002, 1.254058e+003
9.060673e+002, 1.254298e+003
9.065494e+002, 1.254777e+003
9.070316e+002, 1.256312e+003
9.075137e+002, 1.258163e+003
9.079958e+002, 1.259045e+003
9.084779e+002, 1.257539e+003
9.089600e+002, 1.256480e+003
9.094421e+002, 1.256142e+003
9.099243e+002, 1.256315e+003
9.104064e+002, 1.256823e+003
9.108885e+002, 1.257644e+003
9.113706e+002, 1.258398e+003
9.118527e+002, 1.259011e+003
9.123348e+002, 1.259693e+003
9.128170e+002, 1.260942e+003
9.132991e+002, 1.262223e+003
9.137812e+002, 1.262893e+003
9.142633e+002, 1.262733e+003
9.147454e+002, 1.262463e+003
9.152275e+002, 1.261937e+003
9.157097e+002, 1.261664e+003
9.161918e+002, 1.262124e+003
9.166739e+002, 1.263298e+003
9.171560e+002, 1.263507e+003
9.176381e+002, 1.262737e+003
9.181202e+002, 1.262251e+003
9.186024e+002, 1.263322e+003
9.190845e+002, 1.264856e+003
9.195666e+002, 1.265776e+003
9.200487e+002, 1.266079e+003
9.205308e+002, 1.266072e+003
9.210129e+002, 1.265051e+003
9.214951e+002, 1.264676e+003
9.219772e+002, 1.265477e+003
9.224593e+002, 1.267133e+003
9.229414e+002, 1.268974e+003
9.234235e+002, 1.270957e+003
9.239056e+002, 1.272095e+003
9.243878e+002, 1.271802e+003
9.248699e+002, 1.271028e+003
9.253520e+002, 1.270882e+003
9.258341e+002, 1.270987e+003
9.263162e+002, 1.270738e+003
9.267983e+002, 1.269625e+003
9.272805e+002, 1.268657e+003
9.277626e+002, 1.267634e+003
9.282447e+002, 1.267130e+003
9.287268e+002, 1.268126e+003
9.292089e+002, 1.270655e+003
9.296910e+002, 1.271960e+003
9.301732e+002, 1.271785e+003
9.306553e+002, 1.271247e+003
9.311374e+002, 1.270900e+003
9.316195e+002, 1.271026e+003
9.321016e+002, 1.272225e+003
9.325837e+002, 1.274601e+003
9.330659e+002, 1.276425e+003
9.335480e+002, 1.277374e+003
9.340301e+002, 1.277476e+003
9.345122e+002, 1.276217e+003
9.349943e+002, 1.273978e+003
9.354764e+002, 1.273871e+003
9.359586e+002, 1.275817e+003
9.364407e+002, 1.277666e+003
9.369228e+002, 1.278012e+003
9.374049e+002, 1.278041e+003
9.378870e+002, 1.279353e+003
9.383691e+002, 1.281294e+003
9.388513e+002, 1.282326e+003
9.393334e+002, 1.281027e+003
9.398155e+002, 1.280173e+003
9.402976e+002, 1.280196e+003
9.407797e+002, 1.280825e+003
9.412618e+002, 1.281960e+003
9.417440e+002, 1.283528e+003
9.422261e+002, 1.284047e+003
9.427082e+002, 1.283129e+003
9.431903e+002, 1.282054e+003
9.436724e+002, 1.282106e+003
9.441545e+002, 1.282614e+003
9.446367e+002, 1.282723e+003
9.451188e+002, 1.281933e+003
9.456009e+002, 1.282254e+003
9.460830e+002, 1.284419e+003
9.465651e+002, 1.286646e+003
9.470472e+002, 1.287930e+003
9.475294e+002, 1.288323e+003
9.480115e+002, 1.288194e+003
9.484936e+002, 1.287571e+003
9.489757e+002, 1.286898e+003
9.494578e+002, 1.286720e+003
9.499399e+002, 1.286390e+003
9.504221e+002, 1.285117e+003
9.509042e+002, 1.283245e+003
9.513863e+002, 1.282120e+003
9.518684e+002, 1.282134e+003
9.523505e+002, 1.282587e+003
9.528326e+002, 1.283727e+003
9.533148e+002, 1.284855e+003
9.537969e+002, 1.284309e+003
9.542790e+002, 1.282508e+003
9.547611e+002, 1.281218e+003
9.552432e+002, 1.280998e+003
9.557253e+002, 1.280970e+003
9.562075e+002, 1.279527e+003
9.566896e+002, 1.278516e+003
9.571717e+002, 1.280201e+003
9.576538e+002, 1.286297e+003
9.581359e+002, 1.289764e+003
9.586180e+002, 1.289943e+003
9.591002e+002, 1.289037e+003
9.595823e+002, 1.288074e+003
9.600644e+002, 1.287358e+003
9.605465e+002, 1.288199e+003
9.610286e+002, 1.290422e+003
9.615107e+002, 1.292559e+003
9.619929e+002, 1.294278e+003
9.624750e+002, 1.295217e+003
9.629571e+002, 1.294362e+003
9.634392e+002, 1.292536e+003
9.639213e+002, 1.292848e+003
9.644034e+002, 1.295961e+003
9.648856e+002, 1.298665e+003
9.653677e+002, 1.300363e+003
9.658498e+002, 1.300925e+003
9.663319e+002, 1.298834e+003
9.668140e+002, 1.295705e+003
9.672961e+002, 1.295288e+003
9.677783e+002, 1.299877e+003
9.682604e+002, 1.303694e+003
9.687425e+002, 1.303637e+003
9.692246e+002, 1.302648e+003
9.697067e+002, 1.303264e+003
9.701888e+002, 1.305921e+003
9.706710e+002, 1.306528e+003
9.711531e+002, 1.304819e+003
9.716352e+002, 1.303495e+003
9.721173e+002, 1.305413e+003
9.725994e+002, 1.308447e+003
9.730815e+002, 1.309964e+003
9.735637e+002, 1.309994e+003
9.740458e+002, 1.309461e+003
9.745279e+002, 1.307824e+003
9.750100e+002, 1.306707e+003
9.754921e+002, 1.306672e+003
9.759742e+002, 1.307307e+003
9.764564e+002, 1.307561e+003
9.769385e+002, 1.307478e+003
9.774206e+002, 1.307531e+003
9.779027e+002, 1.307820e+003
9.783848e+002, 1.308451e+003
9.788669e+002, 1.310099e+003
9.793491e+002, 1.311912e+003
9.798312e+002, 1.312831e+003
9.803133e+002, 1.312342e+003
9.807954e+002, 1.311692e+003
9.812775e+002, 1.310504e+003
9.817596e+002, 1.309887e+003
9.822418e+002, 1.311133e+003
9.827239e+002, 1.313696e+003
9.832060e+002, 1.314339e+003
9.836881e+002, 1.313271e+003
9.841702e+002, 1.312653e+003
9.846523e+002, 1.314298e+003
9.851345e+002, 1.316282e+003
9.856166e+002, 1.317615e+003
9.860987e+002, 1.318305e+003
9.865808e+002, 1.318610e+003
9.870629e+002, 1.318313e+003
9.875450e+002, 1.318358e+003
9.880272e+002, 1.319022e+003
9.885093e+002, 1.319917e+003
9.889914e+002, 1.320753e+003
9.894735e+002, 1.321326e+003
9.899556e+002, 1.320946e+003
9.904377e+002, 1.319089e+003
9.909199e+002, 1.317989e+003
9.914020e+002, 1.319508e+003
9.918841e+002, 1.321321e+003
9.923662e+002, 1.321570e+003
9.928483e+002, 1.320156e+003
9.933304e+002, 1.321172e+003
9.938126e+002, 1.324792e+003
9.942947e+002, 1.327814e+003
9.947768e+002, 1.327494e+003
9.952589e+002, 1.325988e+003
9.957410e+002, 1.325797e+003
9.962231e+002, 1.326574e+003
9.967053e+002, 1.327268e+003
9.971874e+002, 1.327267e+003
9.976695e+002, 1.327572e+003
9.981516e+002, 1.328395e+003
9.986337e+002, 1.329466e+003
9.991158e+002, 1.330579e+003
9.995980e+002, 1.331649e+003
1.000080e+003, 1.331830e+003
1.000562e+003, 1.330872e+003
1.001044e+003, 1.330267e+003
1.001526e+003, 1.332080e+003
1.002009e+003, 1.334082e+003
1.002491e+003, 1.334199e+003
1.002973e+003, 1.332056e+003
1.003455e+003, 1.330416e+003
1.003937e+003, 1.329195e+003
1.004419e+003, 1.328821e+003
1.004901e+003, 1.329733e+003
1.005383e+003, 1.331411e+003
1.005865e+003, 1.332994e+003
1.006348e+003, 1.334396e+003
1.006830e+003, 1.335412e+003
1.007312e+003, 1.335533e+003
1.007794e+003, 1.335733e+003
1.008276e+003, 1.336041e+003
1.008758e+003, 1.336736e+003
1.009240e+003, 1.338393e+003
1.009722e+003, 1.341173e+003
1.010205e+003, 1.342977e+003
1.010687e+003, 1.343643e+003
1.011169e+003, 1.343714e+003
1.011651e+003, 1.343229e+003
1.012133e+003, 1.342726e+003
1.012615e+003, 1.342932e+003
1.013097e+003, 1.343846e+003
1.013579e+003, 1.344450e+003
1.014061e+003, 1.344560e+003
1.014544e+003, 1.344349e+003
1.015026e+003, 1.343599e+003
1.015508e+003, 1.342819e+003
1.015990e+003, 1.343609e+003
1.016472e+003, 1.345544e+003
1.016954e+003, 1.346809e+003
1.017436e+003, 1.346563e+003
1.017918e+003, 1.346278e+003
1.018401e+003, 1.347083e+003
1.018883e+003, 1.348172e+003
1.019365e+003, 1.348731e+003
1.019847e+003, 1.348641e+003
1.020329e+003, 1.348584e+003
1.020811e+003, 1.348591e+003
1.021293e+003, 1.348523e+003
1.021775e+003, 1.347945e+003
1.022257e+003, 1.347424e+003
1.022740e+003, 1.348406e+003
1.023222e+003, 1.350340e+003
1.023704e+003, 1.351115e+003
1.024186e+003, 1.348278e+003
1.024668e+003, 1.346388e+003
1.025150e+003, 1.346548e+003
1.025632e+003, 1.347920e+003
1.026114e+003, 1.349270e+003
1.026596e+003, 1.350572e+003
1.027079e+003, 1.351936e+003
1.027561e+003, 1.353415e+003
1.028043e+003, 1.354603e+003
1.028525e+003, 1.355399e+003
1.029007e+003, 1.355600e+003
1.029489e+003, 1.354726e+003
1.029971e+003, 1.352678e+003
1.030453e+003, 1.351558e+003
1.030936e+003, 1.351616e+003
1.031418e+003, 1.351808e+003
1.031900e+003, 1.351646e+003
1.032382e+003, 1.351400e+003
1.032864e+003, 1.351577e+003
1.033346e+003, 1.352096e+003
1.033828e+003, 1.352794e+003
1.034310e+003, 1.354099e+003
1.034792e+003, 1.354796e+003
1.035275e+003, 1.353788e+003
1.035757e+003, 1.352774e+003
1.036239e+003, 1.353639e+003
1.036721e+003, 1.356383e+003
1.037203e+003, 1.357345e+003
1.037685e+003, 1.356418e+003
1.038167e+003, 1.355256e+003
1.038649e+003, 1.354892e+003
1.039132e+003, 1.354965e+003
1.039614e+003, 1.355313e+003
1.040096e+003, 1.355872e+003
1.040578e+003, 1.356320e+003
1.041060e+003, 1.356359e+003
1.041542e+003, 1.357091e+003
1.042024e+003, 1.358972e+003
1.042506e+003, 1.361031e+003
1.042989e+003, 1.361703e+003
1.043471e+003, 1.361477e+003
1.043953e+003, 1.361271e+003
1.044435e+003, 1.361147e+003
1.044917e+003, 1.361635e+003
1.045399e+003, 1.364041e+003
1.045881e+003, 1.365939e+003
1.046363e+003, 1.365798e+003
1.046845e+003, 1.363993e+003
1.047328e+003, 1.363602e+003
1.047810e+003, 1.364557e+003
1.048292e+003, 1.365584e+003
1.048774e+003, 1.366293e+003
1.049256e+003, 1.366623e+003
1.049738e+003, 1.366568e+003
1.050220e+003, 1.366107e+003
1.050702e+003, 1.365053e+003
1.051184e+003, 1.362357e+003
1.051667e+003, 1.361828e+003
1.052149e+003, 1.364041e+003
1.052631e+003, 1.366757e+003
1.053113e+003, 1.368433e+003
1.053595e+003, 1.369067e+003
1.054077e+003, 1.368021e+003
1.054559e+003, 1.365650e+003
1.055041e+003, 1.364335e+003
1.055523e+003, 1.366342e+003
1.056006e+003, 1.367945e+003
1.056488e+003, 1.367919e+003
1.056970e+003, 1.367086e+003
1.057452e+003, 1.367236e+003
1.057934e+003, 1.368234e+003
1.058416e+003, 1.368666e+003
1.058898e+003, 1.368184e+003
1.059380e+003, 1.367698e+003
1.059863e+003, 1.367739e+003
1.060345e+003, 1.368258e+003
1.060827e+003, 1.369384e+003
1.061309e+003, 1.371123e+003
1.061791e+003, 1.372592e+003
1.062273e+003, 1.373783e+003
1.062755e+003, 1.374656e+003
1.063237e+003, 1.375087e+003
1.063719e+003, 1.375284e+003
1.064202e+003, 1.375739e+003
1.064684e+003, 1.376166e+003
1.065166e+003, 1.375979e+003
1.065648e+003, 1.374256e+003
1.066130e+003, 1.373261e+003
1.066612e+003, 1.373352e+003
1.067094e+003, 1.373978e+003
1.067576e+003, 1.374731e+003
1.068059e+003, 1.375635e+003
1.068541e+003, 1.377012e+003
1.069023e+003, 1.378756e+003
1.069505e+003, 1.379970e+003
1.069987e+003, 1.379489e+003
1.070469e+003, 1.378992e+003
1.070951e+003, 1.379745e+003
1.071433e+003, 1.380938e+003
1.071916e+003, 1.380899e+003
1.072398e+003, 1.379432e+003
1.072880e+003, 1.378389e+003
1.073362e+003, 1.378004e+003
1.073844e+003, 1.378226e+003
1.074326e+003, 1.379609e+003
1.074808e+003, 1.381191e+003
1.075290e+003, 1.381586e+003
1.075772e+003, 1.380699e+003
1.076255e+003, 1.381383e+003
1.076737e+003, 1.384897e+003
1.077219e+003, 1.387340e+003
1.077701e+003, 1.387139e+003
1.078183e+003, 1.385601e+003
1.078665e+003, 1.385116e+003
1.079147e+003, 1.385346e+003
1.079629e+003, 1.385548e+003
1.080111e+003, 1.385563e+003
1.080594e+003, 1.385376e+003
1.081076e+003, 1.384188e+003
1.081558e+003, 1.383561e+003
1.082040e+003, 1.384623e+003
1.082522e+003, 1.387165e+003
1.083004e+003, 1.389200e+003
1.083486e+003, 1.390742e+003
1.083968e+003, 1.391839e+003
1.084450e+003, 1.392529e+003
1.084933e+003, 1.392768e+003
1.085415e+003, 1.391844e+003
1.085897e+003, 1.390744e+003
1.086379e+003, 1.391120e+003
1.086861e+003, 1.393512e+003
1.087343e+003, 1.395375e+003
1.087825e+003, 1.396611e+003
1.088307e+003, 1.397334e+003
1.088790e+003, 1.397440e+003
1.089272e+003, 1.397245e+003
1.089754e+003, 1.396896e+003
1.090236e+003, 1.396538e+003
1.090718e+003, 1.396871e+003
1.091200e+003, 1.398757e+003
1.091682e+003, 1.399931e+003
1.092164e+003, 1.399761e+003
1.092646e+003, 1.399172e+003
1.093129e+003, 1.399506e+003
1.093611e+003, 1.400550e+003
1.094093e+003, 1.402169e+003
1.094575e+003, 1.404445e+003
1.095057e+003, 1.405412e+003
1.095539e+003, 1.402456e+003
1.096021e+003, 1.399862e+003
1.096503e+003, 1.399715e+003
1.096986e+003, 1.401266e+003
1.097468e+003, 1.401453e+003
1.097950e+003, 1.400500e+003
1.098432e+003, 1.400322e+003
1.098914e+003, 1.401688e+003
1.099396e+003, 1.403569e+003
1.099878e+003, 1.405904e+003
1.100360e+003, 1.407935e+003
1.100843e+003, 1.408785e+003
1.101325e+003, 1.408323e+003
1.101807e+003, 1.408283e+003
1.102289e+003, 1.408710e+003
1.102771e+003, 1.409067e+003
1.103253e+003, 1.409046e+003
1.103735e+003, 1.408796e+003
1.104217e+003, 1.408110e+003
1.104699e+003, 1.407414e+003
1.105182e+003, 1.407565e+003
1.105664e+003, 1.409768e+003
1.106146e+003, 1.410821e+003
1.106628e+003, 1.410430e+003
1.107110e+003, 1.409474e+003
1.107592e+003, 1.407949e+003
1.108074e+003, 1.406734e+003
1.108556e+003, 1.408535e+003
1.109038e+003, 1.412674e+003
1.109521e+003, 1.415221e+003
1.110003e+003, 1.412312e+003
1.110485e+003, 1.410907e+003
1.110967e+003, 1.413264e+003
1.111449e+003, 1.416774e+003
1.111931e+003, 1.417222e+003
1.112413e+003, 1.415304e+003
1.112895e+003, 1.414242e+003
1.113377e+003, 1.414421e+003
1.113860e+003, 1.414647e+003
1.114342e+003, 1.413854e+003
1.114824e+003, 1.413274e+003
1.115306e+003, 1.413645e+003
1.115788e+003, 1.414748e+003
1.116270e+003, 1.416025e+003
1.116752e+003, 1.417482e+003
1.117234e+003, 1.418657e+003
1.117717e+003, 1.419462e+003
1.118199e+003, 1.419856e+003
1.118681e+003, 1.419173e+003
1.119163e+003, 1.418491e+003
1.119645e+003, 1.419046e+003
1.120127e+003, 1.420933e+003
1.120609e+003, 1.422129e+003
1.121091e+003, 1.422523e+003
1.121573e+003, 1.422875e+003
1.122056e+003, 1.423724e+003
1.122538e+003, 1.424318e+003
1.123020e+003, 1.423324e+003
1.123502e+003, 1.421562e+003
1.123984e+003, 1.420335e+003
1.124466e+003, 1.420252e+003
1.124948e+003, 1.419836e+003
1.125430e+003, 1.418626e+003
1.125913e+003, 1.418303e+003
1.126395e+003, 1.421137e+003
1.126877e+003, 1.425126e+003
1.127359e+003, 1.425241e+003
1.127841e+003, 1.422682e+003
1.128323e+003, 1.420737e+003
1.128805e+003, 1.420799e+003
1.129287e+003, 1.421444e+003
1.129770e+003, 1.422862e+003
1.130252e+003, 1.424144e+003
1.130734e+003, 1.424204e+003
1.131216e+003, 1.423357e+003
1.131698e+003, 1.422938e+003
1.132180e+003, 1.422920e+003
1.132662e+003, 1.422804e+003
1.133144e+003, 1.421471e+003
1.133626e+003, 1.421014e+003
1.134109e+003, 1.422746e+003
1.134591e+003, 1.425252e+003
1.135073e+003, 1.426305e+003
1.135555e+003, 1.426021e+003
1.136037e+003, 1.425963e+003
1.136519e+003, 1.426318e+003
1.137001e+003, 1.426627e+003
1.137483e+003, 1.426344e+003
1.137965e+003, 1.426152e+003
1.138448e+003, 1.426938e+003
1.138930e+003, 1.428172e+003
1.139412e+003, 1.427979e+003
1.139894e+003, 1.426301e+003
1.140376e+003, 1.424684e+003
1.140858e+003, 1.423335e+003
1.141340e+003, 1.422853e+003
1.141822e+003, 1.424406e+003
1.142304e+003, 1.426641e+003
1.142787e+003, 1.428550e+003
1.143269e+003, 1.429995e+003
1.143751e+003, 1.430280e+003
1.144233e+003, 1.429044e+003
1.144715e+003, 1.428558e+003
1.145197e+003, 1.429763e+003
1.145679e+003, 1.431578e+003
1.146161e+003, 1.432793e+003
1.146644e+003, 1.433637e+003
1.147126e+003, 1.434525e+003
1.147608e+003, 1.435718e+003
1.148090e+003, 1.435775e+003
1.148572e+003, 1.434280e+003
1.149054e+003, 1.432884e+003
1.149536e+003, 1.432393e+003
1.150018e+003, 1.432505e+003
1.150500e+003, 1.432682e+003
1.150983e+003, 1.433072e+003
1.151465e+003, 1.434059e+003
1.151947e+003, 1.436742e+003
1.152429e+003, 1.437836e+003
1.152911e+003, 1.436730e+003
1.153393e+003, 1.434977e+003
1.153875e+003, 1.433186e+003
1.154357e+003, 1.431728e+003
1.154840e+003, 1.432108e+003
1.155322e+003, 1.433740e+003
1.155804e+003, 1.434740e+003
1.156286e+003, 1.433699e+003
1.156768e+003, 1.432920e+003
1.157250e+003, 1.432859e+003
1.157732e+003, 1.432968e+003
1.158214e+003, 1.432689e+003
1.158697e+003, 1.432139e+003
1.159179e+003, 1.431694e+003
1.159661e+003, 1.431414e+003
1.160143e+003, 1.431589e+003
1.160625e+003, 1.432411e+003
1.161107e+003, 1.433684e+003
1.161589e+003, 1.435626e+003
1.162071e+003, 1.437666e+003
1.162553e+003, 1.439177e+003
1.163036e+003, 1.440145e+003
1.163518e+003, 1.440332e+003
1.164000e+003, 1.439789e+003
1.164482e+003, 1.439527e+003
1.164964e+003, 1.440839e+003
1.165446e+003, 1.441844e+003
1.165928e+003, 1.441323e+003
1.166410e+003, 1.440126e+003
1.166892e+003, 1.439828e+003
1.167375e+003, 1.440375e+003
1.167857e+003, 1.440914e+003
1.168339e+003, 1.441346e+003
1.168821e+003, 1.441591e+003
1.169303e+003, 1.440828e+003
1.169785e+003, 1.440582e+003
1.170267e+003, 1.442514e+003
1.170749e+003, 1.445618e+003
1.171231e+003, 1.447036e+003
1.171714e+003, 1.446772e+003
1.172196e+003, 1.446165e+003
1.172678e+003, 1.445362e+003
1.173160e+003, 1.445032e+003
1.173642e+003, 1.446192e+003
1.174124e+003, 1.447699e+003
1.174606e+003, 1.448540e+003
1.175088e+003, 1.448859e+003
1.175571e+003, 1.449610e+003
1.176053e+003, 1.450835e+003
1.176535e+003, 1.452025e+003
1.177017e+003, 1.453117e+003
1.177499e+003, 1.453917e+003
1.177981e+003, 1.454133e+003
1.178463e+003, 1.454043e+003
1.178945e+003, 1.453732e+003
1.179427e+003, 1.453218e+003
1.179910e+003, 1.453568e+003
1.180392e+003, 1.454875e+003
1.180874e+003, 1.456096e+003
1.181356e+003, 1.456941e+003
1.181838e+003, 1.457304e+003
1.182320e+003, 1.456796e+003
1.182802e+003, 1.455902e+003
1.183284e+003, 1.455038e+003
1.183767e+003, 1.454143e+003
1.184249e+003, 1.454459e+003
1.184731e+003, 1.456225e+003
1.185213e+003, 1.457646e+003
1.185695e+003, 1.457859e+003
1.186177e+003, 1.457361e+003
1.186659e+003, 1.456163e+003
1.187141e+003, 1.454888e+003
1.187624e+003, 1.454604e+003
1.188106e+003, 1.455941e+003
1.188588e+003, 1.456194e+003
1.189070e+003, 1.455151e+003
1.189552e+003, 1.454330e+003
1.190034e+003, 1.454691e+003
1.190516e+003, 1.455666e+003
1.190998e+003, 1.456744e+003
1.191480e+003, 1.457863e+003
1.191963e+003, 1.458948e+003
1.192445e+003, 1.460137e+003
1.192927e+003, 1.460775e+003
1.193409e+003, 1.460760e+003
1.193891e+003, 1.460555e+003
1.194373e+003, 1.460121e+003
1.194855e+003, 1.459910e+003
1.195337e+003, 1.460427e+003
1.195819e+003, 1.461635e+003
1.196302e+003, 1.463572e+003
1.196784e+003, 1.467146e+003
1.197266e+003, 1.469129e+003
1.197748e+003, 1.469169e+003
1.198230e+003, 1.468847e+003
1.198712e+003, 1.469448e+003
1.199194e+003, 1.470431e+003
1.199676e+003, 1.471309e+003
1.200158e+003, 1.471955e+003
1.200641e+003, 1.472021e+003
1.201123e+003, 1.471615e+003
1.201605e+003, 1.469885e+003
1.202087e+003, 1.466103e+003
1.202569e+003, 1.463859e+003
1.203051e+003, 1.468710e+003
1.203533e+003, 1.475464e+003
1.204015e+003, 1.476436e+003
1.204498e+003, 1.473168e+003
1.204980e+003, 1.472047e+003
1.205462e+003, 1.475566e+003
1.205944e+003, 1.477177e+003
1.206426e+003, 1.475965e+003
1.206908e+003, 1.474235e+003
1.207390e+003, 1.474449e+003
1.207872e+003, 1.475361e+003
1.208354e+003, 1.475261e+003
1.208837e+003, 1.474325e+003
1.209319e+003, 1.473698e+003
1.209801e+003, 1.473171e+003
1.210283e+003, 1.473883e+003
1.210765e+003, 1.476222e+003
1.211247e+003, 1.478839e+003
1.211729e+003, 1.480734e+003
1.212211e+003, 1.481842e+003
1.212694e+003, 1.481544e+003
1.213176e+003, 1.480191e+003
1.213658e+003, 1.480026e+003
1.214140e+003, 1.482078e+003
1.214622e+003, 1.482729e+003
1.215104e+003, 1.481308e+003
1.215586e+003, 1.479143e+003
1.216068e+003, 1.476881e+003
1.216551e+003, 1.475242e+003
1.217033e+003, 1.475449e+003
1.217515e+003, 1.477314e+003
1.217997e+003, 1.478856e+003
1.218479e+003, 1.480107e+003
1.218961e+003, 1.480366e+003
1.219443e+003, 1.479298e+003
1.219925e+003, 1.478120e+003
1.220407e+003, 1.478205e+003
1.220890e+003, 1.478899e+003
1.221372e+003, 1.479330e+003
1.221854e+003, 1.479543e+003
1.222336e+003, 1.480817e+003
1.222818e+003, 1.483768e+003
1.223300e+003, 1.485011e+003
1.223782e+003, 1.483507e+003
1.224264e+003, 1.481885e+003
1.224746e+003, 1.483436e+003
1.225229e+003, 1.486119e+003
1.225711e+003, 1.488154e+003
1.226193e+003, 1.489280e+003
1.226675e+003, 1.489164e+003
1.227157e+003, 1.487508e+003
1.227639e+003, 1.486330e+003
1.228121e+003, 1.486123e+003
1.228603e+003, 1.486212e+003
1.229085e+003, 1.485547e+003
1.229568e+003, 1.485084e+003
1.230050e+003, 1.486162e+003
1.230532e+003, 1.488562e+003
1.231014e+003, 1.489616e+003
1.231496e+003, 1.489168e+003
1.231978e+003, 1.488589e+003
1.232460e+003, 1.488047e+003
1.232942e+003, 1.488186e+003
1.233425e+003, 1.491170e+003
1.233907e+003, 1.493874e+003
1.234389e+003, 1.492539e+003
1.234871e+003, 1.488057e+003
1.235353e+003, 1.486530e+003
1.235835e+003, 1.488087e+003
1.236317e+003, 1.490187e+003
1.236799e+003, 1.492406e+003
1.237281e+003, 1.494078e+003
1.237764e+003, 1.494424e+003
1.238246e+003, 1.494213e+003
1.238728e+003, 1.494006e+003
1.239210e+003, 1.493794e+003
1.239692e+003, 1.493153e+003
1.240174e+003, 1.492139e+003
1.240656e+003, 1.492177e+003
1.241138e+003, 1.493787e+003
1.241621e+003, 1.495361e+003
1.242103e+003, 1.495247e+003
1.242585e+003, 1.495105e+003
1.243067e+003, 1.496143e+003
1.243549e+003, 1.497997e+003
1.244031e+003, 1.499425e+003
1.244513e+003, 1.500447e+003
1.244995e+003, 1.501092e+003
1.245478e+003, 1.501267e+003
1.245960e+003, 1.501702e+003
1.246442e+003, 1.503323e+003
1.246924e+003, 1.504812e+003
1.247406e+003, 1.505411e+003
1.247888e+003, 1.505401e+003
1.248370e+003, 1.505563e+003
1.248852e+003, 1.505863e+003
1.249334e+003, 1.506157e+003
1.249817e+003, 1.506427e+003
1.250299e+003, 1.506651e+003
1.250781e+003, 1.507008e+003
1.251263e+003, 1.507097e+003
1.251745e+003, 1.506708e+003
1.252227e+003, 1.506039e+003
1.252709e+003, 1.505425e+003
1.253191e+003, 1.504938e+003
1.253673e+003, 1.504775e+003
1.254156e+003, 1.504994e+003
1.254638e+003, 1.505419e+003
1.255120e+003, 1.506234e+003
1.255602e+003, 1.506795e+003
1.256084e+003, 1.506572e+003
1.256566e+003, 1.506398e+003
1.257048e+003, 1.508579e+003
1.257530e+003, 1.511886e+003
1.258012e+003, 1.513667e+003
1.258495e+003, 1.513312e+003
1.258977e+003, 1.512992e+003
1.259459e+003, 1.512709e+003
1.259941e+003, 1.513300e+003
1.260423e+003, 1.515324e+003
1.260905e+003, 1.517706e+003
1.261387e+003, 1.518849e+003
1.261869e+003, 1.519182e+003
1.262352e+003, 1.519348e+003
1.262834e+003, 1.519437e+003
1.263316e+003, 1.519139e+003
1.263798e+003, 1.518361e+003
1.264280e+003, 1.517522e+003
1.264762e+003, 1.516670e+003
1.265244e+003, 1.516085e+003
1.265726e+003, 1.516149e+003
1.266208e+003, 1.516639e+003
1.266691e+003, 1.517370e+003
1.267173e+003, 1.518327e+003
1.267655e+003, 1.519357e+003
1.268137e+003, 1.520509e+003
1.268619e+003, 1.521397e+003
1.269101e+003, 1.521950e+003
1.269583e+003, 1.522025e+003
1.270065e+003, 1.521007e+003
1.270548e+003, 1.519829e+003
1.271030e+003, 1.519451e+003
1.271512e+003, 1.519679e+003
1.271994e+003, 1.519468e+003
1.272476e+003, 1.518854e+003
1.272958e+003, 1.519347e+003
1.273440e+003, 1.521502e+003
1.273922e+003, 1.523211e+003
1.274405e+003, 1.522048e+003
1.274887e+003, 1.520969e+003
1.275369e+003, 1.522046e+003
1.275851e+003, 1.524364e+003
1.276333e+003, 1.525361e+003
1.276815e+003, 1.525232e+003
1.277297e+003, 1.524685e+003
1.277779e+003, 1.523771e+003
1.278261e+003, 1.523735e+003
1.278744e+003, 1.526088e+003
1.279226e+003, 1.528366e+003
1.279708e+003, 1.529712e+003
1.280190e+003, 1.530376e+003
1.280672e+003, 1.530636e+003
1.281154e+003, 1.530700e+003
1.281636e+003, 1.531233e+003
1.282118e+003, 1.532316e+003
1.282600e+003, 1.533168e+003
1.283083e+003, 1.533992e+003
1.283565e+003, 1.533644e+003
1.284047e+003, 1.531476e+003
1.284529e+003, 1.528969e+003
1.285011e+003, 1.528585e+003
1.285493e+003, 1.529088e+003
1.285975e+003, 1.528226e+003
1.286457e+003, 1.526004e+003
1.286939e+003, 1.525550e+003
1.287422e+003, 1.527835e+003
1.287904e+003, 1.529271e+003
1.288386e+003, 1.529077e+003
1.288868e+003, 1.528450e+003
1.289350e+003, 1.528183e+003
1.289832e+003, 1.528532e+003
1.290314e+003, 1.530426e+003
1.290796e+003, 1.533235e+003
1.291279e+003, 1.533751e+003
1.291761e+003, 1.531545e+003
1.292243e+003, 1.531587e+003
1.292725e+003, 1.534703e+003
1.293207e+003, 1.537633e+003
1.293689e+003, 1.537477e+003
1.294171e+003, 1.536480e+003
1.294653e+003, 1.535808e+003
1.295135e+003, 1.535468e+003
1.295618e+003, 1.535506e+003
1.296100e+003, 1.535897e+003
1.296582e+003, 1.536562e+003
1.297064e+003, 1.537617e+003
1.297546e+003, 1.538586e+003
1.298028e+003, 1.538755e+003
1.298510e+003, 1.538673e+003
1.298992e+003, 1.538631e+003
1.299475e+003, 1.538624e+003
1.299957e+003, 1.538256e+003
1.300439e+003, 1.538042e+003
1.300921e+003, 1.539537e+003
1.301403e+003, 1.542634e+003
1.301885e+003, 1.545840e+003
##END=



