##NAMES=Weddellite
##RRUFFID=R110123
##IDEAL CHEMISTRY=Ca(C_2_)^6+^O_4_&#183;2H_2_O
##LOCALITY=Tucson, Arizona, USA
##OWNER=RRUFF
##SOURCE=Gordie Downs
##DESCRIPTION=White to colorless spheroidal crystals found in the pith of a living Saguaro cactus
##STATUS=The identification of this mineral has been confirmed by single-crystal X-ray diffraction.
##URL=rruff.info/R110123
181.1301, 2550.687
181.6122, 2561.121
182.0944, 2562.288
182.5765, 2565.853
183.0586, 2579.037
183.5407, 2597.755
184.0228, 2614.903
184.5049, 2630.512
184.9871, 2642.816
185.4692, 2648.463
185.9513, 2648.279
186.4334, 2646.334
186.9155, 2643.521
187.3976, 2640.285
187.8798, 2638.574
188.3619, 2638.772
188.8440, 2639.071
189.3261, 2636.166
189.8082, 2630.314
190.2903, 2625.542
190.7725, 2625.737
191.2546, 2629.507
191.7367, 2627.992
192.2188, 2619.715
192.7009, 2608.988
193.1830, 2603.638
193.6652, 2603.695
194.1473, 2603.372
194.6294, 2598.600
195.1115, 2589.855
195.5936, 2583.366
196.0757, 2579.522
196.5579, 2577.913
197.0400, 2578.882
197.5221, 2582.801
198.0042, 2585.363
198.4863, 2583.263
198.9684, 2576.449
199.4506, 2571.359
199.9327, 2568.727
200.4148, 2567.730
200.8969, 2566.664
201.3790, 2565.458
201.8611, 2564.601
202.3433, 2564.847
202.8254, 2566.430
203.3075, 2566.268
203.7896, 2563.600
204.2717, 2559.523
204.7538, 2556.758
205.2360, 2555.355
205.7181, 2554.855
206.2002, 2555.182
206.6823, 2556.459
207.1644, 2557.634
207.6465, 2559.100
208.1287, 2560.096
208.6108, 2557.835
209.0929, 2551.161
209.5750, 2544.341
210.0571, 2539.715
210.5392, 2537.176
211.0214, 2537.390
211.5035, 2541.475
211.9856, 2548.047
212.4677, 2552.627
212.9498, 2555.431
213.4319, 2555.979
213.9140, 2553.031
214.3962, 2544.681
214.8783, 2539.972
215.3604, 2540.521
215.8425, 2545.185
216.3246, 2549.568
216.8067, 2553.932
217.2889, 2557.559
217.7710, 2560.184
218.2531, 2562.060
218.7352, 2561.736
219.2173, 2557.539
219.6994, 2550.933
220.1816, 2549.577
220.6637, 2555.793
221.1458, 2563.028
221.6279, 2567.278
222.1100, 2568.098
222.5921, 2566.968
223.0743, 2562.998
223.5564, 2557.138
224.0385, 2554.144
224.5206, 2556.399
225.0027, 2557.978
225.4848, 2554.424
225.9670, 2541.831
226.4491, 2534.105
226.9312, 2534.564
227.4133, 2540.950
227.8954, 2541.781
228.3775, 2533.934
228.8597, 2525.128
229.3418, 2520.341
229.8239, 2521.819
230.3060, 2521.993
230.7881, 2519.767
231.2702, 2515.685
231.7524, 2512.388
232.2345, 2509.468
232.7166, 2507.811
233.1987, 2508.271
233.6808, 2512.411
234.1629, 2515.031
234.6451, 2515.464
235.1272, 2514.070
235.6093, 2512.422
236.0914, 2510.104
236.5735, 2508.106
237.0556, 2507.229
237.5378, 2508.805
238.0199, 2508.603
238.5020, 2505.648
238.9841, 2500.798
239.4662, 2497.615
239.9483, 2497.177
240.4305, 2497.083
240.9126, 2496.050
241.3947, 2493.603
241.8768, 2491.477
242.3589, 2490.304
242.8410, 2489.519
243.3232, 2486.766
243.8053, 2480.452
244.2874, 2474.340
244.7695, 2470.312
245.2516, 2468.676
245.7337, 2468.227
246.2159, 2469.080
246.6980, 2471.000
247.1801, 2473.453
247.6622, 2477.148
248.1443, 2480.246
248.6264, 2481.557
249.1086, 2479.603
249.5907, 2479.629
250.0728, 2483.327
250.5549, 2488.630
251.0370, 2489.594
251.5191, 2483.524
252.0013, 2477.486
252.4834, 2474.845
252.9655, 2477.567
253.4476, 2478.605
253.9297, 2476.980
254.4118, 2474.152
254.8940, 2473.501
255.3761, 2476.129
255.8582, 2478.967
256.3403, 2480.571
256.8224, 2480.242
257.3046, 2480.730
257.7867, 2481.654
258.2688, 2483.539
258.7509, 2488.087
259.2330, 2497.414
259.7151, 2504.885
260.1973, 2507.539
260.6794, 2504.152
261.1615, 2501.297
261.6436, 2499.625
262.1257, 2497.989
262.6078, 2493.976
263.0900, 2486.146
263.5721, 2479.619
264.0542, 2476.428
264.5363, 2477.029
265.0184, 2478.279
265.5005, 2480.695
265.9827, 2483.291
266.4648, 2484.257
266.9469, 2482.586
267.4290, 2482.323
267.9111, 2485.556
268.3932, 2492.658
268.8754, 2496.071
269.3575, 2494.484
269.8396, 2491.123
270.3217, 2490.450
270.8038, 2493.427
271.2859, 2495.007
271.7681, 2492.822
272.2502, 2487.080
272.7323, 2485.584
273.2144, 2489.977
273.6965, 2495.295
274.1786, 2495.548
274.6608, 2489.569
275.1429, 2484.982
275.6250, 2484.207
276.1071, 2486.590
276.5892, 2486.562
277.0714, 2483.193
277.5535, 2480.091
278.0356, 2481.603
278.5177, 2488.371
278.9998, 2492.749
279.4819, 2492.347
279.9641, 2488.519
280.4462, 2487.522
280.9283, 2489.930
281.4104, 2492.647
281.8925, 2492.980
282.3746, 2490.906
282.8568, 2489.054
283.3389, 2487.917
283.8210, 2487.319
284.3031, 2487.688
284.7852, 2489.488
285.2673, 2488.839
285.7495, 2480.685
286.2316, 2465.918
286.7137, 2455.931
287.1958, 2452.597
287.6779, 2454.115
288.1600, 2457.775
288.6422, 2463.605
289.1243, 2469.513
289.6064, 2474.758
290.0885, 2479.094
290.5706, 2480.373
291.0527, 2477.498
291.5349, 2473.561
292.0170, 2474.016
292.4991, 2478.459
292.9812, 2482.837
293.4633, 2484.182
293.9454, 2483.614
294.4276, 2485.128
294.9097, 2489.323
295.3918, 2493.834
295.8739, 2495.548
296.3560, 2494.877
296.8381, 2493.804
297.3203, 2493.486
297.8024, 2493.394
298.2845, 2491.472
298.7666, 2487.351
299.2487, 2484.876
299.7308, 2489.764
300.2130, 2499.721
300.6951, 2508.071
301.1772, 2511.645
301.6593, 2512.327
302.1414, 2512.746
302.6235, 2512.877
303.1057, 2512.082
303.5878, 2508.670
304.0699, 2504.060
304.5520, 2500.986
305.0341, 2501.112
305.5162, 2502.452
305.9984, 2503.105
306.4805, 2503.136
306.9626, 2503.027
307.4447, 2503.586
307.9268, 2504.048
308.4089, 2503.058
308.8911, 2498.602
309.3732, 2495.189
309.8553, 2497.519
310.3374, 2504.200
310.8195, 2510.603
311.3016, 2515.048
311.7838, 2517.468
312.2659, 2517.211
312.7480, 2512.625
313.2301, 2508.983
313.7122, 2510.197
314.1943, 2514.613
314.6765, 2518.743
315.1586, 2520.459
315.6407, 2521.789
316.1228, 2524.616
316.6049, 2529.966
317.0870, 2533.349
317.5692, 2530.623
318.0513, 2525.202
318.5334, 2521.870
319.0155, 2524.787
319.4976, 2527.883
319.9797, 2527.665
320.4619, 2523.467
320.9440, 2521.540
321.4261, 2527.154
321.9082, 2534.408
322.3903, 2537.687
322.8724, 2530.873
323.3546, 2524.871
323.8367, 2522.124
324.3188, 2522.663
324.8009, 2525.406
325.2830, 2534.830
325.7651, 2543.561
326.2473, 2546.814
326.7294, 2538.164
327.2115, 2531.053
327.6936, 2525.661
328.1757, 2522.509
328.6578, 2523.743
329.1400, 2534.509
329.6221, 2545.456
330.1042, 2552.804
330.5863, 2555.812
331.0684, 2556.411
331.5505, 2553.445
332.0327, 2548.238
332.5148, 2543.553
332.9969, 2538.009
333.4790, 2534.655
333.9611, 2534.355
334.4432, 2537.156
334.9254, 2543.071
335.4075, 2554.811
335.8896, 2567.175
336.3717, 2572.303
336.8538, 2567.072
337.3359, 2561.892
337.8180, 2559.415
338.3001, 2559.620
338.7823, 2560.853
339.2644, 2563.508
339.7465, 2566.510
340.2286, 2569.476
340.7107, 2572.932
341.1928, 2572.950
341.6750, 2567.115
342.1571, 2557.860
342.6392, 2556.074
343.1213, 2563.082
343.6034, 2570.551
344.0855, 2571.782
344.5677, 2567.073
345.0498, 2563.808
345.5319, 2563.052
346.0140, 2563.853
346.4961, 2564.336
346.9782, 2564.531
347.4604, 2565.406
347.9425, 2568.407
348.4246, 2572.675
348.9067, 2574.880
349.3888, 2574.706
349.8709, 2573.192
350.3531, 2570.990
350.8352, 2568.339
351.3173, 2566.148
351.7994, 2563.773
352.2815, 2562.405
352.7636, 2565.277
353.2458, 2572.354
353.7279, 2578.576
354.2100, 2578.545
354.6921, 2574.868
355.1742, 2572.140
355.6563, 2572.567
356.1385, 2573.603
356.6206, 2572.290
357.1027, 2569.168
357.5848, 2566.991
358.0669, 2568.675
358.5490, 2571.438
359.0312, 2572.363
359.5133, 2569.897
359.9954, 2567.883
360.4775, 2569.377
360.9596, 2572.985
361.4417, 2575.694
361.9239, 2575.296
362.4060, 2574.507
362.8881, 2575.113
363.3702, 2577.724
363.8523, 2579.507
364.3344, 2578.402
364.8166, 2576.385
365.2987, 2575.703
365.7808, 2579.646
366.2629, 2582.235
366.7450, 2580.847
367.2271, 2575.486
367.7093, 2571.984
368.1914, 2571.466
368.6735, 2572.685
369.1556, 2574.858
369.6377, 2578.906
370.1198, 2582.598
370.6020, 2585.962
371.0841, 2588.891
371.5662, 2591.108
372.0483, 2593.050
372.5304, 2593.657
373.0125, 2591.976
373.4947, 2586.203
373.9768, 2583.516
374.4589, 2585.246
374.9410, 2588.961
375.4231, 2590.605
375.9052, 2589.365
376.3874, 2588.515
376.8695, 2589.246
377.3516, 2591.565
377.8337, 2593.739
378.3158, 2596.318
378.7979, 2597.538
379.2801, 2594.295
379.7622, 2586.239
380.2443, 2581.688
380.7264, 2583.248
381.2085, 2588.467
381.6906, 2590.271
382.1728, 2588.546
382.6549, 2587.478
383.1370, 2591.030
383.6191, 2597.792
384.1012, 2602.181
384.5833, 2603.477
385.0655, 2602.738
385.5476, 2599.939
386.0297, 2595.875
386.5118, 2593.681
386.9939, 2596.319
387.4760, 2601.131
387.9582, 2604.941
388.4403, 2607.735
388.9224, 2608.398
389.4045, 2603.150
389.8866, 2596.001
390.3687, 2592.713
390.8509, 2597.361
391.3330, 2604.225
391.8151, 2611.286
392.2972, 2617.799
392.7793, 2620.833
393.2614, 2615.768
393.7436, 2608.702
394.2257, 2603.868
394.7078, 2602.576
395.1899, 2602.194
395.6720, 2601.217
396.1541, 2600.620
396.6363, 2601.987
397.1184, 2609.141
397.6005, 2615.083
398.0826, 2616.451
398.5647, 2612.285
399.0468, 2610.495
399.5290, 2614.263
400.0111, 2619.341
400.4932, 2622.347
400.9753, 2622.511
401.4574, 2621.553
401.9395, 2618.574
402.4217, 2614.383
402.9038, 2612.907
403.3859, 2615.014
403.8680, 2618.592
404.3501, 2623.255
404.8322, 2630.190
405.3144, 2633.519
405.7965, 2631.815
406.2786, 2628.156
406.7607, 2628.132
407.2428, 2632.739
407.7249, 2635.293
408.2071, 2632.103
408.6892, 2624.631
409.1713, 2622.853
409.6534, 2627.375
410.1355, 2634.033
410.6176, 2639.615
411.0998, 2644.173
411.5819, 2648.100
412.0640, 2651.896
412.5461, 2654.345
413.0282, 2651.823
413.5103, 2645.327
413.9925, 2640.699
414.4746, 2642.489
414.9567, 2647.899
415.4388, 2653.371
415.9209, 2658.918
416.4030, 2662.278
416.8852, 2659.506
417.3673, 2653.678
417.8494, 2649.797
418.3315, 2652.350
418.8136, 2655.379
419.2957, 2653.718
419.7779, 2648.379
420.2600, 2645.865
420.7421, 2651.760
421.2242, 2660.101
421.7063, 2666.559
422.1884, 2670.299
422.6706, 2672.528
423.1527, 2672.616
423.6348, 2671.528
424.1169, 2671.072
424.5990, 2670.484
425.0811, 2671.503
425.5633, 2675.997
426.0454, 2685.091
426.5275, 2689.044
427.0096, 2681.505
427.4917, 2673.797
427.9738, 2676.084
428.4560, 2695.387
428.9381, 2709.785
429.4202, 2715.947
429.9023, 2715.577
430.3844, 2714.191
430.8665, 2711.187
431.3487, 2708.911
431.8308, 2709.489
432.3129, 2713.236
432.7950, 2713.063
433.2771, 2707.909
433.7592, 2701.567
434.2414, 2698.947
434.7235, 2699.828
435.2056, 2701.339
435.6877, 2702.540
436.1698, 2704.874
436.6519, 2706.534
437.1341, 2710.497
437.6162, 2714.485
438.0983, 2718.608
438.5804, 2721.944
439.0625, 2722.151
439.5446, 2717.818
440.0268, 2713.865
440.5089, 2715.702
440.9910, 2721.131
441.4731, 2725.627
441.9552, 2727.542
442.4373, 2727.567
442.9195, 2725.659
443.4016, 2721.862
443.8837, 2717.797
444.3658, 2712.708
444.8479, 2708.336
445.3300, 2706.115
445.8122, 2707.357
446.2943, 2709.291
446.7764, 2712.839
447.2585, 2716.780
447.7406, 2718.001
448.2227, 2712.960
448.7049, 2708.484
449.1870, 2706.333
449.6691, 2706.638
450.1512, 2709.053
450.6333, 2715.641
451.1154, 2722.138
451.5976, 2723.923
452.0797, 2719.168
452.5618, 2716.180
453.0439, 2717.247
453.5260, 2720.440
454.0081, 2718.843
454.4903, 2711.584
454.9724, 2705.294
455.4545, 2704.610
455.9366, 2708.594
456.4187, 2709.755
456.9008, 2707.197
457.3830, 2705.311
457.8651, 2711.168
458.3472, 2722.272
458.8293, 2730.282
459.3114, 2731.589
459.7935, 2729.416
460.2757, 2726.798
460.7578, 2723.929
461.2399, 2721.846
461.7220, 2722.021
462.2041, 2722.818
462.6862, 2722.727
463.1684, 2721.474
463.6505, 2719.708
464.1326, 2716.406
464.6147, 2713.260
465.0968, 2712.423
465.5789, 2717.420
466.0611, 2722.004
466.5432, 2724.867
467.0253, 2725.935
467.5074, 2724.968
467.9895, 2717.665
468.4716, 2711.817
468.9538, 2711.365
469.4359, 2719.000
469.9180, 2726.214
470.4001, 2733.741
470.8822, 2740.351
471.3643, 2744.400
471.8465, 2745.978
472.3286, 2744.218
472.8107, 2736.807
473.2928, 2725.691
473.7749, 2722.986
474.2570, 2729.983
474.7392, 2738.651
475.2213, 2743.267
475.7034, 2744.283
476.1855, 2744.991
476.6676, 2746.024
477.1497, 2745.879
477.6319, 2740.945
478.1140, 2732.844
478.5961, 2726.884
479.0782, 2725.549
479.5603, 2727.471
480.0424, 2732.555
480.5246, 2740.325
481.0067, 2746.754
481.4888, 2748.126
481.9709, 2747.676
482.4530, 2748.308
482.9352, 2751.054
483.4173, 2753.656
483.8994, 2755.645
484.3815, 2756.803
484.8636, 2756.794
485.3457, 2752.612
485.8279, 2750.236
486.3100, 2751.866
486.7921, 2757.588
487.2742, 2763.017
487.7563, 2769.369
488.2384, 2774.346
488.7206, 2775.951
489.2027, 2771.154
489.6848, 2771.731
490.1669, 2779.964
490.6490, 2791.361
491.1311, 2799.094
491.6133, 2802.808
492.0954, 2804.747
492.5775, 2804.743
493.0596, 2803.672
493.5417, 2805.399
494.0238, 2809.929
494.5060, 2814.221
494.9881, 2814.700
495.4702, 2813.200
495.9523, 2814.724
496.4344, 2820.288
496.9165, 2826.952
497.3987, 2831.618
497.8808, 2835.308
498.3629, 2839.871
498.8450, 2848.203
499.3271, 2855.905
499.8092, 2859.856
500.2914, 2860.540
500.7735, 2860.293
501.2556, 2859.757
501.7377, 2858.883
502.2198, 2857.642
502.7019, 2855.976
503.1841, 2854.197
503.6662, 2850.904
504.1483, 2848.182
504.6304, 2848.738
505.1125, 2856.383
505.5946, 2860.995
506.0768, 2859.809
506.5589, 2854.246
507.0410, 2851.656
507.5231, 2852.792
508.0052, 2854.691
508.4873, 2856.220
508.9695, 2857.344
509.4516, 2857.147
509.9337, 2855.651
510.4158, 2852.600
510.8979, 2847.502
511.3800, 2840.496
511.8622, 2832.010
512.3443, 2820.599
512.8264, 2810.047
513.3085, 2806.673
513.7906, 2808.780
514.2728, 2810.258
514.7549, 2807.465
515.2370, 2802.734
515.7191, 2797.612
516.2012, 2792.179
516.6833, 2787.527
517.1655, 2784.352
517.6476, 2782.072
518.1297, 2780.167
518.6118, 2777.198
519.0939, 2776.298
519.5760, 2780.241
520.0582, 2786.471
520.5403, 2788.921
521.0224, 2784.882
521.5045, 2780.752
521.9866, 2778.026
522.4688, 2776.681
522.9509, 2776.304
523.4330, 2777.097
523.9151, 2778.284
524.3972, 2778.827
524.8793, 2778.653
525.3615, 2781.171
525.8436, 2787.628
526.3257, 2794.202
526.8078, 2794.439
527.2899, 2789.421
527.7720, 2784.222
528.2542, 2780.582
528.7363, 2778.081
529.2184, 2776.278
529.7005, 2775.150
530.1826, 2774.486
530.6647, 2774.916
531.1469, 2775.331
531.6290, 2774.275
532.1111, 2770.962
532.5932, 2769.322
533.0753, 2774.651
533.5574, 2780.872
534.0396, 2781.598
534.5217, 2768.558
535.0038, 2758.459
535.4859, 2753.503
535.9680, 2753.123
536.4501, 2756.393
536.9323, 2768.232
537.4144, 2775.182
537.8965, 2769.667
538.3786, 2751.193
538.8607, 2743.347
539.3428, 2748.263
539.8250, 2757.318
540.3071, 2763.541
540.7892, 2766.951
541.2713, 2768.335
541.7534, 2767.471
542.2355, 2765.416
542.7177, 2763.262
543.1998, 2761.075
543.6819, 2759.137
544.1640, 2757.804
544.6461, 2756.656
545.1282, 2754.562
545.6104, 2751.943
546.0925, 2751.266
546.5746, 2756.334
547.0567, 2762.018
547.5388, 2764.464
548.0209, 2761.792
548.5031, 2760.473
548.9852, 2764.758
549.4673, 2769.648
549.9494, 2769.531
550.4315, 2757.065
550.9136, 2751.218
551.3958, 2757.073
551.8779, 2769.997
552.3600, 2775.599
552.8421, 2771.949
553.3242, 2767.767
553.8063, 2766.303
554.2885, 2767.398
554.7706, 2770.792
555.2527, 2776.831
555.7348, 2781.616
556.2169, 2780.365
556.6990, 2775.287
557.1812, 2772.008
557.6633, 2771.539
558.1454, 2772.592
558.6275, 2774.729
559.1096, 2777.424
559.5917, 2779.784
560.0739, 2782.586
560.5560, 2783.884
561.0381, 2781.421
561.5202, 2776.218
562.0023, 2772.678
562.4844, 2772.941
562.9666, 2774.182
563.4487, 2774.716
563.9308, 2773.658
564.4129, 2776.177
564.8950, 2785.263
565.3771, 2794.603
565.8593, 2798.683
566.3414, 2796.179
566.8235, 2794.014
567.3056, 2792.958
567.7877, 2792.332
568.2698, 2790.855
568.7520, 2788.575
569.2341, 2786.294
569.7162, 2784.338
570.1983, 2782.602
570.6804, 2780.663
571.1625, 2778.656
571.6447, 2777.219
572.1268, 2777.582
572.6089, 2778.302
573.0910, 2777.625
573.5731, 2775.091
574.0552, 2773.402
574.5374, 2774.675
575.0195, 2776.909
575.5016, 2778.223
575.9837, 2776.984
576.4658, 2776.283
576.9479, 2775.874
577.4301, 2776.183
577.9122, 2778.421
578.3943, 2784.338
578.8764, 2788.481
579.3585, 2788.935
579.8406, 2786.199
580.3228, 2783.844
580.8049, 2781.866
581.2870, 2780.258
581.7691, 2778.662
582.2512, 2777.411
582.7333, 2778.219
583.2155, 2781.442
583.6975, 2784.701
584.1796, 2785.928
584.6617, 2785.749
585.1439, 2784.951
585.6260, 2782.815
586.1081, 2781.925
586.5902, 2786.066
587.0723, 2792.368
587.5544, 2795.225
588.0366, 2788.844
588.5187, 2783.029
589.0008, 2781.605
589.4829, 2784.302
589.9650, 2784.983
590.4471, 2782.415
590.9293, 2779.231
591.4114, 2776.161
591.8935, 2772.755
592.3756, 2772.975
592.8577, 2778.066
593.3398, 2783.372
593.8220, 2783.253
594.3041, 2778.496
594.7862, 2775.313
595.2683, 2775.176
595.7504, 2776.152
596.2325, 2775.990
596.7147, 2774.960
597.1968, 2773.727
597.6789, 2772.447
598.1610, 2771.239
598.6431, 2770.601
599.1252, 2770.267
599.6074, 2768.972
600.0895, 2764.854
600.5716, 2760.848
601.0537, 2758.313
601.5358, 2757.551
602.0179, 2757.509
602.5001, 2758.126
602.9822, 2759.500
603.4643, 2762.434
603.9464, 2768.456
604.4285, 2769.385
604.9106, 2763.028
605.3928, 2754.586
605.8749, 2752.776
606.3570, 2757.031
606.8391, 2759.858
607.3212, 2758.239
607.8033, 2754.924
608.2855, 2754.517
608.7676, 2756.161
609.2497, 2756.732
609.7318, 2752.576
610.2139, 2748.022
610.6960, 2746.805
611.1782, 2748.983
611.6603, 2751.149
612.1424, 2752.812
612.6245, 2753.600
613.1066, 2752.936
613.5887, 2748.893
614.0709, 2748.097
614.5530, 2752.702
615.0351, 2758.700
615.5172, 2762.112
615.9993, 2762.778
616.4814, 2761.523
616.9636, 2757.788
617.4457, 2753.228
617.9278, 2751.014
618.4099, 2750.989
618.8920, 2751.562
619.3741, 2752.122
619.8563, 2752.795
620.3384, 2754.606
620.8205, 2757.019
621.3026, 2757.463
621.7847, 2752.815
622.2668, 2746.775
622.7490, 2741.832
623.2311, 2738.190
623.7132, 2735.887
624.1953, 2736.104
624.6774, 2736.955
625.1595, 2737.187
625.6417, 2736.947
626.1238, 2735.852
626.6059, 2733.585
627.0880, 2730.936
627.5701, 2728.706
628.0522, 2726.831
628.5344, 2726.400
629.0165, 2728.134
629.4986, 2730.687
629.9807, 2731.255
630.4628, 2730.143
630.9449, 2729.084
631.4271, 2729.022
631.9092, 2729.317
632.3913, 2728.607
632.8734, 2727.243
633.3555, 2727.604
633.8376, 2733.237
634.3198, 2739.038
634.8019, 2741.413
635.2840, 2739.041
635.7661, 2738.411
636.2482, 2742.119
636.7303, 2746.182
637.2125, 2747.882
637.6946, 2746.560
638.1767, 2744.811
638.6588, 2742.690
639.1409, 2740.322
639.6230, 2737.256
640.1052, 2733.669
640.5873, 2732.389
641.0694, 2734.535
641.5515, 2738.699
642.0336, 2744.732
642.5157, 2751.250
642.9979, 2754.264
643.4800, 2747.641
643.9621, 2740.207
644.4442, 2738.962
644.9263, 2742.886
645.4084, 2745.538
645.8906, 2743.296
646.3727, 2740.677
646.8548, 2739.939
647.3369, 2741.411
647.8190, 2742.453
648.3011, 2743.137
648.7833, 2743.278
649.2654, 2741.881
649.7475, 2738.523
650.2296, 2739.829
650.7117, 2747.207
651.1938, 2755.210
651.6760, 2756.023
652.1581, 2751.748
652.6402, 2748.947
653.1223, 2749.830
653.6044, 2751.604
654.0865, 2751.852
654.5687, 2751.148
655.0508, 2750.617
655.5329, 2751.330
656.0150, 2751.607
656.4971, 2749.640
656.9792, 2746.309
657.4614, 2746.267
657.9435, 2752.059
658.4256, 2757.738
658.9077, 2761.136
659.3898, 2762.383
659.8719, 2765.560
660.3541, 2771.479
660.8362, 2775.499
661.3183, 2773.387
661.8004, 2766.550
662.2825, 2759.215
662.7646, 2751.388
663.2468, 2747.151
663.7289, 2753.845
664.2110, 2764.853
664.6931, 2771.451
665.1752, 2770.804
665.6573, 2768.189
666.1395, 2764.253
666.6216, 2760.325
667.1037, 2758.028
667.5858, 2759.654
668.0679, 2760.243
668.5500, 2758.520
669.0322, 2755.946
669.5143, 2756.282
669.9964, 2760.432
670.4785, 2762.861
670.9606, 2761.082
671.4427, 2756.966
671.9249, 2755.854
672.4070, 2757.438
672.8891, 2759.408
673.3712, 2760.015
673.8533, 2760.487
674.3354, 2762.911
674.8176, 2767.042
675.2997, 2769.845
675.7818, 2767.639
676.2639, 2765.257
676.7460, 2766.040
677.2281, 2771.427
677.7103, 2775.818
678.1924, 2780.573
678.6745, 2782.700
679.1566, 2778.243
679.6387, 2764.055
680.1208, 2759.303
680.6030, 2766.828
681.0851, 2778.845
681.5672, 2787.069
682.0493, 2791.637
682.5314, 2793.164
683.0135, 2790.993
683.4957, 2787.625
683.9778, 2785.637
684.4599, 2784.343
684.9420, 2782.547
685.4241, 2777.629
685.9063, 2774.385
686.3884, 2776.375
686.8705, 2781.732
687.3526, 2783.717
687.8347, 2777.779
688.3168, 2774.819
688.7990, 2779.116
689.2811, 2789.177
689.7632, 2793.988
690.2453, 2792.786
690.7274, 2791.648
691.2095, 2795.384
691.6917, 2801.785
692.1738, 2803.544
692.6559, 2800.746
693.1380, 2798.044
693.6201, 2799.734
694.1022, 2802.583
694.5844, 2803.269
695.0665, 2801.004
695.5486, 2798.737
696.0307, 2796.709
696.5128, 2795.531
696.9949, 2795.762
697.4771, 2798.362
697.9592, 2800.304
698.4413, 2801.395
698.9234, 2802.131
699.4055, 2803.706
699.8876, 2806.221
700.3698, 2805.690
700.8519, 2800.521
701.3340, 2794.742
701.8161, 2796.106
702.2982, 2801.422
702.7803, 2802.300
703.2625, 2790.489
703.7446, 2779.557
704.2267, 2780.739
704.7088, 2789.392
705.1909, 2795.347
705.6730, 2790.882
706.1552, 2789.091
706.6373, 2795.205
707.1194, 2806.729
707.6015, 2811.612
708.0836, 2807.555
708.5657, 2803.524
709.0479, 2803.380
709.5300, 2806.114
710.0121, 2807.527
710.4942, 2807.644
710.9763, 2807.600
711.4584, 2808.397
711.9406, 2809.345
712.4227, 2809.610
712.9048, 2809.170
713.3869, 2808.368
713.8690, 2806.881
714.3511, 2805.522
714.8333, 2804.743
715.3154, 2804.547
715.7975, 2805.593
716.2796, 2809.125
716.7617, 2812.511
717.2438, 2813.467
717.7260, 2811.753
718.2081, 2810.455
718.6902, 2809.682
719.1723, 2809.781
719.6544, 2812.344
720.1365, 2816.041
720.6187, 2817.208
721.1008, 2814.338
721.5829, 2810.887
722.0650, 2808.246
722.5471, 2806.955
723.0292, 2807.705
723.5114, 2812.712
723.9935, 2817.202
724.4756, 2819.169
724.9577, 2820.592
725.4398, 2825.570
725.9219, 2836.166
726.4041, 2843.695
726.8862, 2845.870
727.3683, 2844.271
727.8504, 2842.423
728.3325, 2840.227
728.8146, 2836.787
729.2968, 2828.650
729.7789, 2821.733
730.2610, 2825.048
730.7431, 2835.688
731.2252, 2844.016
731.7073, 2844.687
732.1895, 2843.336
732.6716, 2841.417
733.1537, 2839.224
733.6358, 2839.131
734.1179, 2842.804
734.6000, 2845.814
735.0822, 2846.343
735.5643, 2844.583
736.0464, 2842.001
736.5285, 2838.600
737.0106, 2834.708
737.4927, 2829.486
737.9749, 2824.344
738.4570, 2821.678
738.9391, 2821.617
739.4212, 2823.189
739.9033, 2828.109
740.3854, 2832.801
740.8676, 2834.440
741.3497, 2831.880
741.8318, 2829.432
742.3139, 2827.306
742.7960, 2825.414
743.2781, 2823.393
743.7603, 2820.951
744.2424, 2820.921
744.7245, 2823.906
745.2066, 2827.219
745.6887, 2828.165
746.1708, 2827.281
746.6530, 2825.156
747.1351, 2821.227
747.6172, 2819.725
748.0993, 2827.743
748.5814, 2838.174
749.0635, 2842.668
749.5457, 2832.650
750.0278, 2827.482
750.5099, 2832.922
750.9920, 2842.129
751.4741, 2847.111
751.9562, 2846.529
752.4384, 2847.117
752.9205, 2850.154
753.4026, 2853.662
753.8847, 2853.709
754.3668, 2851.279
754.8489, 2850.719
755.3311, 2854.707
755.8132, 2858.403
756.2953, 2855.524
756.7774, 2849.734
757.2595, 2847.526
757.7416, 2856.714
758.2238, 2862.933
758.7059, 2861.539
759.1880, 2855.493
759.6701, 2850.593
760.1522, 2846.984
760.6343, 2844.119
761.1165, 2841.865
761.5986, 2840.288
762.0807, 2840.046
762.5628, 2840.830
763.0449, 2840.696
763.5270, 2837.221
764.0092, 2833.775
764.4913, 2834.605
764.9734, 2838.206
765.4555, 2839.920
765.9376, 2835.956
766.4197, 2831.978
766.9019, 2828.794
767.3840, 2826.926
767.8661, 2830.106
768.3482, 2840.907
768.8303, 2848.873
769.3124, 2847.810
769.7946, 2841.372
770.2767, 2843.656
770.7588, 2853.756
771.2409, 2863.222
771.7230, 2868.019
772.2051, 2868.965
772.6873, 2864.899
773.1694, 2856.754
773.6515, 2850.953
774.1336, 2850.527
774.6157, 2852.220
775.0978, 2855.597
775.5800, 2860.505
776.0621, 2862.761
776.5442, 2861.936
777.0263, 2859.672
777.5084, 2855.597
777.9905, 2850.681
778.4727, 2850.308
778.9548, 2854.254
779.4369, 2858.841
779.9190, 2862.590
780.4011, 2864.895
780.8832, 2864.539
781.3654, 2861.493
781.8475, 2858.990
782.3296, 2857.648
782.8117, 2857.541
783.2938, 2859.273
783.7759, 2863.262
784.2581, 2863.980
784.7402, 2860.492
785.2223, 2856.783
785.7044, 2855.982
786.1865, 2857.326
786.6686, 2857.603
787.1508, 2856.758
787.6329, 2855.793
788.1150, 2855.986
788.5971, 2856.077
789.0792, 2854.059
789.5613, 2849.186
790.0435, 2847.094
790.5256, 2851.451
791.0077, 2856.820
791.4898, 2860.125
791.9719, 2860.703
792.4540, 2863.679
792.9362, 2869.473
793.4183, 2875.499
793.9004, 2880.646
794.3825, 2884.176
794.8646, 2882.459
795.3467, 2875.159
795.8289, 2869.246
796.3110, 2870.422
796.7931, 2874.856
797.2752, 2880.524
797.7573, 2888.621
798.2394, 2891.262
798.7216, 2883.514
799.2037, 2874.829
799.6858, 2871.535
800.1679, 2874.605
800.6500, 2875.823
801.1321, 2875.156
801.6143, 2873.093
802.0964, 2867.508
802.5785, 2861.563
803.0606, 2862.549
803.5427, 2871.708
804.0248, 2880.540
804.5070, 2883.330
804.9891, 2884.264
805.4712, 2886.572
805.9533, 2891.329
806.4354, 2895.034
806.9175, 2897.059
807.3997, 2898.863
807.8818, 2901.845
808.3639, 2905.918
808.8460, 2908.856
809.3281, 2910.654
809.8102, 2910.417
810.2924, 2905.520
810.7745, 2898.938
811.2566, 2894.687
811.7387, 2893.466
812.2208, 2893.416
812.7029, 2893.258
813.1851, 2894.490
813.6672, 2899.025
814.1493, 2908.785
814.6314, 2912.947
815.1135, 2909.955
815.5956, 2905.156
816.0778, 2901.877
816.5599, 2900.284
817.0420, 2902.031
817.5241, 2907.248
818.0062, 2912.640
818.4883, 2917.449
818.9705, 2920.025
819.4526, 2916.830
819.9347, 2905.991
820.4168, 2900.936
820.8989, 2911.739
821.3810, 2922.307
821.8632, 2923.713
822.3453, 2914.663
822.8274, 2909.317
823.3095, 2907.996
823.7916, 2909.216
824.2737, 2914.035
824.7559, 2919.995
825.2380, 2921.097
825.7201, 2917.178
826.2022, 2913.962
826.6843, 2915.628
827.1664, 2918.654
827.6486, 2920.553
828.1307, 2920.835
828.6128, 2922.466
829.0949, 2927.094
829.5770, 2930.156
830.0591, 2927.905
830.5413, 2921.098
831.0234, 2918.958
831.5055, 2921.410
831.9876, 2924.457
832.4697, 2923.761
832.9518, 2923.096
833.4340, 2928.921
833.9161, 2940.738
834.3982, 2947.169
834.8803, 2938.118
835.3624, 2928.824
835.8445, 2926.000
836.3267, 2929.389
836.8088, 2933.699
837.2909, 2939.748
837.7730, 2942.821
838.2551, 2937.182
838.7372, 2927.646
839.2194, 2928.102
839.7015, 2936.854
840.1836, 2944.054
840.6657, 2941.396
841.1478, 2937.756
841.6299, 2940.263
842.1121, 2947.890
842.5942, 2949.401
843.0763, 2939.518
843.5584, 2931.804
844.0405, 2930.714
844.5226, 2934.923
845.0048, 2940.233
845.4869, 2946.485
845.9690, 2951.566
846.4511, 2954.435
846.9332, 2955.526
847.4153, 2953.918
847.8975, 2950.834
848.3796, 2949.698
848.8617, 2951.750
849.3438, 2956.152
849.8259, 2965.185
850.3080, 2975.752
850.7902, 2978.699
851.2723, 2972.535
851.7544, 2967.750
852.2365, 2967.417
852.7186, 2969.886
853.2007, 2973.227
853.6829, 2976.981
854.1650, 2979.897
854.6471, 2980.667
855.1292, 2981.518
855.6113, 2983.845
856.0934, 2986.832
856.5756, 2988.973
857.0577, 2989.410
857.5398, 2990.785
858.0219, 2994.013
858.5040, 2997.312
858.9861, 2997.131
859.4683, 2994.174
859.9504, 2992.164
860.4325, 2991.849
860.9146, 2993.116
861.3967, 2996.676
861.8788, 3001.395
862.3610, 3006.084
862.8431, 3012.003
863.3252, 3014.835
863.8073, 3012.575
864.2894, 3009.040
864.7715, 3008.058
865.2537, 3009.798
865.7358, 3010.947
866.2179, 3010.997
866.7000, 3012.690
867.1821, 3022.731
867.6642, 3034.617
868.1464, 3036.740
868.6285, 3025.495
869.1106, 3018.480
869.5927, 3028.232
870.0748, 3039.746
870.5569, 3042.686
871.0391, 3035.417
871.5212, 3030.083
872.0033, 3026.645
872.4854, 3025.019
872.9675, 3026.783
873.4496, 3029.835
873.9318, 3027.821
874.4139, 3021.086
874.8960, 3016.460
875.3781, 3022.184
875.8602, 3027.617
876.3423, 3024.560
876.8245, 3012.837
877.3066, 3006.639
877.7887, 3008.262
878.2708, 3010.586
878.7529, 3011.145
879.2350, 3010.267
879.7172, 3008.354
880.1993, 3005.692
880.6814, 3003.556
881.1635, 3003.655
881.6456, 3003.668
882.1277, 3000.257
882.6099, 2995.215
883.0920, 2994.000
883.5741, 3001.674
884.0562, 3007.334
884.5383, 3008.648
885.0204, 3007.368
885.5026, 3007.141
885.9847, 3007.868
886.4668, 3008.782
886.9489, 3009.245
887.4310, 3010.683
887.9131, 3016.543
888.3953, 3023.836
888.8774, 3028.096
889.3595, 3027.033
889.8416, 3024.361
890.3237, 3018.229
890.8058, 3012.864
891.2880, 3013.127
891.7701, 3019.489
892.2522, 3026.142
892.7343, 3032.789
893.2164, 3038.711
893.6985, 3044.215
894.1807, 3048.035
894.6628, 3046.743
895.1449, 3038.519
895.6270, 3035.033
896.1091, 3044.700
896.5912, 3056.829
897.0734, 3065.294
897.5555, 3069.834
898.0376, 3072.355
898.5197, 3071.999
899.0018, 3074.993
899.4839, 3088.522
899.9661, 3107.257
900.4482, 3121.931
900.9303, 3132.647
901.4124, 3140.737
901.8945, 3145.293
902.3766, 3149.018
902.8588, 3150.882
903.3409, 3152.518
903.8230, 3163.019
904.3051, 3185.331
904.7872, 3204.739
905.2693, 3215.159
905.7515, 3221.539
906.2336, 3235.998
906.7157, 3255.106
907.1978, 3268.824
907.6799, 3267.243
908.1620, 3266.636
908.6442, 3277.987
909.1263, 3293.820
909.6084, 3301.984
910.0905, 3301.146
910.5726, 3295.226
911.0547, 3283.200
911.5369, 3269.452
912.0190, 3261.247
912.5011, 3255.927
912.9832, 3244.851
913.4653, 3225.581
913.9474, 3207.084
914.4296, 3196.767
914.9117, 3188.504
915.3938, 3176.520
915.8759, 3158.722
916.3580, 3144.330
916.8401, 3133.183
917.3223, 3125.700
917.8044, 3124.655
918.2865, 3127.522
918.7686, 3124.672
919.2507, 3116.400
919.7328, 3106.197
920.2150, 3094.185
920.6971, 3082.868
921.1792, 3073.486
921.6613, 3066.181
922.1434, 3060.928
922.6255, 3058.277
923.1077, 3056.232
923.5898, 3054.018
924.0719, 3052.284
924.5540, 3053.064
925.0361, 3055.735
925.5182, 3057.785
926.0004, 3058.006
926.4825, 3057.681
926.9646, 3057.110
927.4467, 3056.602
927.9288, 3056.727
928.4109, 3058.063
928.8931, 3058.795
929.3752, 3058.826
929.8573, 3058.261
930.3394, 3058.148
930.8215, 3057.630
931.3036, 3052.019
931.7858, 3040.320
932.2679, 3031.211
932.7500, 3032.836
933.2321, 3037.903
933.7142, 3041.808
934.1964, 3044.377
934.6785, 3041.906
935.1606, 3031.514
935.6427, 3023.400
936.1248, 3024.463
936.6069, 3031.500
937.0891, 3032.938
937.5712, 3029.956
938.0533, 3028.429
938.5354, 3034.084
939.0175, 3039.512
939.4996, 3039.500
939.9818, 3035.899
940.4639, 3034.397
940.9460, 3036.108
941.4281, 3037.047
941.9102, 3035.962
942.3923, 3034.776
942.8745, 3038.030
943.3566, 3043.772
943.8387, 3045.490
944.3208, 3040.078
944.8029, 3036.298
945.2850, 3042.483
945.7672, 3050.540
946.2493, 3052.172
946.7314, 3044.783
947.2135, 3041.368
947.6956, 3042.663
948.1777, 3045.536
948.6599, 3048.106
949.1420, 3050.301
949.6241, 3051.976
950.1062, 3053.087
950.5883, 3053.414
951.0704, 3050.120
951.5526, 3048.619
952.0347, 3053.559
952.5168, 3062.759
952.9989, 3068.198
953.4810, 3069.469
953.9631, 3068.835
954.4453, 3066.895
954.9274, 3063.465
955.4095, 3055.635
955.8916, 3046.489
956.3737, 3043.009
956.8558, 3051.676
957.3380, 3058.236
957.8201, 3055.698
958.3022, 3050.326
958.7843, 3047.819
959.2664, 3048.626
959.7485, 3050.311
960.2307, 3053.020
960.7128, 3054.995
961.1949, 3052.375
961.6770, 3049.217
962.1591, 3053.320
962.6412, 3064.528
963.1234, 3071.361
963.6055, 3065.818
964.0876, 3059.386
964.5697, 3055.109
965.0518, 3053.267
965.5339, 3056.323
966.0161, 3064.256
966.4982, 3070.678
966.9803, 3073.296
967.4624, 3073.037
967.9445, 3067.990
968.4266, 3061.521
968.9088, 3059.288
969.3909, 3067.001
969.8730, 3073.297
970.3551, 3078.163
970.8372, 3080.622
971.3193, 3078.842
971.8015, 3073.384
972.2836, 3068.907
972.7657, 3065.816
973.2478, 3064.025
973.7299, 3063.892
974.2120, 3064.726
974.6942, 3066.010
975.1763, 3067.725
975.6584, 3070.119
976.1405, 3074.157
976.6226, 3076.646
977.1047, 3075.532
977.5869, 3072.751
978.0690, 3074.238
978.5511, 3078.894
979.0332, 3082.707
979.5153, 3083.772
979.9974, 3084.008
980.4796, 3084.154
980.9617, 3084.184
981.4438, 3083.935
981.9259, 3082.793
982.4080, 3083.864
982.8901, 3088.097
983.3723, 3091.614
983.8544, 3088.374
984.3365, 3082.449
984.8186, 3082.540
985.3007, 3089.200
985.7828, 3094.493
986.2650, 3095.144
986.7471, 3093.312
987.2292, 3088.811
987.7113, 3082.688
988.1934, 3080.939
988.6755, 3083.706
989.1577, 3086.850
989.6398, 3088.601
990.1219, 3090.172
990.6040, 3094.115
991.0861, 3098.571
991.5682, 3100.379
992.0504, 3095.814
992.5325, 3092.825
993.0146, 3092.164
993.4967, 3093.003
993.9788, 3095.305
994.4609, 3098.740
994.9431, 3099.973
995.4252, 3098.862
995.9073, 3097.460
996.3894, 3096.969
996.8715, 3097.041
997.3536, 3097.334
997.8358, 3097.915
998.3179, 3099.482
998.8000, 3102.684
999.2821, 3105.234
999.7642, 3106.498
1000.246, 3106.749
1000.728, 3106.924
1001.211, 3106.515
1001.693, 3103.665
1002.175, 3095.293
1002.657, 3089.986
1003.139, 3094.641
1003.621, 3101.939
1004.103, 3104.975
1004.585, 3102.701
1005.068, 3102.236
1005.550, 3103.677
1006.032, 3105.653
1006.514, 3107.890
1006.996, 3109.500
1007.478, 3108.378
1007.960, 3105.187
1008.442, 3103.986
1008.924, 3107.345
1009.407, 3111.103
1009.889, 3115.415
1010.371, 3118.765
1010.853, 3117.019
1011.335, 3111.033
1011.817, 3106.135
1012.299, 3103.172
1012.781, 3103.260
1013.263, 3112.096
1013.746, 3121.424
1014.228, 3121.848
1014.710, 3110.253
1015.192, 3104.663
1015.674, 3106.147
1016.156, 3110.499
1016.638, 3117.065
1017.120, 3123.806
1017.603, 3124.939
1018.085, 3122.051
1018.567, 3120.800
1019.049, 3128.153
1019.531, 3131.671
1020.013, 3122.272
1020.495, 3110.435
1020.977, 3113.576
1021.459, 3132.116
1021.942, 3145.158
1022.424, 3149.940
1022.906, 3150.125
1023.388, 3146.802
1023.870, 3142.294
1024.352, 3138.791
1024.834, 3136.630
1025.316, 3135.431
1025.799, 3135.720
1026.281, 3135.795
1026.763, 3134.200
1027.245, 3132.698
1027.727, 3137.690
1028.209, 3146.923
1028.691, 3152.682
1029.173, 3150.219
1029.656, 3146.441
1030.138, 3142.439
1030.620, 3140.044
1031.102, 3141.477
1031.584, 3147.683
1032.066, 3151.945
1032.548, 3153.915
1033.030, 3155.679
1033.512, 3157.979
1033.995, 3161.629
1034.477, 3169.673
1034.959, 3180.797
1035.441, 3186.646
1035.923, 3179.992
1036.405, 3176.128
1036.887, 3179.231
1037.369, 3185.320
1037.851, 3186.125
1038.334, 3183.083
1038.816, 3182.072
1039.298, 3185.046
1039.780, 3187.301
1040.262, 3184.768
1040.744, 3181.302
1041.226, 3180.456
1041.708, 3182.567
1042.191, 3180.865
1042.673, 3174.485
1043.155, 3171.773
1043.637, 3180.902
1044.119, 3193.084
1044.601, 3194.713
1045.083, 3189.987
1045.565, 3188.453
1046.047, 3197.749
1046.530, 3203.068
1047.012, 3201.246
1047.494, 3197.932
1047.976, 3199.963
1048.458, 3206.162
1048.940, 3211.379
1049.422, 3215.173
1049.904, 3216.355
1050.386, 3210.234
1050.869, 3204.938
1051.351, 3206.987
1051.833, 3214.253
1052.315, 3217.675
1052.797, 3216.554
1053.279, 3217.287
1053.761, 3222.735
1054.243, 3227.667
1054.726, 3223.146
1055.208, 3214.911
1055.690, 3211.535
1056.172, 3217.159
1056.654, 3219.543
1057.136, 3215.426
1057.618, 3212.154
1058.100, 3215.257
1058.583, 3222.552
1059.065, 3225.289
1059.547, 3224.207
1060.029, 3222.708
1060.511, 3222.162
1060.993, 3222.040
1061.475, 3222.571
1061.957, 3223.192
1062.439, 3223.401
1062.922, 3223.371
1063.404, 3220.503
1063.886, 3214.153
1064.368, 3209.585
1064.850, 3213.802
1065.332, 3220.451
1065.814, 3222.704
1066.296, 3220.490
1066.778, 3220.006
1067.261, 3222.802
1067.743, 3224.877
1068.225, 3224.888
1068.707, 3224.128
1069.189, 3224.457
1069.671, 3225.954
1070.153, 3229.402
1070.635, 3235.967
1071.118, 3240.578
1071.600, 3240.044
1072.082, 3237.852
1072.564, 3235.820
1073.046, 3233.957
1073.528, 3230.840
1074.010, 3226.798
1074.492, 3225.798
1074.974, 3234.772
1075.457, 3242.184
1075.939, 3234.907
1076.421, 3221.858
1076.903, 3218.986
1077.385, 3231.859
1077.867, 3239.231
1078.349, 3239.199
1078.831, 3237.574
1079.313, 3239.257
1079.796, 3242.966
1080.278, 3247.237
1080.760, 3251.840
1081.242, 3255.939
1081.724, 3258.880
1082.206, 3261.881
1082.688, 3265.698
1083.170, 3269.002
1083.652, 3267.901
1084.135, 3264.027
1084.617, 3264.789
1085.099, 3272.599
1085.581, 3277.309
1086.063, 3268.305
1086.545, 3258.655
1087.027, 3257.150
1087.509, 3262.873
1087.992, 3265.760
1088.474, 3265.783
1088.956, 3266.096
1089.438, 3269.080
1089.920, 3270.931
1090.402, 3265.441
1090.884, 3257.582
1091.366, 3254.335
1091.849, 3257.871
1092.331, 3262.936
1092.813, 3270.113
1093.295, 3276.843
1093.777, 3281.770
1094.259, 3284.686
1094.741, 3284.195
1095.223, 3281.250
1095.705, 3279.209
1096.188, 3278.529
1096.670, 3280.248
1097.152, 3286.050
1097.634, 3292.038
1098.116, 3293.027
1098.598, 3289.757
1099.080, 3284.870
1099.562, 3278.659
1100.044, 3274.401
1100.527, 3274.906
1101.009, 3277.223
1101.491, 3280.053
1101.973, 3283.401
1102.455, 3288.915
1102.937, 3296.764
1103.419, 3296.270
1103.901, 3282.323
1104.384, 3269.545
1104.866, 3275.292
1105.348, 3287.389
1105.830, 3294.040
1106.312, 3293.492
1106.794, 3290.178
1107.276, 3282.712
1107.758, 3278.080
1108.240, 3280.954
1108.723, 3286.525
1109.205, 3286.751
1109.687, 3284.013
1110.169, 3282.894
1110.651, 3284.747
1111.133, 3288.457
1111.615, 3295.213
1112.097, 3301.333
1112.579, 3303.763
1113.062, 3303.262
1113.544, 3301.325
1114.026, 3298.618
1114.508, 3298.332
1114.990, 3306.208
1115.472, 3311.432
1115.954, 3308.325
1116.436, 3302.804
1116.919, 3302.338
1117.401, 3306.690
1117.883, 3313.704
1118.365, 3323.236
1118.847, 3328.721
1119.329, 3319.988
1119.811, 3310.789
1120.293, 3313.280
1120.776, 3307.552
1121.258, 3303.758
1121.740, 3307.542
1122.222, 3300.166
1122.704, 3304.395
1123.186, 3311.571
1123.668, 3314.277
1124.150, 3314.207
1124.632, 3312.159
1125.115, 3307.882
1125.597, 3307.585
1126.079, 3312.438
1126.561, 3317.746
1127.043, 3322.549
1127.525, 3325.678
1128.007, 3324.073
1128.489, 3319.888
1128.971, 3316.973
1129.454, 3317.525
1129.936, 3315.905
1130.418, 3310.325
1130.900, 3305.204
1131.382, 3303.198
1131.864, 3303.682
1132.346, 3305.266
1132.828, 3307.619
1133.311, 3309.663
1133.793, 3309.932
1134.275, 3311.130
1134.757, 3314.963
1135.239, 3318.581
1135.721, 3318.613
1136.203, 3315.585
1136.685, 3314.045
1137.167, 3314.160
1137.650, 3316.577
1138.132, 3325.845
1138.614, 3332.913
1139.096, 3331.268
1139.578, 3325.559
1140.060, 3322.784
1140.542, 3323.011
1141.024, 3324.661
1141.506, 3327.746
1141.989, 3330.005
1142.471, 3328.149
1142.953, 3326.195
1143.435, 3329.358
1143.917, 3325.332
1144.399, 3333.157
1144.881, 3320.498
1145.363, 3311.191
1145.846, 3308.234
1146.328, 3309.773
1146.810, 3316.437
1147.292, 3324.819
1147.774, 3331.608
1148.256, 3336.200
1148.738, 3339.602
1149.220, 3341.913
1149.703, 3342.490
1150.185, 3340.579
1150.667, 3337.848
1151.149, 3336.921
1151.631, 3336.805
1152.113, 3335.801
1152.595, 3333.089
1153.077, 3331.204
1153.559, 3330.191
1154.042, 3330.413
1154.524, 3332.855
1155.006, 3336.026
1155.488, 3336.201
1155.970, 3334.420
1156.452, 3333.178
1156.934, 3333.615
1157.416, 3334.204
1157.898, 3335.316
1158.381, 3335.686
1158.863, 3334.047
1159.345, 3330.887
1159.827, 3326.878
1160.309, 3322.850
1160.791, 3322.306
1161.273, 3331.378
1161.755, 3337.898
1162.238, 3336.335
1162.720, 3333.722
1163.202, 3339.447
1163.684, 3351.408
1164.166, 3354.877
1164.648, 3350.122
1165.130, 3346.090
1165.612, 3348.101
1166.094, 3351.796
1166.577, 3357.724
1167.059, 3362.611
1167.541, 3359.607
1168.023, 3349.588
1168.505, 3344.565
1168.987, 3345.816
1169.469, 3345.795
1169.951, 3333.055
1170.433, 3323.644
1170.916, 3331.934
1171.398, 3349.707
1171.880, 3355.772
1172.362, 3350.343
1172.844, 3348.635
1173.326, 3353.909
1173.808, 3359.609
1174.290, 3359.925
1174.773, 3358.689
1175.255, 3357.910
1175.737, 3358.067
1176.219, 3363.206
1176.701, 3373.855
1177.183, 3378.358
1177.665, 3372.163
1178.147, 3364.146
1178.630, 3361.862
1179.112, 3362.631
1179.594, 3364.932
1180.076, 3368.576
1180.558, 3368.063
1181.040, 3362.810
1181.522, 3359.146
1182.004, 3359.343
1182.486, 3362.437
1182.969, 3370.210
1183.451, 3378.677
1183.933, 3382.504
1184.415, 3380.297
1184.897, 3379.520
1185.379, 3380.533
1185.861, 3380.132
1186.343, 3374.676
1186.825, 3369.655
1187.308, 3373.439
1187.790, 3381.388
1188.272, 3386.133
1188.754, 3385.728
1189.236, 3384.889
1189.718, 3383.617
1190.200, 3382.078
1190.682, 3379.644
1191.165, 3377.677
1191.647, 3379.188
1192.129, 3382.255
1192.611, 3382.782
1193.093, 3378.042
1193.575, 3375.792
1194.057, 3376.801
1194.539, 3377.614
1195.021, 3374.423
1195.504, 3370.146
1195.986, 3367.553
1196.468, 3367.236
1196.950, 3371.109
1197.432, 3382.458
1197.914, 3391.140
1198.396, 3396.485
1198.878, 3399.210
1199.360, 3398.843
1199.843, 3396.980
1200.325, 3395.760
1200.807, 3395.155
1201.289, 3394.501
1201.771, 3392.546
1202.253, 3393.537
1202.735, 3398.602
1203.217, 3404.810
1203.700, 3409.612
1204.182, 3413.048
1204.664, 3414.325
1205.146, 3413.906
1205.628, 3415.075
1206.110, 3417.735
1206.592, 3423.456
1207.074, 3433.491
1207.557, 3443.575
1208.039, 3447.710
1208.521, 3448.797
1209.003, 3451.289
1209.485, 3455.380
1209.967, 3457.531
1210.449, 3455.651
1210.931, 3456.457
1211.413, 3462.605
1211.896, 3468.671
1212.378, 3465.238
1212.860, 3458.267
1213.342, 3457.695
1213.824, 3464.639
1214.306, 3466.537
1214.788, 3459.180
1215.270, 3455.703
1215.752, 3460.980
1216.235, 3468.083
1216.717, 3467.601
1217.199, 3462.292
1217.681, 3454.893
1218.163, 3445.421
1218.645, 3440.966
1219.127, 3443.971
1219.609, 3445.475
1220.092, 3442.320
1220.574, 3437.072
1221.056, 3432.322
1221.538, 3428.532
1222.020, 3426.420
1222.502, 3426.250
1222.984, 3426.944
1223.466, 3428.249
1223.948, 3430.937
1224.431, 3435.832
1224.913, 3441.018
1225.395, 3444.833
1225.877, 3446.596
1226.359, 3444.688
1226.841, 3437.566
1227.323, 3433.754
1227.805, 3433.838
1228.287, 3435.195
1228.770, 3437.204
1229.252, 3439.083
1229.734, 3439.615
1230.216, 3439.405
1230.698, 3439.568
1231.180, 3440.788
1231.662, 3438.375
1232.144, 3431.220
1232.627, 3427.178
1233.109, 3431.874
1233.591, 3438.020
1234.073, 3435.661
1234.555, 3430.037
1235.037, 3428.848
1235.519, 3434.072
1236.001, 3434.965
1236.484, 3430.787
1236.966, 3429.516
1237.448, 3437.466
1237.930, 3446.495
1238.412, 3447.712
1238.894, 3445.292
1239.376, 3444.872
1239.858, 3446.982
1240.340, 3448.075
1240.823, 3447.918
1241.305, 3450.197
1241.787, 3459.808
1242.269, 3468.232
1242.751, 3465.024
1243.233, 3458.115
1243.715, 3457.917
1244.197, 3465.431
1244.679, 3470.929
1245.162, 3474.456
1245.644, 3475.675
1246.126, 3472.825
1246.608, 3469.885
1247.090, 3469.299
1247.572, 3470.456
1248.054, 3472.870
1248.536, 3476.762
1249.019, 3478.501
1249.501, 3478.277
1249.983, 3477.574
1250.465, 3476.355
1250.947, 3475.969
1251.429, 3478.288
1251.911, 3480.783
1252.393, 3480.488
1252.875, 3477.622
1253.358, 3477.475
1253.840, 3479.845
1254.322, 3483.702
1254.804, 3490.189
1255.286, 3495.740
1255.768, 3498.862
1256.250, 3500.822
1256.732, 3502.990
1257.214, 3504.965
1257.697, 3502.864
1258.179, 3497.871
1258.661, 3495.304
1259.143, 3501.796
1259.625, 3504.635
1260.107, 3498.794
1260.589, 3493.284
1261.071, 3497.629
1261.554, 3508.005
1262.036, 3512.444
1262.518, 3511.960
1263.000, 3510.576
1263.482, 3508.234
1263.964, 3507.318
1264.446, 3508.040
1264.928, 3509.853
1265.411, 3514.267
1265.893, 3518.371
1266.375, 3513.867
1266.857, 3504.514
1267.339, 3500.680
1267.821, 3511.179
1268.303, 3515.725
1268.785, 3512.578
1269.267, 3508.783
1269.750, 3509.070
1270.232, 3512.645
1270.714, 3522.160
1271.196, 3533.523
1271.678, 3536.076
1272.160, 3524.337
1272.642, 3520.331
1273.124, 3525.375
1273.606, 3530.892
1274.089, 3528.282
1274.571, 3525.586
1275.053, 3532.971
1275.535, 3544.001
1276.017, 3546.917
1276.499, 3539.852
1276.981, 3535.646
1277.463, 3534.559
1277.946, 3535.203
1278.428, 3538.549
1278.910, 3541.384
1279.392, 3541.591
1279.874, 3540.290
1280.356, 3538.066
1280.838, 3535.075
1281.320, 3536.210
1281.802, 3541.131
1282.285, 3546.165
1282.767, 3549.605
1283.249, 3552.429
1283.731, 3554.636
1284.213, 3556.684
1284.695, 3558.944
1285.177, 3561.337
1285.659, 3564.396
1286.141, 3567.494
1286.624, 3568.114
1287.106, 3562.910
1287.588, 3558.102
1288.070, 3553.350
1288.552, 3551.520
1289.034, 3557.040
1289.516, 3566.335
1289.998, 3572.419
1290.481, 3575.420
1290.963, 3575.721
1291.445, 3570.309
1291.927, 3567.732
1292.409, 3568.237
1292.891, 3570.761
1293.373, 3575.014
1293.855, 3580.498
1294.338, 3589.588
1294.820, 3598.512
1295.302, 3598.537
1295.784, 3585.204
1296.266, 3581.386
1296.748, 3587.556
1297.230, 3594.691
1297.712, 3597.376
1298.194, 3598.730
1298.677, 3601.280
1299.159, 3603.593
1299.641, 3603.604
1300.123, 3601.181
1300.605, 3599.935
1301.087, 3599.591
1301.569, 3597.671
1302.051, 3589.821
1302.533, 3584.240
1303.016, 3583.719
##END=



