##NAMES=Wendwilsonite
##RRUFFID=R180013
##IDEAL CHEMISTRY=Ca_2_Mg(As^5+^O_4_)_2_&#183;2H_2_O
##LOCALITY=Bou Azzer, Morrocco
##OWNER=RRUFF
##SOURCE=Wendell Wilson
##DESCRIPTION=Red vitreous crystals. Photo from Wendell Wilson
##STATUS=The identification of this mineral is confirmed by single-crystal X-ray diffraction and chemical analysis.
##URL=rruff.info/R180013
##MEASURED CHEMISTRY=Ca_1.97_(Mg_0.48_Co_0.25_Zn_0.22_Ni_0.03_)_Σ=0.98_(As_1.01_O_4_)_2_·2H_2_O
8.758203e+001, 4.959049e+003
8.806415e+001, 4.867342e+003
8.854626e+001, 4.851293e+003
8.902838e+001, 4.947269e+003
8.951050e+001, 5.064206e+003
8.999261e+001, 5.170969e+003
9.047473e+001, 5.265449e+003
9.095685e+001, 5.353617e+003
9.143896e+001, 5.438697e+003
9.192108e+001, 5.521123e+003
9.240320e+001, 5.608590e+003
9.288531e+001, 5.634889e+003
9.336743e+001, 5.563735e+003
9.384955e+001, 5.423516e+003
9.433167e+001, 5.297775e+003
9.481378e+001, 5.169701e+003
9.529590e+001, 5.062401e+003
9.577802e+001, 4.974560e+003
9.626013e+001, 4.903800e+003
9.674225e+001, 4.847152e+003
9.722437e+001, 4.802711e+003
9.770648e+001, 4.771167e+003
9.818860e+001, 4.751802e+003
9.867072e+001, 4.744667e+003
9.915283e+001, 4.748044e+003
9.963495e+001, 4.761593e+003
1.001171e+002, 4.787611e+003
1.005992e+002, 4.831941e+003
1.010813e+002, 4.905985e+003
1.015634e+002, 4.971616e+003
1.020455e+002, 5.047648e+003
1.025277e+002, 5.104155e+003
1.030098e+002, 5.117728e+003
1.034919e+002, 5.079378e+003
1.039740e+002, 4.996579e+003
1.044561e+002, 4.891716e+003
1.049382e+002, 4.734872e+003
1.054204e+002, 4.587465e+003
1.059025e+002, 4.452557e+003
1.063846e+002, 4.331028e+003
1.068667e+002, 4.225075e+003
1.073488e+002, 4.136013e+003
1.078309e+002, 4.064178e+003
1.083131e+002, 4.005534e+003
1.087952e+002, 3.959938e+003
1.092773e+002, 3.924440e+003
1.097594e+002, 3.901045e+003
1.102415e+002, 3.889023e+003
1.107236e+002, 3.879425e+003
1.112058e+002, 3.865057e+003
1.116879e+002, 3.847566e+003
1.121700e+002, 3.832389e+003
1.126521e+002, 3.822571e+003
1.131342e+002, 3.815224e+003
1.136163e+002, 3.805222e+003
1.140985e+002, 3.791029e+003
1.145806e+002, 3.777100e+003
1.150627e+002, 3.765417e+003
1.155448e+002, 3.756032e+003
1.160269e+002, 3.749252e+003
1.165090e+002, 3.745641e+003
1.169912e+002, 3.745162e+003
1.174733e+002, 3.746202e+003
1.179554e+002, 3.747746e+003
1.184375e+002, 3.751968e+003
1.189196e+002, 3.758651e+003
1.194017e+002, 3.768392e+003
1.198839e+002, 3.782820e+003
1.203660e+002, 3.804734e+003
1.208481e+002, 3.837540e+003
1.213302e+002, 3.869430e+003
1.218123e+002, 3.906424e+003
1.222944e+002, 3.938720e+003
1.227766e+002, 3.963848e+003
1.232587e+002, 3.979764e+003
1.237408e+002, 3.981557e+003
1.242229e+002, 3.959666e+003
1.247050e+002, 3.888288e+003
1.251871e+002, 3.824773e+003
1.256693e+002, 3.769096e+003
1.261514e+002, 3.721809e+003
1.266335e+002, 3.685217e+003
1.271156e+002, 3.660954e+003
1.275977e+002, 3.645697e+003
1.280798e+002, 3.629475e+003
1.285620e+002, 3.609635e+003
1.290441e+002, 3.592780e+003
1.295262e+002, 3.581897e+003
1.300083e+002, 3.576351e+003
1.304904e+002, 3.574053e+003
1.309725e+002, 3.576091e+003
1.314547e+002, 3.579710e+003
1.319368e+002, 3.578896e+003
1.324189e+002, 3.570077e+003
1.329010e+002, 3.560768e+003
1.333831e+002, 3.559378e+003
1.338652e+002, 3.567325e+003
1.343474e+002, 3.575637e+003
1.348295e+002, 3.579245e+003
1.353116e+002, 3.580761e+003
1.357937e+002, 3.582354e+003
1.362758e+002, 3.583536e+003
1.367579e+002, 3.586237e+003
1.372401e+002, 3.596125e+003
1.377222e+002, 3.617521e+003
1.382043e+002, 3.640037e+003
1.386864e+002, 3.664792e+003
1.391685e+002, 3.687736e+003
1.396507e+002, 3.703105e+003
1.401328e+002, 3.706747e+003
1.406149e+002, 3.698863e+003
1.410970e+002, 3.685474e+003
1.415791e+002, 3.659992e+003
1.420612e+002, 3.634881e+003
1.425434e+002, 3.611273e+003
1.430255e+002, 3.590546e+003
1.435076e+002, 3.574742e+003
1.439897e+002, 3.566250e+003
1.444718e+002, 3.566727e+003
1.449539e+002, 3.565588e+003
1.454361e+002, 3.561862e+003
1.459182e+002, 3.557681e+003
1.464003e+002, 3.554319e+003
1.468824e+002, 3.551861e+003
1.473645e+002, 3.549303e+003
1.478466e+002, 3.544976e+003
1.483288e+002, 3.537341e+003
1.488109e+002, 3.534723e+003
1.492930e+002, 3.540973e+003
1.497751e+002, 3.550607e+003
1.502572e+002, 3.557973e+003
1.507393e+002, 3.561745e+003
1.512215e+002, 3.563777e+003
1.517036e+002, 3.566415e+003
1.521857e+002, 3.569618e+003
1.526678e+002, 3.572681e+003
1.531499e+002, 3.573244e+003
1.536320e+002, 3.573400e+003
1.541142e+002, 3.579072e+003
1.545963e+002, 3.594077e+003
1.550784e+002, 3.611752e+003
1.555605e+002, 3.625346e+003
1.560426e+002, 3.634881e+003
1.565247e+002, 3.642501e+003
1.570069e+002, 3.648066e+003
1.574890e+002, 3.651685e+003
1.579711e+002, 3.658850e+003
1.584532e+002, 3.675283e+003
1.589353e+002, 3.692417e+003
1.594174e+002, 3.704331e+003
1.598996e+002, 3.710327e+003
1.603817e+002, 3.714058e+003
1.608638e+002, 3.720339e+003
1.613459e+002, 3.730732e+003
1.618280e+002, 3.738218e+003
1.623102e+002, 3.742447e+003
1.627923e+002, 3.743318e+003
1.632744e+002, 3.739473e+003
1.637565e+002, 3.730749e+003
1.642386e+002, 3.719740e+003
1.647207e+002, 3.711080e+003
1.652029e+002, 3.705622e+003
1.656850e+002, 3.701634e+003
1.661671e+002, 3.697426e+003
1.666492e+002, 3.695102e+003
1.671313e+002, 3.697512e+003
1.676134e+002, 3.705843e+003
1.680956e+002, 3.717649e+003
1.685777e+002, 3.725805e+003
1.690598e+002, 3.723284e+003
1.695419e+002, 3.725100e+003
1.700240e+002, 3.734757e+003
1.705061e+002, 3.748936e+003
1.709883e+002, 3.762942e+003
1.714704e+002, 3.774356e+003
1.719525e+002, 3.784129e+003
1.724346e+002, 3.796371e+003
1.729167e+002, 3.811852e+003
1.733988e+002, 3.828426e+003
1.738810e+002, 3.845130e+003
1.743631e+002, 3.862377e+003
1.748452e+002, 3.881006e+003
1.753273e+002, 3.900958e+003
1.758094e+002, 3.923182e+003
1.762915e+002, 3.949136e+003
1.767737e+002, 3.980184e+003
1.772558e+002, 4.013143e+003
1.777379e+002, 4.047048e+003
1.782200e+002, 4.081657e+003
1.787021e+002, 4.115935e+003
1.791842e+002, 4.150533e+003
1.796664e+002, 4.183716e+003
1.801485e+002, 4.212575e+003
1.806306e+002, 4.235460e+003
1.811127e+002, 4.255298e+003
1.815948e+002, 4.276081e+003
1.820769e+002, 4.298868e+003
1.825591e+002, 4.316361e+003
1.830412e+002, 4.320233e+003
1.835233e+002, 4.317819e+003
1.840054e+002, 4.316188e+003
1.844875e+002, 4.317715e+003
1.849696e+002, 4.321044e+003
1.854518e+002, 4.324037e+003
1.859339e+002, 4.327210e+003
1.864160e+002, 4.328668e+003
1.868981e+002, 4.328602e+003
1.873802e+002, 4.326483e+003
1.878623e+002, 4.321230e+003
1.883445e+002, 4.311885e+003
1.888266e+002, 4.299625e+003
1.893087e+002, 4.288870e+003
1.897908e+002, 4.282759e+003
1.902729e+002, 4.273356e+003
1.907550e+002, 4.257002e+003
1.912372e+002, 4.236981e+003
1.917193e+002, 4.217955e+003
1.922014e+002, 4.202934e+003
1.926835e+002, 4.191012e+003
1.931656e+002, 4.176079e+003
1.936477e+002, 4.149884e+003
1.941299e+002, 4.129320e+003
1.946120e+002, 4.119812e+003
1.950941e+002, 4.117682e+003
1.955762e+002, 4.116782e+003
1.960583e+002, 4.112875e+003
1.965404e+002, 4.106306e+003
1.970226e+002, 4.103524e+003
1.975047e+002, 4.104770e+003
1.979868e+002, 4.109110e+003
1.984689e+002, 4.117513e+003
1.989510e+002, 4.128962e+003
1.994331e+002, 4.141728e+003
1.999153e+002, 4.155061e+003
2.003974e+002, 4.168784e+003
2.008795e+002, 4.178165e+003
2.013616e+002, 4.185453e+003
2.018437e+002, 4.187428e+003
2.023258e+002, 4.182467e+003
2.028080e+002, 4.170874e+003
2.032901e+002, 4.153793e+003
2.037722e+002, 4.131028e+003
2.042543e+002, 4.102777e+003
2.047364e+002, 4.074615e+003
2.052185e+002, 4.045237e+003
2.057007e+002, 4.017008e+003
2.061828e+002, 3.992053e+003
2.066649e+002, 3.970213e+003
2.071470e+002, 3.949630e+003
2.076291e+002, 3.930040e+003
2.081112e+002, 3.910660e+003
2.085934e+002, 3.888341e+003
2.090755e+002, 3.858392e+003
2.095576e+002, 3.828530e+003
2.100397e+002, 3.807495e+003
2.105218e+002, 3.795700e+003
2.110039e+002, 3.782726e+003
2.114861e+002, 3.759876e+003
2.119682e+002, 3.731088e+003
2.124503e+002, 3.704037e+003
2.129324e+002, 3.679950e+003
2.134145e+002, 3.658418e+003
2.138967e+002, 3.639393e+003
2.143788e+002, 3.623126e+003
2.148609e+002, 3.607980e+003
2.153430e+002, 3.592122e+003
2.158251e+002, 3.576898e+003
2.163072e+002, 3.564502e+003
2.167894e+002, 3.556426e+003
2.172715e+002, 3.550577e+003
2.177536e+002, 3.542628e+003
2.182357e+002, 3.530843e+003
2.187178e+002, 3.521899e+003
2.191999e+002, 3.519248e+003
2.196821e+002, 3.520555e+003
2.201642e+002, 3.523729e+003
2.206463e+002, 3.528262e+003
2.211284e+002, 3.533733e+003
2.216105e+002, 3.539392e+003
2.220926e+002, 3.545724e+003
2.225748e+002, 3.551287e+003
2.230569e+002, 3.557381e+003
2.235390e+002, 3.562092e+003
2.240211e+002, 3.563116e+003
2.245032e+002, 3.559209e+003
2.249853e+002, 3.551501e+003
2.254675e+002, 3.542630e+003
2.259496e+002, 3.531066e+003
2.264317e+002, 3.521041e+003
2.269138e+002, 3.515113e+003
2.273959e+002, 3.510404e+003
2.278780e+002, 3.503209e+003
2.283602e+002, 3.491491e+003
2.288423e+002, 3.477398e+003
2.293244e+002, 3.467891e+003
2.298065e+002, 3.465734e+003
2.302886e+002, 3.464853e+003
2.307707e+002, 3.463999e+003
2.312529e+002, 3.463936e+003
2.317350e+002, 3.466181e+003
2.322171e+002, 3.471509e+003
2.326992e+002, 3.478369e+003
2.331813e+002, 3.481752e+003
2.336634e+002, 3.476098e+003
2.341456e+002, 3.473449e+003
2.346277e+002, 3.477093e+003
2.351098e+002, 3.483317e+003
2.355919e+002, 3.487402e+003
2.360740e+002, 3.487173e+003
2.365561e+002, 3.484656e+003
2.370383e+002, 3.485845e+003
2.375204e+002, 3.495364e+003
2.380025e+002, 3.503475e+003
2.384846e+002, 3.509204e+003
2.389667e+002, 3.513464e+003
2.394488e+002, 3.517281e+003
2.399310e+002, 3.521116e+003
2.404131e+002, 3.524879e+003
2.408952e+002, 3.528325e+003
2.413773e+002, 3.532680e+003
2.418594e+002, 3.535104e+003
2.423415e+002, 3.534206e+003
2.428237e+002, 3.531560e+003
2.433058e+002, 3.529163e+003
2.437879e+002, 3.527757e+003
2.442700e+002, 3.526795e+003
2.447521e+002, 3.525551e+003
2.452342e+002, 3.527423e+003
2.457164e+002, 3.522364e+003
2.461985e+002, 3.503649e+003
2.466806e+002, 3.478590e+003
2.471627e+002, 3.457253e+003
2.476448e+002, 3.442947e+003
2.481269e+002, 3.432281e+003
2.486091e+002, 3.419166e+003
2.490912e+002, 3.402706e+003
2.495733e+002, 3.387257e+003
2.500554e+002, 3.373065e+003
2.505375e+002, 3.360449e+003
2.510196e+002, 3.350876e+003
2.515018e+002, 3.345358e+003
2.519839e+002, 3.340161e+003
2.524660e+002, 3.327837e+003
2.529481e+002, 3.307500e+003
2.534302e+002, 3.292599e+003
2.539123e+002, 3.290118e+003
2.543945e+002, 3.294125e+003
2.548766e+002, 3.295883e+003
2.553587e+002, 3.293600e+003
2.558408e+002, 3.289105e+003
2.563229e+002, 3.283997e+003
2.568051e+002, 3.278356e+003
2.572872e+002, 3.272425e+003
2.577693e+002, 3.264825e+003
2.582514e+002, 3.257313e+003
2.587335e+002, 3.252896e+003
2.592156e+002, 3.252287e+003
2.596978e+002, 3.253558e+003
2.601799e+002, 3.255909e+003
2.606620e+002, 3.258889e+003
2.611441e+002, 3.260797e+003
2.616262e+002, 3.261423e+003
2.621083e+002, 3.260519e+003
2.625905e+002, 3.256785e+003
2.630726e+002, 3.249133e+003
2.635547e+002, 3.242332e+003
2.640368e+002, 3.240997e+003
2.645189e+002, 3.243292e+003
2.650010e+002, 3.246091e+003
2.654832e+002, 3.249767e+003
2.659653e+002, 3.252887e+003
2.664474e+002, 3.252863e+003
2.669295e+002, 3.249165e+003
2.674116e+002, 3.244379e+003
2.678937e+002, 3.238705e+003
2.683759e+002, 3.233251e+003
2.688580e+002, 3.229857e+003
2.693401e+002, 3.229948e+003
2.698222e+002, 3.231636e+003
2.703043e+002, 3.231782e+003
2.707864e+002, 3.229756e+003
2.712686e+002, 3.228955e+003
2.717507e+002, 3.233667e+003
2.722328e+002, 3.239604e+003
2.727149e+002, 3.241705e+003
2.731970e+002, 3.237538e+003
2.736791e+002, 3.231366e+003
2.741613e+002, 3.228734e+003
2.746434e+002, 3.230012e+003
2.751255e+002, 3.232729e+003
2.756076e+002, 3.238802e+003
2.760897e+002, 3.244543e+003
2.765718e+002, 3.245875e+003
2.770540e+002, 3.241247e+003
2.775361e+002, 3.236237e+003
2.780182e+002, 3.237830e+003
2.785003e+002, 3.246904e+003
2.789824e+002, 3.256634e+003
2.794645e+002, 3.268351e+003
2.799467e+002, 3.278078e+003
2.804288e+002, 3.281699e+003
2.809109e+002, 3.278745e+003
2.813930e+002, 3.274710e+003
2.818751e+002, 3.275454e+003
2.823572e+002, 3.281391e+003
2.828394e+002, 3.287085e+003
2.833215e+002, 3.292938e+003
2.838036e+002, 3.297195e+003
2.842857e+002, 3.298190e+003
2.847678e+002, 3.296181e+003
2.852499e+002, 3.293443e+003
2.857321e+002, 3.292510e+003
2.862142e+002, 3.293465e+003
2.866963e+002, 3.291872e+003
2.871784e+002, 3.283890e+003
2.876605e+002, 3.276900e+003
2.881426e+002, 3.275288e+003
2.886248e+002, 3.277858e+003
2.891069e+002, 3.280397e+003
2.895890e+002, 3.279057e+003
2.900711e+002, 3.274297e+003
2.905532e+002, 3.272353e+003
2.910353e+002, 3.274363e+003
2.915175e+002, 3.278072e+003
2.919996e+002, 3.283185e+003
2.924817e+002, 3.289155e+003
2.929638e+002, 3.295001e+003
2.934459e+002, 3.300042e+003
2.939280e+002, 3.304570e+003
2.944102e+002, 3.309456e+003
2.948923e+002, 3.313401e+003
2.953744e+002, 3.320153e+003
2.958565e+002, 3.331525e+003
2.963386e+002, 3.345757e+003
2.968207e+002, 3.360774e+003
2.973029e+002, 3.375682e+003
2.977850e+002, 3.390465e+003
2.982671e+002, 3.404730e+003
2.987492e+002, 3.417509e+003
2.992313e+002, 3.431971e+003
2.997134e+002, 3.451289e+003
3.001956e+002, 3.471168e+003
3.006777e+002, 3.487439e+003
3.011598e+002, 3.498729e+003
3.016419e+002, 3.506858e+003
3.021240e+002, 3.514986e+003
3.026061e+002, 3.523967e+003
3.030883e+002, 3.530325e+003
3.035704e+002, 3.533534e+003
3.040525e+002, 3.534157e+003
3.045346e+002, 3.532072e+003
3.050167e+002, 3.527365e+003
3.054988e+002, 3.520799e+003
3.059810e+002, 3.513291e+003
3.064631e+002, 3.504943e+003
3.069452e+002, 3.495051e+003
3.074273e+002, 3.480345e+003
3.079094e+002, 3.466637e+003
3.083915e+002, 3.457220e+003
3.088737e+002, 3.451686e+003
3.093558e+002, 3.447073e+003
3.098379e+002, 3.441195e+003
3.103200e+002, 3.434049e+003
3.108021e+002, 3.424751e+003
3.112842e+002, 3.406783e+003
3.117664e+002, 3.393457e+003
3.122485e+002, 3.391781e+003
3.127306e+002, 3.398443e+003
3.132127e+002, 3.405902e+003
3.136948e+002, 3.408964e+003
3.141769e+002, 3.408488e+003
3.146591e+002, 3.409705e+003
3.151412e+002, 3.412876e+003
3.156233e+002, 3.417693e+003
3.161054e+002, 3.422934e+003
3.165875e+002, 3.429876e+003
3.170696e+002, 3.441059e+003
3.175518e+002, 3.458352e+003
3.180339e+002, 3.478497e+003
3.185160e+002, 3.492006e+003
3.189981e+002, 3.493038e+003
3.194802e+002, 3.499694e+003
3.199623e+002, 3.519034e+003
3.204445e+002, 3.543174e+003
3.209266e+002, 3.565373e+003
3.214087e+002, 3.583626e+003
3.218908e+002, 3.599917e+003
3.223729e+002, 3.616265e+003
3.228550e+002, 3.631626e+003
3.233372e+002, 3.651000e+003
3.238193e+002, 3.678033e+003
3.243014e+002, 3.707018e+003
3.247835e+002, 3.733824e+003
3.252656e+002, 3.758454e+003
3.257477e+002, 3.785428e+003
3.262299e+002, 3.820107e+003
3.267120e+002, 3.863101e+003
3.271941e+002, 3.906090e+003
3.276762e+002, 3.946381e+003
3.281583e+002, 3.989281e+003
3.286404e+002, 4.037210e+003
3.291226e+002, 4.089704e+003
3.296047e+002, 4.145421e+003
3.300868e+002, 4.204142e+003
3.305689e+002, 4.265393e+003
3.310510e+002, 4.325402e+003
3.315331e+002, 4.379143e+003
3.320153e+002, 4.439738e+003
3.324974e+002, 4.515876e+003
3.329795e+002, 4.599906e+003
3.334616e+002, 4.681631e+003
3.339437e+002, 4.757264e+003
3.344258e+002, 4.826362e+003
3.349080e+002, 4.886980e+003
3.353901e+002, 4.938359e+003
3.358722e+002, 4.983754e+003
3.363543e+002, 5.030812e+003
3.368365e+002, 5.069741e+003
3.373186e+002, 5.091462e+003
3.378007e+002, 5.093356e+003
3.382828e+002, 5.079154e+003
3.387649e+002, 5.052174e+003
3.392470e+002, 5.012083e+003
3.397292e+002, 4.962193e+003
3.402113e+002, 4.894252e+003
3.406934e+002, 4.823028e+003
3.411755e+002, 4.757438e+003
3.416576e+002, 4.697950e+003
3.421397e+002, 4.640048e+003
3.426219e+002, 4.577906e+003
3.431040e+002, 4.512645e+003
3.435861e+002, 4.457085e+003
3.440682e+002, 4.414495e+003
3.445503e+002, 4.379154e+003
3.450324e+002, 4.345994e+003
3.455146e+002, 4.316142e+003
3.459967e+002, 4.292543e+003
3.464788e+002, 4.278335e+003
3.469609e+002, 4.270999e+003
3.474430e+002, 4.264358e+003
3.479251e+002, 4.257529e+003
3.484073e+002, 4.253992e+003
3.488894e+002, 4.257395e+003
3.493715e+002, 4.264455e+003
3.498536e+002, 4.271321e+003
3.503357e+002, 4.276343e+003
3.508178e+002, 4.282239e+003
3.513000e+002, 4.293574e+003
3.517821e+002, 4.310766e+003
3.522642e+002, 4.325905e+003
3.527463e+002, 4.337228e+003
3.532284e+002, 4.344459e+003
3.537105e+002, 4.347133e+003
3.541927e+002, 4.344964e+003
3.546748e+002, 4.341106e+003
3.551569e+002, 4.340104e+003
3.556390e+002, 4.339938e+003
3.561211e+002, 4.331423e+003
3.566032e+002, 4.312146e+003
3.570854e+002, 4.285073e+003
3.575675e+002, 4.251002e+003
3.580496e+002, 4.211008e+003
3.585317e+002, 4.170870e+003
3.590138e+002, 4.133181e+003
3.594959e+002, 4.096430e+003
3.599781e+002, 4.058292e+003
3.604602e+002, 4.019046e+003
3.609423e+002, 3.977053e+003
3.614244e+002, 3.929682e+003
3.619065e+002, 3.879147e+003
3.623886e+002, 3.830599e+003
3.628708e+002, 3.783565e+003
3.633529e+002, 3.740066e+003
3.638350e+002, 3.702200e+003
3.643171e+002, 3.669759e+003
3.647992e+002, 3.641368e+003
3.652813e+002, 3.618048e+003
3.657635e+002, 3.597212e+003
3.662456e+002, 3.572774e+003
3.667277e+002, 3.542878e+003
3.672098e+002, 3.515693e+003
3.676919e+002, 3.494898e+003
3.681740e+002, 3.479005e+003
3.686562e+002, 3.465848e+003
3.691383e+002, 3.455239e+003
3.696204e+002, 3.445444e+003
3.701025e+002, 3.433417e+003
3.705846e+002, 3.418758e+003
3.710667e+002, 3.408794e+003
3.715489e+002, 3.409608e+003
3.720310e+002, 3.412088e+003
3.725131e+002, 3.406533e+003
3.729952e+002, 3.393072e+003
3.734773e+002, 3.380737e+003
3.739594e+002, 3.376819e+003
3.744416e+002, 3.380331e+003
3.749237e+002, 3.379711e+003
3.754058e+002, 3.372253e+003
3.758879e+002, 3.364093e+003
3.763700e+002, 3.358473e+003
3.768521e+002, 3.353892e+003
3.773343e+002, 3.347427e+003
3.778164e+002, 3.337848e+003
3.782985e+002, 3.325245e+003
3.787806e+002, 3.309413e+003
3.792627e+002, 3.284902e+003
3.797448e+002, 3.266422e+003
3.802270e+002, 3.259943e+003
3.807091e+002, 3.257201e+003
3.811912e+002, 3.249850e+003
3.816733e+002, 3.236516e+003
3.821554e+002, 3.222089e+003
3.826375e+002, 3.212074e+003
3.831197e+002, 3.207707e+003
3.836018e+002, 3.201646e+003
3.840839e+002, 3.191087e+003
3.845660e+002, 3.181847e+003
3.850481e+002, 3.177867e+003
3.855302e+002, 3.177466e+003
3.860124e+002, 3.175892e+003
3.864945e+002, 3.169748e+003
3.869766e+002, 3.160457e+003
3.874587e+002, 3.155592e+003
3.879408e+002, 3.159882e+003
3.884229e+002, 3.163220e+003
3.889051e+002, 3.163430e+003
3.893872e+002, 3.162770e+003
3.898693e+002, 3.164141e+003
3.903514e+002, 3.168338e+003
3.908335e+002, 3.173077e+003
3.913156e+002, 3.174130e+003
3.917978e+002, 3.168883e+003
3.922799e+002, 3.167179e+003
3.927620e+002, 3.172089e+003
3.932441e+002, 3.177768e+003
3.937262e+002, 3.180201e+003
3.942083e+002, 3.180377e+003
3.946905e+002, 3.182732e+003
3.951726e+002, 3.191606e+003
3.956547e+002, 3.206169e+003
3.961368e+002, 3.217686e+003
3.966189e+002, 3.223657e+003
3.971010e+002, 3.229991e+003
3.975832e+002, 3.238172e+003
3.980653e+002, 3.247895e+003
3.985474e+002, 3.258927e+003
3.990295e+002, 3.271393e+003
3.995116e+002, 3.284391e+003
3.999937e+002, 3.296255e+003
4.004759e+002, 3.306580e+003
4.009580e+002, 3.317871e+003
4.014401e+002, 3.333537e+003
4.019222e+002, 3.348182e+003
4.024043e+002, 3.358194e+003
4.028864e+002, 3.363333e+003
4.033686e+002, 3.365271e+003
4.038507e+002, 3.364903e+003
4.043328e+002, 3.362275e+003
4.048149e+002, 3.357181e+003
4.052970e+002, 3.348606e+003
4.057791e+002, 3.339724e+003
4.062613e+002, 3.333698e+003
4.067434e+002, 3.328896e+003
4.072255e+002, 3.321622e+003
4.077076e+002, 3.308955e+003
4.081897e+002, 3.295060e+003
4.086718e+002, 3.284244e+003
4.091540e+002, 3.276442e+003
4.096361e+002, 3.270804e+003
4.101182e+002, 3.266650e+003
4.106003e+002, 3.265011e+003
4.110824e+002, 3.267815e+003
4.115645e+002, 3.276330e+003
4.120467e+002, 3.284051e+003
4.125288e+002, 3.286815e+003
4.130109e+002, 3.287243e+003
4.134930e+002, 3.290480e+003
4.139751e+002, 3.297782e+003
4.144572e+002, 3.305492e+003
4.149394e+002, 3.309225e+003
4.154215e+002, 3.308792e+003
4.159036e+002, 3.311466e+003
4.163857e+002, 3.318530e+003
4.168678e+002, 3.327896e+003
4.173499e+002, 3.338595e+003
4.178321e+002, 3.350458e+003
4.183142e+002, 3.364093e+003
4.187963e+002, 3.380464e+003
4.192784e+002, 3.397598e+003
4.197605e+002, 3.408313e+003
4.202426e+002, 3.407381e+003
4.207248e+002, 3.407586e+003
4.212069e+002, 3.411735e+003
4.216890e+002, 3.416946e+003
4.221711e+002, 3.420217e+003
4.226532e+002, 3.420900e+003
4.231353e+002, 3.420441e+003
4.236175e+002, 3.420698e+003
4.240996e+002, 3.422261e+003
4.245817e+002, 3.421479e+003
4.250638e+002, 3.417674e+003
4.255459e+002, 3.412584e+003
4.260280e+002, 3.406486e+003
4.265102e+002, 3.399644e+003
4.269923e+002, 3.392606e+003
4.274744e+002, 3.385818e+003
4.279565e+002, 3.378563e+003
4.284386e+002, 3.368532e+003
4.289207e+002, 3.354349e+003
4.294029e+002, 3.339615e+003
4.298850e+002, 3.323657e+003
4.303671e+002, 3.308207e+003
4.308492e+002, 3.294775e+003
4.313313e+002, 3.283555e+003
4.318134e+002, 3.273931e+003
4.322956e+002, 3.265893e+003
4.327777e+002, 3.259491e+003
4.332598e+002, 3.251328e+003
4.337419e+002, 3.238108e+003
4.342241e+002, 3.227556e+003
4.347062e+002, 3.223804e+003
4.351883e+002, 3.224865e+003
4.356704e+002, 3.227130e+003
4.361525e+002, 3.229493e+003
4.366346e+002, 3.231643e+003
4.371168e+002, 3.232203e+003
4.375989e+002, 3.230753e+003
4.380810e+002, 3.232278e+003
4.385631e+002, 3.240305e+003
4.390452e+002, 3.250878e+003
4.395273e+002, 3.258859e+003
4.400095e+002, 3.263745e+003
4.404916e+002, 3.270327e+003
4.409737e+002, 3.282636e+003
4.414558e+002, 3.298180e+003
4.419379e+002, 3.310456e+003
4.424200e+002, 3.317794e+003
4.429022e+002, 3.327808e+003
4.433843e+002, 3.348297e+003
4.438664e+002, 3.377686e+003
4.443485e+002, 3.404955e+003
4.448306e+002, 3.426561e+003
4.453127e+002, 3.448890e+003
4.457949e+002, 3.476427e+003
4.462770e+002, 3.507713e+003
4.467591e+002, 3.539529e+003
4.472412e+002, 3.571108e+003
4.477233e+002, 3.601020e+003
4.482054e+002, 3.626303e+003
4.486876e+002, 3.644572e+003
4.491697e+002, 3.663886e+003
4.496518e+002, 3.692255e+003
4.501339e+002, 3.716108e+003
4.506160e+002, 3.723874e+003
4.510981e+002, 3.716145e+003
4.515803e+002, 3.701512e+003
4.520624e+002, 3.687093e+003
4.525445e+002, 3.672306e+003
4.530266e+002, 3.649596e+003
4.535087e+002, 3.611064e+003
4.539908e+002, 3.573251e+003
4.544730e+002, 3.538698e+003
4.549551e+002, 3.506022e+003
4.554372e+002, 3.473208e+003
4.559193e+002, 3.439820e+003
4.564014e+002, 3.407896e+003
4.568835e+002, 3.380380e+003
4.573657e+002, 3.357721e+003
4.578478e+002, 3.337666e+003
4.583299e+002, 3.319941e+003
4.588120e+002, 3.305338e+003
4.592941e+002, 3.294763e+003
4.597762e+002, 3.287624e+003
4.602584e+002, 3.282579e+003
4.607405e+002, 3.279169e+003
4.612226e+002, 3.277084e+003
4.617047e+002, 3.275342e+003
4.621868e+002, 3.273566e+003
4.626689e+002, 3.273992e+003
4.631511e+002, 3.278257e+003
4.636332e+002, 3.284704e+003
4.641153e+002, 3.291906e+003
4.645974e+002, 3.299838e+003
4.650795e+002, 3.308163e+003
4.655616e+002, 3.315986e+003
4.660438e+002, 3.324199e+003
4.665259e+002, 3.335821e+003
4.670080e+002, 3.351831e+003
4.674901e+002, 3.367098e+003
4.679722e+002, 3.376979e+003
4.684543e+002, 3.382533e+003
4.689365e+002, 3.389679e+003
4.694186e+002, 3.399339e+003
4.699007e+002, 3.409942e+003
4.703828e+002, 3.421081e+003
4.708649e+002, 3.432467e+003
4.713470e+002, 3.444188e+003
4.718292e+002, 3.456497e+003
4.723113e+002, 3.467001e+003
4.727934e+002, 3.471809e+003
4.732755e+002, 3.468497e+003
4.737576e+002, 3.465738e+003
4.742397e+002, 3.466376e+003
4.747219e+002, 3.465024e+003
4.752040e+002, 3.456663e+003
4.756861e+002, 3.443305e+003
4.761682e+002, 3.430932e+003
4.766503e+002, 3.423458e+003
4.771324e+002, 3.419711e+003
4.776146e+002, 3.415472e+003
4.780967e+002, 3.411959e+003
4.785788e+002, 3.405711e+003
4.790609e+002, 3.395809e+003
4.795430e+002, 3.383838e+003
4.800251e+002, 3.370416e+003
4.805073e+002, 3.356005e+003
4.809894e+002, 3.341417e+003
4.814715e+002, 3.327064e+003
4.819536e+002, 3.313085e+003
4.824357e+002, 3.301678e+003
4.829178e+002, 3.295413e+003
4.834000e+002, 3.287147e+003
4.838821e+002, 3.272874e+003
4.843642e+002, 3.255240e+003
4.848463e+002, 3.237248e+003
4.853284e+002, 3.219189e+003
4.858105e+002, 3.202299e+003
4.862927e+002, 3.188175e+003
4.867748e+002, 3.176360e+003
4.872569e+002, 3.164673e+003
4.877390e+002, 3.153344e+003
4.882211e+002, 3.140483e+003
4.887032e+002, 3.122690e+003
4.891854e+002, 3.100911e+003
4.896675e+002, 3.081204e+003
4.901496e+002, 3.065013e+003
4.906317e+002, 3.051078e+003
4.911138e+002, 3.039604e+003
4.915959e+002, 3.029940e+003
4.920781e+002, 3.019722e+003
4.925602e+002, 3.007850e+003
4.930423e+002, 2.994950e+003
4.935244e+002, 2.982259e+003
4.940065e+002, 2.969889e+003
4.944886e+002, 2.957589e+003
4.949708e+002, 2.945587e+003
4.954529e+002, 2.933464e+003
4.959350e+002, 2.919557e+003
4.964171e+002, 2.904801e+003
4.968992e+002, 2.892800e+003
4.973813e+002, 2.886670e+003
4.978635e+002, 2.885255e+003
4.983456e+002, 2.881107e+003
4.988277e+002, 2.870414e+003
4.993098e+002, 2.862640e+003
4.997919e+002, 2.862190e+003
5.002740e+002, 2.863053e+003
5.007562e+002, 2.859823e+003
5.012383e+002, 2.851643e+003
5.017204e+002, 2.841603e+003
5.022025e+002, 2.831827e+003
5.026846e+002, 2.822526e+003
5.031667e+002, 2.816253e+003
5.036489e+002, 2.815063e+003
5.041310e+002, 2.813187e+003
5.046131e+002, 2.805952e+003
5.050952e+002, 2.796642e+003
5.055773e+002, 2.790427e+003
5.060594e+002, 2.789738e+003
5.065416e+002, 2.789213e+003
5.070237e+002, 2.783034e+003
5.075058e+002, 2.773208e+003
5.079879e+002, 2.767442e+003
5.084700e+002, 2.768389e+003
5.089521e+002, 2.770371e+003
5.094343e+002, 2.766666e+003
5.099164e+002, 2.757285e+003
5.103985e+002, 2.750715e+003
5.108806e+002, 2.749675e+003
5.113627e+002, 2.749411e+003
5.118448e+002, 2.747377e+003
5.123270e+002, 2.744050e+003
5.128091e+002, 2.740832e+003
5.132912e+002, 2.738358e+003
5.137733e+002, 2.735926e+003
5.142554e+002, 2.732063e+003
5.147375e+002, 2.725336e+003
5.152197e+002, 2.720652e+003
5.157018e+002, 2.718076e+003
5.161839e+002, 2.717175e+003
5.166660e+002, 2.718621e+003
5.171481e+002, 2.721520e+003
5.176302e+002, 2.724251e+003
5.181124e+002, 2.726018e+003
5.185945e+002, 2.726394e+003
5.190766e+002, 2.724074e+003
5.195587e+002, 2.718344e+003
5.200408e+002, 2.712054e+003
5.205229e+002, 2.704248e+003
5.210051e+002, 2.697183e+003
5.214872e+002, 2.691740e+003
5.219693e+002, 2.688211e+003
5.224514e+002, 2.687695e+003
5.229335e+002, 2.694379e+003
5.234156e+002, 2.703321e+003
5.238978e+002, 2.704070e+003
5.243799e+002, 2.696123e+003
5.248620e+002, 2.688464e+003
5.253441e+002, 2.685503e+003
5.258262e+002, 2.685600e+003
5.263083e+002, 2.685328e+003
5.267905e+002, 2.684786e+003
5.272726e+002, 2.683866e+003
5.277547e+002, 2.682405e+003
5.282368e+002, 2.680703e+003
5.287189e+002, 2.679330e+003
5.292010e+002, 2.678211e+003
5.296832e+002, 2.676162e+003
5.301653e+002, 2.671788e+003
5.306474e+002, 2.665932e+003
5.311295e+002, 2.664256e+003
5.316116e+002, 2.674352e+003
5.320938e+002, 2.679022e+003
5.325759e+002, 2.671605e+003
5.330580e+002, 2.661403e+003
5.335401e+002, 2.656925e+003
5.340222e+002, 2.659201e+003
5.345043e+002, 2.663447e+003
5.349865e+002, 2.665283e+003
5.354686e+002, 2.664932e+003
5.359507e+002, 2.665452e+003
5.364328e+002, 2.668456e+003
5.369149e+002, 2.669242e+003
5.373970e+002, 2.664850e+003
5.378792e+002, 2.658175e+003
5.383613e+002, 2.651828e+003
5.388434e+002, 2.646263e+003
5.393255e+002, 2.641911e+003
5.398076e+002, 2.639029e+003
5.402897e+002, 2.637653e+003
5.407719e+002, 2.639090e+003
5.412540e+002, 2.644325e+003
5.417361e+002, 2.646659e+003
5.422182e+002, 2.639108e+003
5.427003e+002, 2.624530e+003
5.431824e+002, 2.617029e+003
5.436646e+002, 2.621831e+003
5.441467e+002, 2.626748e+003
5.446288e+002, 2.627915e+003
5.451109e+002, 2.626635e+003
5.455930e+002, 2.623589e+003
5.460751e+002, 2.619309e+003
5.465573e+002, 2.616456e+003
5.470394e+002, 2.618216e+003
5.475215e+002, 2.624763e+003
5.480036e+002, 2.628203e+003
5.484857e+002, 2.624020e+003
5.489678e+002, 2.621805e+003
5.494500e+002, 2.626380e+003
5.499321e+002, 2.632206e+003
5.504142e+002, 2.632002e+003
5.508963e+002, 2.624281e+003
5.513784e+002, 2.615868e+003
5.518605e+002, 2.615376e+003
5.523427e+002, 2.622090e+003
5.528248e+002, 2.624944e+003
5.533069e+002, 2.621814e+003
5.537890e+002, 2.618488e+003
5.542711e+002, 2.618605e+003
5.547532e+002, 2.620507e+003
5.552354e+002, 2.622226e+003
5.557175e+002, 2.624068e+003
5.561996e+002, 2.624017e+003
5.566817e+002, 2.619311e+003
5.571638e+002, 2.612110e+003
5.576459e+002, 2.606558e+003
5.581281e+002, 2.603437e+003
5.586102e+002, 2.602120e+003
5.590923e+002, 2.602502e+003
5.595744e+002, 2.604454e+003
5.600565e+002, 2.605021e+003
5.605386e+002, 2.603180e+003
5.610208e+002, 2.601479e+003
5.615029e+002, 2.600645e+003
5.619850e+002, 2.600189e+003
5.624671e+002, 2.599380e+003
5.629492e+002, 2.598146e+003
5.634313e+002, 2.597240e+003
5.639135e+002, 2.597720e+003
5.643956e+002, 2.599532e+003
5.648777e+002, 2.599871e+003
5.653598e+002, 2.599251e+003
5.658419e+002, 2.596165e+003
5.663240e+002, 2.586803e+003
5.668062e+002, 2.576778e+003
5.672883e+002, 2.573016e+003
5.677704e+002, 2.577091e+003
5.682525e+002, 2.581900e+003
5.687346e+002, 2.581687e+003
5.692167e+002, 2.577966e+003
5.696989e+002, 2.574648e+003
5.701810e+002, 2.572003e+003
5.706631e+002, 2.570177e+003
5.711452e+002, 2.569186e+003
5.716273e+002, 2.569161e+003
5.721094e+002, 2.570537e+003
5.725916e+002, 2.574999e+003
5.730737e+002, 2.577747e+003
5.735558e+002, 2.575795e+003
5.740379e+002, 2.572477e+003
5.745200e+002, 2.571721e+003
5.750021e+002, 2.573661e+003
5.754843e+002, 2.575423e+003
5.759664e+002, 2.574535e+003
5.764485e+002, 2.571614e+003
5.769306e+002, 2.570612e+003
5.774127e+002, 2.573043e+003
5.778948e+002, 2.574958e+003
5.783770e+002, 2.575777e+003
5.788591e+002, 2.575936e+003
5.793412e+002, 2.575722e+003
5.798233e+002, 2.575158e+003
5.803054e+002, 2.574117e+003
5.807875e+002, 2.572087e+003
5.812697e+002, 2.569654e+003
5.817518e+002, 2.568396e+003
5.822339e+002, 2.568399e+003
5.827161e+002, 2.568914e+003
5.831982e+002, 2.570590e+003
5.836803e+002, 2.571749e+003
5.841624e+002, 2.569411e+003
5.846445e+002, 2.563174e+003
5.851266e+002, 2.557845e+003
5.856088e+002, 2.555524e+003
5.860909e+002, 2.554028e+003
5.865730e+002, 2.550762e+003
5.870551e+002, 2.546497e+003
5.875372e+002, 2.544628e+003
5.880193e+002, 2.547163e+003
5.885015e+002, 2.551702e+003
5.889836e+002, 2.552784e+003
5.894657e+002, 2.548384e+003
5.899478e+002, 2.544940e+003
5.904299e+002, 2.543527e+003
5.909120e+002, 2.541914e+003
5.913942e+002, 2.538218e+003
5.918763e+002, 2.533571e+003
5.923584e+002, 2.530425e+003
5.928405e+002, 2.530022e+003
5.933226e+002, 2.531265e+003
5.938047e+002, 2.532768e+003
5.942869e+002, 2.534509e+003
5.947690e+002, 2.536003e+003
5.952511e+002, 2.536896e+003
5.957332e+002, 2.537940e+003
5.962153e+002, 2.539903e+003
5.966974e+002, 2.542553e+003
5.971796e+002, 2.545220e+003
5.976617e+002, 2.548844e+003
5.981438e+002, 2.551330e+003
5.986259e+002, 2.551229e+003
5.991080e+002, 2.549310e+003
5.995901e+002, 2.546758e+003
6.000723e+002, 2.543914e+003
6.005544e+002, 2.540691e+003
6.010365e+002, 2.536755e+003
6.015186e+002, 2.532060e+003
6.020007e+002, 2.529591e+003
6.024828e+002, 2.533022e+003
6.029650e+002, 2.534265e+003
6.034471e+002, 2.529092e+003
6.039292e+002, 2.522844e+003
6.044113e+002, 2.522113e+003
6.048934e+002, 2.527437e+003
6.053755e+002, 2.531927e+003
6.058577e+002, 2.527294e+003
6.063398e+002, 2.516841e+003
6.068219e+002, 2.514033e+003
6.073040e+002, 2.520542e+003
6.077861e+002, 2.524979e+003
6.082682e+002, 2.520253e+003
6.087504e+002, 2.511917e+003
6.092325e+002, 2.510507e+003
6.097146e+002, 2.517864e+003
6.101967e+002, 2.521726e+003
6.106788e+002, 2.514322e+003
6.111609e+002, 2.505515e+003
6.116431e+002, 2.504552e+003
6.121252e+002, 2.510293e+003
6.126073e+002, 2.517541e+003
6.130894e+002, 2.523832e+003
6.135715e+002, 2.527918e+003
6.140536e+002, 2.526358e+003
6.145358e+002, 2.515348e+003
6.150179e+002, 2.508178e+003
6.155000e+002, 2.507317e+003
6.159821e+002, 2.507928e+003
6.164642e+002, 2.508998e+003
6.169464e+002, 2.509925e+003
6.174285e+002, 2.509629e+003
6.179106e+002, 2.507349e+003
6.183927e+002, 2.505134e+003
6.188748e+002, 2.505839e+003
6.193569e+002, 2.508843e+003
6.198391e+002, 2.511239e+003
6.203212e+002, 2.512971e+003
6.208033e+002, 2.512083e+003
6.212854e+002, 2.504956e+003
6.217675e+002, 2.493522e+003
6.222496e+002, 2.489024e+003
6.227318e+002, 2.498428e+003
6.232139e+002, 2.505427e+003
6.236960e+002, 2.503738e+003
6.241781e+002, 2.498498e+003
6.246602e+002, 2.494273e+003
6.251423e+002, 2.492109e+003
6.256245e+002, 2.492115e+003
6.261066e+002, 2.494743e+003
6.265887e+002, 2.499156e+003
6.270708e+002, 2.501578e+003
6.275529e+002, 2.501440e+003
6.280350e+002, 2.500670e+003
6.285172e+002, 2.498301e+003
6.289993e+002, 2.496486e+003
6.294814e+002, 2.497360e+003
6.299635e+002, 2.500378e+003
6.304456e+002, 2.502468e+003
6.309277e+002, 2.501511e+003
6.314099e+002, 2.499661e+003
6.318920e+002, 2.499114e+003
6.323741e+002, 2.499738e+003
6.328562e+002, 2.501287e+003
6.333383e+002, 2.503892e+003
6.338204e+002, 2.506229e+003
6.343026e+002, 2.506929e+003
6.347847e+002, 2.506070e+003
6.352668e+002, 2.502552e+003
6.357489e+002, 2.490760e+003
6.362310e+002, 2.483325e+003
6.367131e+002, 2.488056e+003
6.371953e+002, 2.496996e+003
6.376774e+002, 2.500712e+003
6.381595e+002, 2.497332e+003
6.386416e+002, 2.491721e+003
6.391237e+002, 2.488152e+003
6.396058e+002, 2.486309e+003
6.400880e+002, 2.484609e+003
6.405701e+002, 2.483081e+003
6.410522e+002, 2.481463e+003
6.415343e+002, 2.478561e+003
6.420164e+002, 2.476442e+003
6.424985e+002, 2.479037e+003
6.429807e+002, 2.486953e+003
6.434628e+002, 2.490870e+003
6.439449e+002, 2.484360e+003
6.444270e+002, 2.476149e+003
6.449091e+002, 2.473225e+003
6.453912e+002, 2.474564e+003
6.458734e+002, 2.476773e+003
6.463555e+002, 2.478463e+003
6.468376e+002, 2.479707e+003
6.473197e+002, 2.480538e+003
6.478018e+002, 2.480888e+003
6.482839e+002, 2.481202e+003
6.487661e+002, 2.481402e+003
6.492482e+002, 2.481644e+003
6.497303e+002, 2.482250e+003
6.502124e+002, 2.482783e+003
6.506945e+002, 2.482896e+003
6.511766e+002, 2.482517e+003
6.516588e+002, 2.481077e+003
6.521409e+002, 2.477015e+003
6.526230e+002, 2.471924e+003
6.531051e+002, 2.468316e+003
6.535872e+002, 2.466421e+003
6.540693e+002, 2.469069e+003
6.545515e+002, 2.479461e+003
6.550336e+002, 2.492489e+003
6.555157e+002, 2.497180e+003
6.559978e+002, 2.488596e+003
6.564799e+002, 2.482941e+003
6.569620e+002, 2.483056e+003
6.574442e+002, 2.483366e+003
6.579263e+002, 2.479611e+003
6.584084e+002, 2.474221e+003
6.588905e+002, 2.472534e+003
6.593726e+002, 2.476689e+003
6.598547e+002, 2.481768e+003
6.603369e+002, 2.480080e+003
6.608190e+002, 2.472300e+003
6.613011e+002, 2.468977e+003
6.617832e+002, 2.472264e+003
6.622653e+002, 2.475490e+003
6.627474e+002, 2.474912e+003
6.632296e+002, 2.471875e+003
6.637117e+002, 2.468925e+003
6.641938e+002, 2.465738e+003
6.646759e+002, 2.463847e+003
6.651580e+002, 2.465317e+003
6.656401e+002, 2.467093e+003
6.661223e+002, 2.466278e+003
6.666044e+002, 2.463189e+003
6.670865e+002, 2.459281e+003
6.675686e+002, 2.455224e+003
6.680507e+002, 2.451736e+003
6.685328e+002, 2.450367e+003
6.690150e+002, 2.451692e+003
6.694971e+002, 2.452674e+003
6.699792e+002, 2.453126e+003
6.704613e+002, 2.453396e+003
6.709434e+002, 2.454289e+003
6.714255e+002, 2.454899e+003
6.719077e+002, 2.453488e+003
6.723898e+002, 2.449254e+003
6.728719e+002, 2.445372e+003
6.733540e+002, 2.444843e+003
6.738361e+002, 2.445499e+003
6.743182e+002, 2.443401e+003
6.748004e+002, 2.438665e+003
6.752825e+002, 2.434782e+003
6.757646e+002, 2.433777e+003
6.762467e+002, 2.434745e+003
6.767288e+002, 2.435662e+003
6.772109e+002, 2.436629e+003
6.776931e+002, 2.437297e+003
6.781752e+002, 2.439151e+003
6.786573e+002, 2.439166e+003
6.791394e+002, 2.433423e+003
6.796215e+002, 2.425733e+003
6.801036e+002, 2.422929e+003
6.805858e+002, 2.427564e+003
6.810679e+002, 2.433217e+003
6.815500e+002, 2.433638e+003
6.820321e+002, 2.430192e+003
6.825142e+002, 2.426360e+003
6.829963e+002, 2.422372e+003
6.834785e+002, 2.419162e+003
6.839606e+002, 2.417383e+003
6.844427e+002, 2.416520e+003
6.849248e+002, 2.415208e+003
6.854069e+002, 2.412210e+003
6.858890e+002, 2.411838e+003
6.863712e+002, 2.418271e+003
6.868533e+002, 2.423331e+003
6.873354e+002, 2.421447e+003
6.878175e+002, 2.415369e+003
6.882996e+002, 2.410262e+003
6.887817e+002, 2.408088e+003
6.892639e+002, 2.407271e+003
6.897460e+002, 2.406235e+003
6.902281e+002, 2.404986e+003
6.907102e+002, 2.403197e+003
6.911923e+002, 2.400553e+003
6.916744e+002, 2.398940e+003
6.921566e+002, 2.399761e+003
6.926387e+002, 2.401877e+003
6.931208e+002, 2.402968e+003
6.936029e+002, 2.402746e+003
6.940850e+002, 2.402900e+003
6.945671e+002, 2.403362e+003
6.950493e+002, 2.404565e+003
6.955314e+002, 2.408590e+003
6.960135e+002, 2.413145e+003
6.964956e+002, 2.413005e+003
6.969777e+002, 2.406547e+003
6.974598e+002, 2.398994e+003
6.979420e+002, 2.397185e+003
6.984241e+002, 2.400904e+003
6.989062e+002, 2.405311e+003
6.993883e+002, 2.411567e+003
6.998704e+002, 2.415116e+003
7.003525e+002, 2.411983e+003
7.008347e+002, 2.406455e+003
7.013168e+002, 2.404240e+003
7.017989e+002, 2.405585e+003
7.022810e+002, 2.407907e+003
7.027631e+002, 2.410614e+003
7.032452e+002, 2.414000e+003
7.037274e+002, 2.419588e+003
7.042095e+002, 2.425715e+003
7.046916e+002, 2.428956e+003
7.051737e+002, 2.428289e+003
7.056558e+002, 2.425613e+003
7.061379e+002, 2.422473e+003
7.066201e+002, 2.419067e+003
7.071022e+002, 2.419991e+003
7.075843e+002, 2.428442e+003
7.080664e+002, 2.433599e+003
7.085485e+002, 2.429078e+003
7.090306e+002, 2.421931e+003
7.095128e+002, 2.418305e+003
7.099949e+002, 2.418218e+003
7.104770e+002, 2.419371e+003
7.109591e+002, 2.422920e+003
7.114412e+002, 2.425654e+003
7.119233e+002, 2.424300e+003
7.124055e+002, 2.420696e+003
7.128876e+002, 2.418264e+003
7.133697e+002, 2.417900e+003
7.138518e+002, 2.418585e+003
7.143339e+002, 2.419341e+003
7.148160e+002, 2.420280e+003
7.152982e+002, 2.422411e+003
7.157803e+002, 2.427062e+003
7.162624e+002, 2.429838e+003
7.167445e+002, 2.429053e+003
7.172266e+002, 2.426711e+003
7.177087e+002, 2.422656e+003
7.181909e+002, 2.417904e+003
7.186730e+002, 2.416434e+003
7.191551e+002, 2.421509e+003
7.196372e+002, 2.427423e+003
7.201193e+002, 2.431289e+003
7.206014e+002, 2.433003e+003
7.210836e+002, 2.431127e+003
7.215657e+002, 2.426120e+003
7.220478e+002, 2.422876e+003
7.225299e+002, 2.425653e+003
7.230120e+002, 2.431730e+003
7.234941e+002, 2.430271e+003
7.239763e+002, 2.416344e+003
7.244584e+002, 2.408751e+003
7.249405e+002, 2.415187e+003
7.254226e+002, 2.422157e+003
7.259047e+002, 2.421453e+003
7.263868e+002, 2.416210e+003
7.268690e+002, 2.413469e+003
7.273511e+002, 2.415734e+003
7.278332e+002, 2.418254e+003
7.283153e+002, 2.419484e+003
7.287974e+002, 2.418624e+003
7.292795e+002, 2.413173e+003
7.297617e+002, 2.404053e+003
7.302438e+002, 2.396273e+003
7.307259e+002, 2.392604e+003
7.312080e+002, 2.391245e+003
7.316901e+002, 2.388433e+003
7.321722e+002, 2.383553e+003
7.326544e+002, 2.379938e+003
7.331365e+002, 2.379396e+003
7.336186e+002, 2.377535e+003
7.341007e+002, 2.369898e+003
7.345828e+002, 2.361311e+003
7.350649e+002, 2.359117e+003
7.355471e+002, 2.364920e+003
7.360292e+002, 2.368633e+003
7.365113e+002, 2.363746e+003
7.369934e+002, 2.356039e+003
7.374755e+002, 2.350579e+003
7.379576e+002, 2.347224e+003
7.384398e+002, 2.344867e+003
7.389219e+002, 2.343073e+003
7.394040e+002, 2.341694e+003
7.398861e+002, 2.340806e+003
7.403682e+002, 2.340357e+003
7.408503e+002, 2.337553e+003
7.413325e+002, 2.330456e+003
7.418146e+002, 2.325023e+003
7.422967e+002, 2.323343e+003
7.427788e+002, 2.323716e+003
7.432609e+002, 2.325796e+003
7.437430e+002, 2.329120e+003
7.442252e+002, 2.330649e+003
7.447073e+002, 2.327767e+003
7.451894e+002, 2.324611e+003
7.456715e+002, 2.324213e+003
7.461536e+002, 2.325153e+003
7.466357e+002, 2.325119e+003
7.471179e+002, 2.323808e+003
7.476000e+002, 2.322417e+003
7.480821e+002, 2.321847e+003
7.485642e+002, 2.321981e+003
7.490463e+002, 2.322859e+003
7.495284e+002, 2.325289e+003
7.500106e+002, 2.324586e+003
7.504927e+002, 2.317092e+003
7.509748e+002, 2.310581e+003
7.514569e+002, 2.311779e+003
7.519390e+002, 2.317587e+003
7.524211e+002, 2.321508e+003
7.529033e+002, 2.322417e+003
7.533854e+002, 2.322414e+003
7.538675e+002, 2.319904e+003
7.543496e+002, 2.318597e+003
7.548317e+002, 2.323818e+003
7.553138e+002, 2.333279e+003
7.557960e+002, 2.339792e+003
7.562781e+002, 2.340058e+003
7.567602e+002, 2.338177e+003
7.572423e+002, 2.340434e+003
7.577244e+002, 2.346642e+003
7.582065e+002, 2.350910e+003
7.586887e+002, 2.352193e+003
7.591708e+002, 2.354938e+003
7.596529e+002, 2.362428e+003
7.601350e+002, 2.371179e+003
7.606171e+002, 2.375612e+003
7.610992e+002, 2.375498e+003
7.615814e+002, 2.375982e+003
7.620635e+002, 2.375801e+003
7.625456e+002, 2.378500e+003
7.630277e+002, 2.388869e+003
7.635098e+002, 2.401470e+003
7.639919e+002, 2.408837e+003
7.644741e+002, 2.410218e+003
7.649562e+002, 2.410769e+003
7.654383e+002, 2.414408e+003
7.659204e+002, 2.419995e+003
7.664025e+002, 2.423942e+003
7.668846e+002, 2.426436e+003
7.673668e+002, 2.434462e+003
7.678489e+002, 2.450938e+003
7.683310e+002, 2.467889e+003
7.688131e+002, 2.478203e+003
7.692952e+002, 2.483310e+003
7.697773e+002, 2.491569e+003
7.702595e+002, 2.504517e+003
7.707416e+002, 2.518236e+003
7.712237e+002, 2.533414e+003
7.717058e+002, 2.548393e+003
7.721879e+002, 2.562299e+003
7.726700e+002, 2.575060e+003
7.731522e+002, 2.585941e+003
7.736343e+002, 2.594309e+003
7.741164e+002, 2.604886e+003
7.745985e+002, 2.625424e+003
7.750806e+002, 2.650577e+003
7.755627e+002, 2.666808e+003
7.760449e+002, 2.674234e+003
7.765270e+002, 2.683053e+003
7.770091e+002, 2.697679e+003
7.774912e+002, 2.716084e+003
7.779733e+002, 2.735668e+003
7.784554e+002, 2.757165e+003
7.789376e+002, 2.775069e+003
7.794197e+002, 2.786873e+003
7.799019e+002, 2.798540e+003
7.803840e+002, 2.809724e+003
7.808661e+002, 2.822508e+003
7.813482e+002, 2.839706e+003
7.818303e+002, 2.860667e+003
7.823124e+002, 2.880680e+003
7.827946e+002, 2.899165e+003
7.832767e+002, 2.914404e+003
7.837588e+002, 2.922864e+003
7.842409e+002, 2.927859e+003
7.847230e+002, 2.935500e+003
7.852051e+002, 2.946435e+003
7.856873e+002, 2.957554e+003
7.861694e+002, 2.966652e+003
7.866515e+002, 2.974500e+003
7.871336e+002, 2.983746e+003
7.876157e+002, 2.995416e+003
7.880978e+002, 3.002409e+003
7.885800e+002, 3.002142e+003
7.890621e+002, 3.000806e+003
7.895442e+002, 3.000225e+003
7.900263e+002, 3.001373e+003
7.905084e+002, 3.006986e+003
7.909905e+002, 3.018850e+003
7.914727e+002, 3.026446e+003
7.919548e+002, 3.024280e+003
7.924369e+002, 3.019976e+003
7.929190e+002, 3.016063e+003
7.934011e+002, 3.014183e+003
7.938832e+002, 3.017931e+003
7.943654e+002, 3.027246e+003
7.948475e+002, 3.035599e+003
7.953296e+002, 3.036701e+003
7.958117e+002, 3.032921e+003
7.962938e+002, 3.029672e+003
7.967759e+002, 3.026953e+003
7.972581e+002, 3.027747e+003
7.977402e+002, 3.033637e+003
7.982223e+002, 3.039311e+003
7.987044e+002, 3.039101e+003
7.991865e+002, 3.034689e+003
7.996686e+002, 3.036133e+003
8.001508e+002, 3.049303e+003
8.006329e+002, 3.059994e+003
8.011150e+002, 3.062723e+003
8.015971e+002, 3.068170e+003
8.020792e+002, 3.084148e+003
8.025613e+002, 3.106760e+003
8.030435e+002, 3.128682e+003
8.035256e+002, 3.147671e+003
8.040077e+002, 3.166446e+003
8.044898e+002, 3.183286e+003
8.049719e+002, 3.203240e+003
8.054540e+002, 3.234615e+003
8.059362e+002, 3.276177e+003
8.064183e+002, 3.321094e+003
8.069004e+002, 3.366973e+003
8.073825e+002, 3.418680e+003
8.078646e+002, 3.482697e+003
8.083467e+002, 3.558085e+003
8.088289e+002, 3.631698e+003
8.093110e+002, 3.699557e+003
8.097931e+002, 3.776448e+003
8.102752e+002, 3.863217e+003
8.107573e+002, 3.962326e+003
8.112394e+002, 4.077977e+003
8.117216e+002, 4.206764e+003
8.122037e+002, 4.335811e+003
8.126858e+002, 4.459259e+003
8.131679e+002, 4.591474e+003
8.136500e+002, 4.736810e+003
8.141321e+002, 4.892750e+003
8.146143e+002, 5.053389e+003
8.150964e+002, 5.222242e+003
8.155785e+002, 5.409705e+003
8.160606e+002, 5.619352e+003
8.165427e+002, 5.843907e+003
8.170248e+002, 6.072666e+003
8.175070e+002, 6.309557e+003
8.179891e+002, 6.569111e+003
8.184712e+002, 6.852427e+003
8.189533e+002, 7.150263e+003
8.194354e+002, 7.458487e+003
8.199175e+002, 7.779228e+003
8.203997e+002, 8.116844e+003
8.208818e+002, 8.470901e+003
8.213639e+002, 8.817937e+003
8.218460e+002, 9.169088e+003
8.223281e+002, 9.495893e+003
8.228102e+002, 9.806127e+003
8.232924e+002, 1.008425e+004
8.237745e+002, 1.032915e+004
8.242566e+002, 1.053251e+004
8.247387e+002, 1.067350e+004
8.252208e+002, 1.074607e+004
8.257029e+002, 1.075919e+004
8.261851e+002, 1.070870e+004
8.266672e+002, 1.060891e+004
8.271493e+002, 1.046479e+004
8.276314e+002, 1.028571e+004
8.281135e+002, 1.009207e+004
8.285956e+002, 9.891951e+003
8.290778e+002, 9.691900e+003
8.295599e+002, 9.496330e+003
8.300420e+002, 9.307948e+003
8.305241e+002, 9.141895e+003
8.310062e+002, 8.999141e+003
8.314883e+002, 8.878560e+003
8.319705e+002, 8.780866e+003
8.324526e+002, 8.704486e+003
8.329347e+002, 8.649286e+003
8.334168e+002, 8.614686e+003
8.338989e+002, 8.596065e+003
8.343810e+002, 8.597384e+003
8.348632e+002, 8.607217e+003
8.353453e+002, 8.627600e+003
8.358274e+002, 8.653248e+003
8.363095e+002, 8.684466e+003
8.367916e+002, 8.717583e+003
8.372737e+002, 8.748110e+003
8.377559e+002, 8.775137e+003
8.382380e+002, 8.793781e+003
8.387201e+002, 8.803931e+003
8.392022e+002, 8.801408e+003
8.396843e+002, 8.783547e+003
8.401664e+002, 8.748129e+003
8.406486e+002, 8.688376e+003
8.411307e+002, 8.602412e+003
8.416128e+002, 8.492818e+003
8.420949e+002, 8.361728e+003
8.425770e+002, 8.210511e+003
8.430591e+002, 8.045953e+003
8.435413e+002, 7.867345e+003
8.440234e+002, 7.676611e+003
8.445055e+002, 7.469470e+003
8.449876e+002, 7.257075e+003
8.454697e+002, 7.042392e+003
8.459518e+002, 6.828005e+003
8.464340e+002, 6.621996e+003
8.469161e+002, 6.424825e+003
8.473982e+002, 6.235040e+003
8.478803e+002, 6.046958e+003
8.483624e+002, 5.871210e+003
8.488445e+002, 5.714993e+003
8.493267e+002, 5.573286e+003
8.498088e+002, 5.439532e+003
8.502909e+002, 5.312034e+003
8.507730e+002, 5.193938e+003
8.512551e+002, 5.087240e+003
8.517372e+002, 4.990804e+003
8.522194e+002, 4.904263e+003
8.527015e+002, 4.826051e+003
8.531836e+002, 4.751438e+003
8.536657e+002, 4.679959e+003
8.541478e+002, 4.616787e+003
8.546299e+002, 4.565181e+003
8.551121e+002, 4.523278e+003
8.555942e+002, 4.486845e+003
8.560763e+002, 4.456458e+003
8.565584e+002, 4.428057e+003
8.570405e+002, 4.401890e+003
8.575226e+002, 4.376454e+003
8.580048e+002, 4.348281e+003
8.584869e+002, 4.322649e+003
8.589690e+002, 4.308493e+003
8.594511e+002, 4.306472e+003
8.599332e+002, 4.303198e+003
8.604153e+002, 4.297704e+003
8.608975e+002, 4.291438e+003
8.613796e+002, 4.283701e+003
8.618617e+002, 4.276213e+003
8.623438e+002, 4.272225e+003
8.628259e+002, 4.269811e+003
8.633080e+002, 4.262713e+003
8.637902e+002, 4.247448e+003
8.642723e+002, 4.230709e+003
8.647544e+002, 4.221107e+003
8.652365e+002, 4.211823e+003
8.657186e+002, 4.192866e+003
8.662007e+002, 4.164251e+003
8.666829e+002, 4.128882e+003
8.671650e+002, 4.088114e+003
8.676471e+002, 4.043218e+003
8.681292e+002, 3.995958e+003
8.686113e+002, 3.946375e+003
8.690934e+002, 3.895228e+003
8.695756e+002, 3.843086e+003
8.700577e+002, 3.785363e+003
8.705398e+002, 3.719668e+003
8.710219e+002, 3.651895e+003
8.715040e+002, 3.586294e+003
8.719861e+002, 3.522551e+003
8.724683e+002, 3.457674e+003
8.729504e+002, 3.388076e+003
8.734325e+002, 3.324374e+003
8.739146e+002, 3.273146e+003
8.743967e+002, 3.220833e+003
8.748788e+002, 3.158038e+003
8.753610e+002, 3.092787e+003
8.758431e+002, 3.035557e+003
8.763252e+002, 2.987520e+003
8.768073e+002, 2.944048e+003
8.772894e+002, 2.903309e+003
8.777715e+002, 2.865581e+003
8.782537e+002, 2.831681e+003
8.787358e+002, 2.800795e+003
8.792179e+002, 2.772380e+003
8.797000e+002, 2.745777e+003
8.801821e+002, 2.719634e+003
8.806642e+002, 2.693122e+003
8.811464e+002, 2.667002e+003
8.816285e+002, 2.640925e+003
8.821106e+002, 2.615954e+003
8.825927e+002, 2.599394e+003
8.830748e+002, 2.591903e+003
8.835569e+002, 2.583651e+003
8.840391e+002, 2.570886e+003
8.845212e+002, 2.556146e+003
8.850033e+002, 2.542178e+003
8.854854e+002, 2.528991e+003
8.859675e+002, 2.515358e+003
8.864496e+002, 2.503382e+003
8.869318e+002, 2.486880e+003
8.874139e+002, 2.460903e+003
8.878960e+002, 2.434602e+003
8.883781e+002, 2.414008e+003
8.888602e+002, 2.396397e+003
8.893423e+002, 2.375941e+003
8.898245e+002, 2.351056e+003
8.903066e+002, 2.327417e+003
8.907887e+002, 2.308719e+003
8.912708e+002, 2.289432e+003
8.917529e+002, 2.263750e+003
8.922350e+002, 2.236830e+003
8.927172e+002, 2.216232e+003
8.931993e+002, 2.202553e+003
8.936814e+002, 2.190746e+003
8.941635e+002, 2.178549e+003
8.946456e+002, 2.165276e+003
8.951277e+002, 2.147872e+003
8.956099e+002, 2.129504e+003
8.960920e+002, 2.118732e+003
8.965741e+002, 2.115255e+003
8.970562e+002, 2.112120e+003
8.975383e+002, 2.106017e+003
8.980204e+002, 2.097405e+003
8.985026e+002, 2.086079e+003
8.989847e+002, 2.072505e+003
8.994668e+002, 2.063645e+003
8.999489e+002, 2.060453e+003
9.004310e+002, 2.055985e+003
9.009131e+002, 2.047718e+003
9.013953e+002, 2.039563e+003
9.018774e+002, 2.035533e+003
9.023595e+002, 2.034310e+003
9.028416e+002, 2.029888e+003
9.033237e+002, 2.019255e+003
9.038058e+002, 2.010966e+003
9.042880e+002, 2.005872e+003
9.047701e+002, 2.002111e+003
9.052522e+002, 2.001293e+003
9.057343e+002, 2.000084e+003
9.062164e+002, 1.992731e+003
9.066985e+002, 1.979324e+003
9.071807e+002, 1.969979e+003
9.076628e+002, 1.972105e+003
9.081449e+002, 1.974688e+003
9.086270e+002, 1.970480e+003
9.091091e+002, 1.964287e+003
9.095912e+002, 1.961814e+003
9.100734e+002, 1.962532e+003
9.105555e+002, 1.962902e+003
9.110376e+002, 1.961390e+003
9.115197e+002, 1.958344e+003
9.120018e+002, 1.952828e+003
9.124839e+002, 1.946597e+003
9.129661e+002, 1.943717e+003
9.134482e+002, 1.943673e+003
9.139303e+002, 1.944068e+003
9.144124e+002, 1.944156e+003
9.148945e+002, 1.942376e+003
9.153766e+002, 1.936995e+003
9.158588e+002, 1.929471e+003
9.163409e+002, 1.924110e+003
9.168230e+002, 1.920946e+003
9.173051e+002, 1.920213e+003
9.177872e+002, 1.923039e+003
9.182693e+002, 1.924599e+003
9.187515e+002, 1.922127e+003
9.192336e+002, 1.917642e+003
9.197157e+002, 1.914326e+003
9.201978e+002, 1.912385e+003
9.206799e+002, 1.909348e+003
9.211620e+002, 1.902850e+003
9.216442e+002, 1.898540e+003
9.221263e+002, 1.899567e+003
9.226084e+002, 1.900775e+003
9.230905e+002, 1.898325e+003
9.235726e+002, 1.893449e+003
9.240547e+002, 1.889133e+003
9.245369e+002, 1.885778e+003
9.250190e+002, 1.883724e+003
9.255011e+002, 1.884236e+003
9.259832e+002, 1.884924e+003
9.264653e+002, 1.883876e+003
9.269474e+002, 1.882176e+003
9.274296e+002, 1.881714e+003
9.279117e+002, 1.882499e+003
9.283938e+002, 1.882744e+003
9.288759e+002, 1.881127e+003
9.293580e+002, 1.879219e+003
9.298401e+002, 1.878988e+003
9.303223e+002, 1.879599e+003
9.308044e+002, 1.879591e+003
9.312865e+002, 1.878865e+003
9.317686e+002, 1.877693e+003
9.322507e+002, 1.876187e+003
9.327328e+002, 1.874465e+003
9.332150e+002, 1.872799e+003
9.336971e+002, 1.870944e+003
9.341792e+002, 1.867276e+003
9.346613e+002, 1.861805e+003
9.351434e+002, 1.858989e+003
9.356255e+002, 1.859979e+003
9.361077e+002, 1.861440e+003
9.365898e+002, 1.861263e+003
9.370719e+002, 1.860016e+003
9.375540e+002, 1.859103e+003
9.380361e+002, 1.858936e+003
9.385182e+002, 1.856513e+003
9.390004e+002, 1.849015e+003
9.394825e+002, 1.844953e+003
9.399646e+002, 1.850432e+003
9.404467e+002, 1.856548e+003
9.409288e+002, 1.853743e+003
9.414109e+002, 1.844273e+003
9.418931e+002, 1.838074e+003
9.423752e+002, 1.836184e+003
9.428573e+002, 1.836264e+003
9.433394e+002, 1.840181e+003
9.438215e+002, 1.843647e+003
9.443036e+002, 1.844495e+003
9.447858e+002, 1.843580e+003
9.452679e+002, 1.842362e+003
9.457500e+002, 1.840906e+003
9.462321e+002, 1.837712e+003
9.467142e+002, 1.829718e+003
9.471964e+002, 1.822979e+003
9.476785e+002, 1.821869e+003
9.481606e+002, 1.823388e+003
9.486427e+002, 1.825277e+003
9.491248e+002, 1.826641e+003
9.496069e+002, 1.825789e+003
9.500891e+002, 1.822237e+003
9.505712e+002, 1.819465e+003
9.510533e+002, 1.822098e+003
9.515354e+002, 1.826622e+003
9.520175e+002, 1.827361e+003
9.524996e+002, 1.825117e+003
9.529818e+002, 1.821755e+003
9.534639e+002, 1.817828e+003
9.539460e+002, 1.814007e+003
9.544281e+002, 1.810563e+003
9.549102e+002, 1.808661e+003
9.553923e+002, 1.812152e+003
9.558745e+002, 1.819929e+003
9.563566e+002, 1.819919e+003
9.568387e+002, 1.811538e+003
9.573208e+002, 1.805140e+003
9.578029e+002, 1.803856e+003
9.582850e+002, 1.805496e+003
9.587672e+002, 1.808724e+003
9.592493e+002, 1.812566e+003
9.597314e+002, 1.812696e+003
9.602135e+002, 1.807517e+003
9.606956e+002, 1.804482e+003
9.611777e+002, 1.804624e+003
9.616599e+002, 1.805410e+003
9.621420e+002, 1.806476e+003
9.626241e+002, 1.806962e+003
9.631062e+002, 1.805226e+003
9.635883e+002, 1.801279e+003
9.640704e+002, 1.799384e+003
9.645526e+002, 1.801472e+003
9.650347e+002, 1.802639e+003
9.655168e+002, 1.801286e+003
9.659989e+002, 1.800157e+003
9.664810e+002, 1.801572e+003
9.669631e+002, 1.803802e+003
9.674453e+002, 1.803995e+003
9.679274e+002, 1.801773e+003
9.684095e+002, 1.799378e+003
9.688916e+002, 1.797299e+003
9.693737e+002, 1.795396e+003
9.698558e+002, 1.794156e+003
9.703380e+002, 1.792641e+003
9.708201e+002, 1.788779e+003
9.713022e+002, 1.784110e+003
9.717843e+002, 1.782912e+003
9.722664e+002, 1.786829e+003
9.727485e+002, 1.790520e+003
9.732307e+002, 1.789804e+003
9.737128e+002, 1.787750e+003
9.741949e+002, 1.787681e+003
9.746770e+002, 1.788295e+003
9.751591e+002, 1.786884e+003
9.756412e+002, 1.783494e+003
9.761234e+002, 1.780571e+003
9.766055e+002, 1.779521e+003
9.770876e+002, 1.778759e+003
9.775698e+002, 1.775395e+003
9.780519e+002, 1.771296e+003
9.785340e+002, 1.771337e+003
9.790161e+002, 1.774571e+003
9.794982e+002, 1.776513e+003
9.799803e+002, 1.775984e+003
9.804625e+002, 1.774368e+003
9.809446e+002, 1.772717e+003
9.814267e+002, 1.770865e+003
9.819088e+002, 1.768319e+003
9.823909e+002, 1.765177e+003
9.828730e+002, 1.762270e+003
9.833552e+002, 1.759654e+003
9.838373e+002, 1.757787e+003
9.843194e+002, 1.757009e+003
9.848015e+002, 1.755981e+003
9.852836e+002, 1.753192e+003
9.857657e+002, 1.749023e+003
9.862479e+002, 1.745100e+003
9.867300e+002, 1.741237e+003
9.872121e+002, 1.739253e+003
9.876942e+002, 1.740871e+003
9.881763e+002, 1.739119e+003
9.886584e+002, 1.728006e+003
9.891406e+002, 1.716300e+003
9.896227e+002, 1.716990e+003
9.901048e+002, 1.729931e+003
9.905869e+002, 1.737569e+003
9.910690e+002, 1.738757e+003
9.915511e+002, 1.736771e+003
9.920333e+002, 1.729120e+003
9.925154e+002, 1.721745e+003
9.929975e+002, 1.717335e+003
9.934796e+002, 1.715337e+003
9.939617e+002, 1.715658e+003
9.944438e+002, 1.718689e+003
9.949260e+002, 1.719471e+003
9.954081e+002, 1.715247e+003
9.958902e+002, 1.712139e+003
9.963723e+002, 1.712078e+003
9.968544e+002, 1.712878e+003
9.973365e+002, 1.713809e+003
9.978187e+002, 1.714255e+003
9.983008e+002, 1.712921e+003
9.987829e+002, 1.709396e+003
9.992650e+002, 1.706557e+003
9.997471e+002, 1.706450e+003
1.000229e+003, 1.705754e+003
1.000711e+003, 1.701236e+003
1.001193e+003, 1.696766e+003
1.001676e+003, 1.697166e+003
1.002158e+003, 1.700673e+003
1.002640e+003, 1.701799e+003
1.003122e+003, 1.698686e+003
1.003604e+003, 1.695485e+003
1.004086e+003, 1.694076e+003
1.004568e+003, 1.693965e+003
1.005050e+003, 1.696277e+003
1.005533e+003, 1.698718e+003
1.006015e+003, 1.697680e+003
1.006497e+003, 1.693646e+003
1.006979e+003, 1.689726e+003
1.007461e+003, 1.687228e+003
1.007943e+003, 1.685848e+003
1.008425e+003, 1.686037e+003
1.008907e+003, 1.686644e+003
1.009389e+003, 1.685234e+003
1.009872e+003, 1.683374e+003
1.010354e+003, 1.685874e+003
1.010836e+003, 1.692153e+003
1.011318e+003, 1.695059e+003
1.011800e+003, 1.690108e+003
1.012282e+003, 1.683117e+003
1.012764e+003, 1.681250e+003
1.013246e+003, 1.682669e+003
1.013729e+003, 1.683915e+003
1.014211e+003, 1.684766e+003
1.014693e+003, 1.685121e+003
1.015175e+003, 1.684880e+003
1.015657e+003, 1.683201e+003
1.016139e+003, 1.679245e+003
1.016621e+003, 1.675064e+003
1.017103e+003, 1.675088e+003
1.017585e+003, 1.678018e+003
1.018068e+003, 1.677647e+003
1.018550e+003, 1.674121e+003
1.019032e+003, 1.670885e+003
1.019514e+003, 1.668934e+003
1.019996e+003, 1.666966e+003
1.020478e+003, 1.663721e+003
1.020960e+003, 1.660549e+003
1.021442e+003, 1.661837e+003
1.021924e+003, 1.667242e+003
1.022407e+003, 1.666224e+003
1.022889e+003, 1.657840e+003
1.023371e+003, 1.654695e+003
1.023853e+003, 1.661519e+003
1.024335e+003, 1.669450e+003
1.024817e+003, 1.670622e+003
1.025299e+003, 1.666792e+003
1.025781e+003, 1.662903e+003
1.026264e+003, 1.658665e+003
1.026746e+003, 1.656947e+003
1.027228e+003, 1.658339e+003
1.027710e+003, 1.660122e+003
1.028192e+003, 1.661827e+003
1.028674e+003, 1.662286e+003
1.029156e+003, 1.659925e+003
1.029638e+003, 1.655721e+003
1.030120e+003, 1.653915e+003
1.030603e+003, 1.655860e+003
1.031085e+003, 1.654879e+003
1.031567e+003, 1.649093e+003
1.032049e+003, 1.644856e+003
1.032531e+003, 1.644671e+003
1.033013e+003, 1.646414e+003
1.033495e+003, 1.648796e+003
1.033977e+003, 1.651198e+003
1.034459e+003, 1.650288e+003
1.034942e+003, 1.643758e+003
1.035424e+003, 1.639394e+003
1.035906e+003, 1.637826e+003
1.036388e+003, 1.637449e+003
1.036870e+003, 1.638797e+003
1.037352e+003, 1.639956e+003
1.037834e+003, 1.638241e+003
1.038316e+003, 1.634479e+003
1.038799e+003, 1.633655e+003
1.039281e+003, 1.637891e+003
1.039763e+003, 1.640939e+003
1.040245e+003, 1.643098e+003
1.040727e+003, 1.643707e+003
1.041209e+003, 1.642073e+003
1.041691e+003, 1.639185e+003
1.042173e+003, 1.634834e+003
1.042656e+003, 1.629751e+003
1.043138e+003, 1.627933e+003
1.043620e+003, 1.631331e+003
1.044102e+003, 1.634344e+003
1.044584e+003, 1.637505e+003
1.045066e+003, 1.639163e+003
1.045548e+003, 1.637502e+003
1.046030e+003, 1.634988e+003
1.046512e+003, 1.634756e+003
1.046995e+003, 1.635967e+003
1.047477e+003, 1.634227e+003
1.047959e+003, 1.626819e+003
1.048441e+003, 1.621684e+003
1.048923e+003, 1.620979e+003
1.049405e+003, 1.621616e+003
1.049887e+003, 1.624105e+003
1.050369e+003, 1.626008e+003
1.050851e+003, 1.623839e+003
1.051334e+003, 1.618834e+003
1.051816e+003, 1.616461e+003
1.052298e+003, 1.618718e+003
1.052780e+003, 1.620555e+003
1.053262e+003, 1.620315e+003
1.053744e+003, 1.620020e+003
1.054226e+003, 1.620837e+003
1.054708e+003, 1.621846e+003
1.055191e+003, 1.621951e+003
1.055673e+003, 1.621353e+003
1.056155e+003, 1.620850e+003
1.056637e+003, 1.620151e+003
1.057119e+003, 1.621109e+003
1.057601e+003, 1.627317e+003
1.058083e+003, 1.631657e+003
1.058565e+003, 1.628725e+003
1.059047e+003, 1.623646e+003
1.059530e+003, 1.621150e+003
1.060012e+003, 1.621279e+003
1.060494e+003, 1.622609e+003
1.060976e+003, 1.625162e+003
1.061458e+003, 1.627160e+003
1.061940e+003, 1.628003e+003
1.062422e+003, 1.628126e+003
1.062904e+003, 1.627030e+003
1.063386e+003, 1.625918e+003
1.063869e+003, 1.626272e+003
1.064351e+003, 1.627596e+003
1.064833e+003, 1.628152e+003
1.065315e+003, 1.627352e+003
1.065797e+003, 1.627063e+003
1.066279e+003, 1.629069e+003
1.066761e+003, 1.630556e+003
1.067243e+003, 1.629515e+003
1.067726e+003, 1.627677e+003
1.068208e+003, 1.627543e+003
1.068690e+003, 1.627909e+003
1.069172e+003, 1.624644e+003
1.069654e+003, 1.616400e+003
1.070136e+003, 1.611244e+003
1.070618e+003, 1.614998e+003
1.071100e+003, 1.619841e+003
1.071583e+003, 1.622863e+003
1.072065e+003, 1.623992e+003
1.072547e+003, 1.623262e+003
1.073029e+003, 1.620660e+003
1.073511e+003, 1.615021e+003
1.073993e+003, 1.606181e+003
1.074475e+003, 1.600249e+003
1.074957e+003, 1.603103e+003
1.075439e+003, 1.605398e+003
1.075922e+003, 1.600663e+003
1.076404e+003, 1.594853e+003
1.076886e+003, 1.594317e+003
1.077368e+003, 1.596310e+003
1.077850e+003, 1.594180e+003
1.078332e+003, 1.587139e+003
1.078814e+003, 1.582647e+003
1.079296e+003, 1.586049e+003
1.079779e+003, 1.589742e+003
1.080261e+003, 1.590143e+003
1.080743e+003, 1.589338e+003
1.081225e+003, 1.589625e+003
1.081707e+003, 1.589589e+003
1.082189e+003, 1.585539e+003
1.082671e+003, 1.577874e+003
1.083153e+003, 1.573530e+003
1.083635e+003, 1.577575e+003
1.084118e+003, 1.580898e+003
1.084600e+003, 1.578421e+003
1.085082e+003, 1.574731e+003
1.085564e+003, 1.572867e+003
1.086046e+003, 1.572082e+003
1.086528e+003, 1.571290e+003
1.087010e+003, 1.570259e+003
1.087492e+003, 1.568853e+003
1.087974e+003, 1.566823e+003
1.088457e+003, 1.564954e+003
1.088939e+003, 1.563104e+003
1.089421e+003, 1.562048e+003
1.089903e+003, 1.563440e+003
1.090385e+003, 1.565054e+003
1.090867e+003, 1.564214e+003
1.091349e+003, 1.561157e+003
1.091831e+003, 1.557343e+003
1.092314e+003, 1.552309e+003
1.092796e+003, 1.550085e+003
1.093278e+003, 1.557020e+003
1.093760e+003, 1.561213e+003
1.094242e+003, 1.552611e+003
1.094724e+003, 1.541605e+003
1.095206e+003, 1.538592e+003
1.095688e+003, 1.541719e+003
1.096171e+003, 1.544324e+003
1.096653e+003, 1.545183e+003
1.097135e+003, 1.544627e+003
1.097617e+003, 1.540162e+003
1.098099e+003, 1.537704e+003
1.098581e+003, 1.542173e+003
1.099063e+003, 1.547098e+003
1.099545e+003, 1.546815e+003
1.100027e+003, 1.543374e+003
1.100510e+003, 1.541435e+003
1.100992e+003, 1.541696e+003
1.101474e+003, 1.540398e+003
1.101956e+003, 1.534418e+003
1.102438e+003, 1.530068e+003
1.102920e+003, 1.530041e+003
1.103402e+003, 1.531045e+003
1.103884e+003, 1.532400e+003
1.104366e+003, 1.532748e+003
1.104849e+003, 1.528617e+003
1.105331e+003, 1.520543e+003
1.105813e+003, 1.518065e+003
1.106295e+003, 1.529109e+003
1.106777e+003, 1.535490e+003
1.107259e+003, 1.531339e+003
1.107741e+003, 1.526109e+003
1.108223e+003, 1.522949e+003
1.108706e+003, 1.521616e+003
1.109188e+003, 1.522422e+003
1.109670e+003, 1.524821e+003
1.110152e+003, 1.526209e+003
1.110634e+003, 1.526296e+003
1.111116e+003, 1.525674e+003
1.111598e+003, 1.524062e+003
1.112080e+003, 1.522161e+003
1.112563e+003, 1.519441e+003
1.113045e+003, 1.517212e+003
1.113527e+003, 1.516819e+003
1.114009e+003, 1.517658e+003
1.114491e+003, 1.518190e+003
1.114973e+003, 1.518495e+003
1.115455e+003, 1.518141e+003
1.115937e+003, 1.515504e+003
1.116419e+003, 1.515182e+003
1.116901e+003, 1.520058e+003
1.117384e+003, 1.524478e+003
1.117866e+003, 1.524662e+003
1.118348e+003, 1.522648e+003
1.118830e+003, 1.522031e+003
1.119312e+003, 1.522877e+003
1.119794e+003, 1.521795e+003
1.120276e+003, 1.518332e+003
1.120758e+003, 1.513650e+003
1.121241e+003, 1.505817e+003
1.121723e+003, 1.501575e+003
1.122205e+003, 1.505776e+003
1.122687e+003, 1.511593e+003
1.123169e+003, 1.510180e+003
1.123651e+003, 1.503431e+003
1.124133e+003, 1.502889e+003
1.124615e+003, 1.510515e+003
1.125098e+003, 1.515275e+003
1.125580e+003, 1.516968e+003
1.126062e+003, 1.514512e+003
1.126544e+003, 1.506302e+003
1.127026e+003, 1.498442e+003
1.127508e+003, 1.496114e+003
1.127990e+003, 1.497658e+003
1.128472e+003, 1.499296e+003
1.128954e+003, 1.501065e+003
1.129437e+003, 1.501578e+003
1.129919e+003, 1.500700e+003
1.130401e+003, 1.500729e+003
1.130883e+003, 1.502164e+003
1.131365e+003, 1.504488e+003
1.131847e+003, 1.507640e+003
1.132329e+003, 1.509670e+003
1.132811e+003, 1.506892e+003
1.133293e+003, 1.500795e+003
1.133776e+003, 1.498817e+003
1.134258e+003, 1.500499e+003
1.134740e+003, 1.501931e+003
1.135222e+003, 1.502621e+003
1.135704e+003, 1.502818e+003
1.136186e+003, 1.502641e+003
1.136668e+003, 1.503237e+003
1.137150e+003, 1.506064e+003
1.137633e+003, 1.509543e+003
1.138115e+003, 1.511073e+003
1.138597e+003, 1.510483e+003
1.139079e+003, 1.506096e+003
1.139561e+003, 1.499039e+003
1.140043e+003, 1.493352e+003
1.140525e+003, 1.490248e+003
1.141007e+003, 1.490197e+003
1.141490e+003, 1.493861e+003
1.141972e+003, 1.497995e+003
1.142454e+003, 1.498292e+003
1.142936e+003, 1.496828e+003
1.143418e+003, 1.497571e+003
1.143900e+003, 1.498956e+003
1.144382e+003, 1.497018e+003
1.144864e+003, 1.492219e+003
1.145346e+003, 1.487880e+003
1.145828e+003, 1.485363e+003
1.146311e+003, 1.484743e+003
1.146793e+003, 1.488005e+003
1.147275e+003, 1.491013e+003
1.147757e+003, 1.488688e+003
1.148239e+003, 1.484948e+003
1.148721e+003, 1.484149e+003
1.149203e+003, 1.485760e+003
1.149685e+003, 1.488380e+003
1.150168e+003, 1.491396e+003
1.150650e+003, 1.493623e+003
1.151132e+003, 1.494750e+003
1.151614e+003, 1.494481e+003
1.152096e+003, 1.490386e+003
1.152578e+003, 1.487349e+003
1.153060e+003, 1.490937e+003
1.153542e+003, 1.495812e+003
1.154025e+003, 1.494512e+003
1.154507e+003, 1.488743e+003
1.154989e+003, 1.486263e+003
1.155471e+003, 1.489255e+003
1.155953e+003, 1.492339e+003
1.156435e+003, 1.495928e+003
1.156917e+003, 1.497159e+003
1.157399e+003, 1.493084e+003
1.157881e+003, 1.488458e+003
1.158364e+003, 1.486678e+003
1.158846e+003, 1.486469e+003
1.159328e+003, 1.485663e+003
1.159810e+003, 1.484186e+003
1.160292e+003, 1.482433e+003
1.160774e+003, 1.479694e+003
1.161256e+003, 1.478026e+003
1.161738e+003, 1.477929e+003
1.162220e+003, 1.478312e+003
1.162703e+003, 1.479251e+003
1.163185e+003, 1.479909e+003
1.163667e+003, 1.479680e+003
1.164149e+003, 1.478417e+003
1.164631e+003, 1.475084e+003
1.165113e+003, 1.468586e+003
1.165595e+003, 1.467323e+003
1.166077e+003, 1.472736e+003
1.166560e+003, 1.477197e+003
1.167042e+003, 1.479291e+003
1.167524e+003, 1.479136e+003
1.168006e+003, 1.476313e+003
1.168488e+003, 1.473103e+003
1.168970e+003, 1.472843e+003
1.169452e+003, 1.475240e+003
1.169934e+003, 1.480220e+003
1.170417e+003, 1.487277e+003
1.170899e+003, 1.487957e+003
1.171381e+003, 1.481924e+003
1.171863e+003, 1.476962e+003
1.172345e+003, 1.475703e+003
1.172827e+003, 1.475721e+003
1.173309e+003, 1.475228e+003
1.173791e+003, 1.474077e+003
1.174273e+003, 1.472006e+003
1.174755e+003, 1.469112e+003
1.175238e+003, 1.463887e+003
1.175720e+003, 1.458376e+003
1.176202e+003, 1.459770e+003
1.176684e+003, 1.467354e+003
1.177166e+003, 1.473041e+003
1.177648e+003, 1.473354e+003
1.178130e+003, 1.470663e+003
1.178612e+003, 1.465056e+003
1.179095e+003, 1.459694e+003
1.179577e+003, 1.457679e+003
1.180059e+003, 1.457754e+003
1.180541e+003, 1.459038e+003
1.181023e+003, 1.460907e+003
1.181505e+003, 1.462592e+003
1.181987e+003, 1.463936e+003
1.182469e+003, 1.465151e+003
1.182952e+003, 1.466366e+003
1.183434e+003, 1.467254e+003
1.183916e+003, 1.468414e+003
1.184398e+003, 1.468261e+003
1.184880e+003, 1.464628e+003
1.185362e+003, 1.460340e+003
1.185844e+003, 1.457274e+003
1.186326e+003, 1.455971e+003
1.186808e+003, 1.457780e+003
1.187291e+003, 1.463383e+003
1.187773e+003, 1.466996e+003
1.188255e+003, 1.466954e+003
1.188737e+003, 1.466650e+003
1.189219e+003, 1.466444e+003
1.189701e+003, 1.466134e+003
1.190183e+003, 1.466195e+003
1.190665e+003, 1.465426e+003
1.191147e+003, 1.461934e+003
1.191630e+003, 1.456719e+003
1.192112e+003, 1.454063e+003
1.192594e+003, 1.454300e+003
1.193076e+003, 1.455814e+003
1.193558e+003, 1.459157e+003
1.194040e+003, 1.460488e+003
1.194522e+003, 1.458381e+003
1.195004e+003, 1.457803e+003
1.195487e+003, 1.462058e+003
1.195969e+003, 1.467735e+003
1.196451e+003, 1.470532e+003
1.196933e+003, 1.470345e+003
1.197415e+003, 1.465530e+003
1.197897e+003, 1.457184e+003
1.198379e+003, 1.452082e+003
1.198861e+003, 1.450145e+003
1.199344e+003, 1.446645e+003
1.199826e+003, 1.440555e+003
1.200308e+003, 1.436370e+003
1.200790e+003, 1.437246e+003
1.201272e+003, 1.440555e+003
1.201754e+003, 1.445623e+003
1.202236e+003, 1.449104e+003
1.202718e+003, 1.443477e+003
1.203200e+003, 1.434394e+003
1.203682e+003, 1.431843e+003
1.204165e+003, 1.434944e+003
1.204647e+003, 1.437563e+003
1.205129e+003, 1.437982e+003
1.205611e+003, 1.438939e+003
1.206093e+003, 1.443087e+003
1.206575e+003, 1.446060e+003
1.207057e+003, 1.443664e+003
1.207539e+003, 1.441486e+003
1.208022e+003, 1.445351e+003
1.208504e+003, 1.450126e+003
1.208986e+003, 1.449093e+003
1.209468e+003, 1.443339e+003
1.209950e+003, 1.438061e+003
1.210432e+003, 1.433314e+003
1.210914e+003, 1.431181e+003
1.211396e+003, 1.433263e+003
1.211879e+003, 1.435847e+003
1.212361e+003, 1.440037e+003
1.212843e+003, 1.441982e+003
1.213325e+003, 1.438313e+003
1.213807e+003, 1.433484e+003
1.214289e+003, 1.433258e+003
1.214771e+003, 1.436369e+003
1.215253e+003, 1.436273e+003
1.215735e+003, 1.432353e+003
1.216218e+003, 1.431582e+003
1.216700e+003, 1.434542e+003
1.217182e+003, 1.433771e+003
1.217664e+003, 1.427285e+003
1.218146e+003, 1.423552e+003
1.218628e+003, 1.427784e+003
1.219110e+003, 1.434466e+003
1.219592e+003, 1.436594e+003
1.220074e+003, 1.435659e+003
1.220557e+003, 1.434287e+003
1.221039e+003, 1.433018e+003
1.221521e+003, 1.434235e+003
1.222003e+003, 1.436783e+003
1.222485e+003, 1.436004e+003
1.222967e+003, 1.431511e+003
1.223449e+003, 1.427964e+003
1.223931e+003, 1.427914e+003
1.224414e+003, 1.429076e+003
1.224896e+003, 1.430838e+003
1.225378e+003, 1.431785e+003
1.225860e+003, 1.430613e+003
1.226342e+003, 1.428165e+003
1.226824e+003, 1.424576e+003
1.227306e+003, 1.420772e+003
1.227788e+003, 1.418120e+003
1.228271e+003, 1.416845e+003
1.228753e+003, 1.416962e+003
1.229235e+003, 1.420290e+003
1.229717e+003, 1.421781e+003
1.230199e+003, 1.419362e+003
1.230681e+003, 1.416970e+003
1.231163e+003, 1.416114e+003
1.231645e+003, 1.415348e+003
1.232127e+003, 1.413497e+003
1.232609e+003, 1.411094e+003
1.233092e+003, 1.408986e+003
1.233574e+003, 1.407181e+003
1.234056e+003, 1.407252e+003
1.234538e+003, 1.409470e+003
1.235020e+003, 1.410958e+003
1.235502e+003, 1.411365e+003
1.235984e+003, 1.412144e+003
1.236466e+003, 1.413805e+003
1.236949e+003, 1.414715e+003
1.237431e+003, 1.413464e+003
1.237913e+003, 1.411601e+003
1.238395e+003, 1.412391e+003
1.238877e+003, 1.414092e+003
1.239359e+003, 1.411854e+003
1.239841e+003, 1.407385e+003
1.240323e+003, 1.404567e+003
1.240806e+003, 1.403571e+003
1.241288e+003, 1.403573e+003
1.241770e+003, 1.404024e+003
1.242252e+003, 1.402893e+003
1.242734e+003, 1.397899e+003
1.243216e+003, 1.394152e+003
1.243698e+003, 1.395589e+003
1.244180e+003, 1.398702e+003
1.244662e+003, 1.403470e+003
1.245145e+003, 1.406609e+003
1.245627e+003, 1.402936e+003
1.246109e+003, 1.395724e+003
1.246591e+003, 1.393028e+003
1.247073e+003, 1.395938e+003
1.247555e+003, 1.396929e+003
1.248037e+003, 1.392251e+003
1.248519e+003, 1.392294e+003
1.249001e+003, 1.401169e+003
1.249484e+003, 1.407117e+003
1.249966e+003, 1.405750e+003
1.250448e+003, 1.401558e+003
1.250930e+003, 1.397403e+003
1.251412e+003, 1.394231e+003
1.251894e+003, 1.394073e+003
1.252376e+003, 1.396572e+003
1.252858e+003, 1.400051e+003
1.253341e+003, 1.403987e+003
1.253823e+003, 1.402547e+003
1.254305e+003, 1.396188e+003
1.254787e+003, 1.392329e+003
1.255269e+003, 1.393148e+003
1.255751e+003, 1.395816e+003
1.256233e+003, 1.398743e+003
1.256715e+003, 1.400919e+003
1.257198e+003, 1.401051e+003
1.257680e+003, 1.400081e+003
1.258162e+003, 1.398545e+003
1.258644e+003, 1.396993e+003
1.259126e+003, 1.395918e+003
1.259608e+003, 1.395431e+003
1.260090e+003, 1.395320e+003
1.260572e+003, 1.395700e+003
1.261054e+003, 1.397944e+003
1.261536e+003, 1.405005e+003
1.262019e+003, 1.408126e+003
1.262501e+003, 1.400605e+003
1.262983e+003, 1.395931e+003
1.263465e+003, 1.401434e+003
1.263947e+003, 1.406685e+003
1.264429e+003, 1.404398e+003
1.264911e+003, 1.399065e+003
1.265393e+003, 1.397696e+003
1.265876e+003, 1.399436e+003
1.266358e+003, 1.398005e+003
1.266840e+003, 1.393152e+003
1.267322e+003, 1.389640e+003
1.267804e+003, 1.387702e+003
1.268286e+003, 1.389206e+003
1.268768e+003, 1.394260e+003
1.269250e+003, 1.396093e+003
1.269733e+003, 1.390922e+003
1.270215e+003, 1.384717e+003
1.270697e+003, 1.384337e+003
1.271179e+003, 1.386003e+003
1.271661e+003, 1.384061e+003
1.272143e+003, 1.380841e+003
1.272625e+003, 1.379241e+003
1.273107e+003, 1.379149e+003
1.273589e+003, 1.379725e+003
1.274072e+003, 1.381065e+003
1.274554e+003, 1.384703e+003
1.275036e+003, 1.391656e+003
1.275518e+003, 1.395609e+003
1.276000e+003, 1.392380e+003
1.276482e+003, 1.389046e+003
1.276964e+003, 1.387654e+003
1.277446e+003, 1.386649e+003
1.277929e+003, 1.385178e+003
1.278411e+003, 1.383214e+003
1.278893e+003, 1.380334e+003
1.279375e+003, 1.377352e+003
1.279857e+003, 1.376628e+003
1.280339e+003, 1.378233e+003
1.280821e+003, 1.378305e+003
1.281303e+003, 1.376962e+003
1.281786e+003, 1.377898e+003
1.282268e+003, 1.381567e+003
##END=



