##NAMES=Wendwilsonite
##RRUFFID=R180012
##IDEAL CHEMISTRY=Ca_2_Mg(As^5+^O_4_)_2_&#183;2H_2_O
##LOCALITY=Bou Azzer, Morrocco
##OWNER=RRUFF
##SOURCE=Wendell Wilson
##DESCRIPTION=Red vitreous mineral. Photo from Wendell Wilson
##STATUS=The identification of this mineral is confirmed by single-crystal X-ray diffraction and chemical analysis.
##URL=rruff.info/R180012
##MEASURED CHEMISTRY=Ca_1.99_(Mg_0.66_Co_0.26_Zn_0.05_Ni_0.03_)_Σ=1.00_(AsO_4_)_2_·2H_2_O
8.758203e+001, 3.740536e+003
8.806415e+001, 3.719092e+003
8.854626e+001, 3.715500e+003
8.902838e+001, 3.741807e+003
8.951050e+001, 3.770018e+003
8.999261e+001, 3.790573e+003
9.047473e+001, 3.802771e+003
9.095685e+001, 3.808091e+003
9.143896e+001, 3.805392e+003
9.192108e+001, 3.794671e+003
9.240320e+001, 3.789443e+003
9.288531e+001, 3.743713e+003
9.336743e+001, 3.639262e+003
9.384955e+001, 3.503210e+003
9.433167e+001, 3.394167e+003
9.481378e+001, 3.287803e+003
9.529590e+001, 3.185051e+003
9.577802e+001, 3.088020e+003
9.626013e+001, 3.007373e+003
9.674225e+001, 2.948752e+003
9.722437e+001, 2.909489e+003
9.770648e+001, 2.879728e+003
9.818860e+001, 2.858373e+003
9.867072e+001, 2.844883e+003
9.915283e+001, 2.837146e+003
9.963495e+001, 2.835052e+003
1.001171e+002, 2.841927e+003
1.005992e+002, 2.861715e+003
1.010813e+002, 2.893651e+003
1.015634e+002, 2.941073e+003
1.020455e+002, 3.011939e+003
1.025277e+002, 3.088772e+003
1.030098e+002, 3.168015e+003
1.034919e+002, 3.247542e+003
1.039740e+002, 3.313507e+003
1.044561e+002, 3.319050e+003
1.049382e+002, 3.235435e+003
1.054204e+002, 3.120902e+003
1.059025e+002, 2.961155e+003
1.063846e+002, 2.775186e+003
1.068667e+002, 2.592073e+003
1.073488e+002, 2.426680e+003
1.078309e+002, 2.281106e+003
1.083131e+002, 2.161716e+003
1.087952e+002, 2.072928e+003
1.092773e+002, 2.000640e+003
1.097594e+002, 1.939895e+003
1.102415e+002, 1.890008e+003
1.107236e+002, 1.848963e+003
1.112058e+002, 1.818607e+003
1.116879e+002, 1.796571e+003
1.121700e+002, 1.775342e+003
1.126521e+002, 1.753083e+003
1.131342e+002, 1.730998e+003
1.136163e+002, 1.710900e+003
1.140985e+002, 1.692633e+003
1.145806e+002, 1.677354e+003
1.150627e+002, 1.666794e+003
1.155448e+002, 1.659552e+003
1.160269e+002, 1.652238e+003
1.165090e+002, 1.641794e+003
1.169912e+002, 1.628347e+003
1.174733e+002, 1.617687e+003
1.179554e+002, 1.611184e+003
1.184375e+002, 1.606801e+003
1.189196e+002, 1.604531e+003
1.194017e+002, 1.603941e+003
1.198839e+002, 1.603882e+003
1.203660e+002, 1.602469e+003
1.208481e+002, 1.597293e+003
1.213302e+002, 1.597087e+003
1.218123e+002, 1.602690e+003
1.222944e+002, 1.611347e+003
1.227766e+002, 1.622947e+003
1.232587e+002, 1.636881e+003
1.237408e+002, 1.650657e+003
1.242229e+002, 1.659611e+003
1.247050e+002, 1.666596e+003
1.251871e+002, 1.663363e+003
1.256693e+002, 1.643514e+003
1.261514e+002, 1.614930e+003
1.266335e+002, 1.586780e+003
1.271156e+002, 1.562439e+003
1.275977e+002, 1.542020e+003
1.280798e+002, 1.526169e+003
1.285620e+002, 1.515064e+003
1.290441e+002, 1.506438e+003
1.295262e+002, 1.500470e+003
1.300083e+002, 1.496626e+003
1.304904e+002, 1.492573e+003
1.309725e+002, 1.486410e+003
1.314547e+002, 1.479797e+003
1.319368e+002, 1.476116e+003
1.324189e+002, 1.477136e+003
1.329010e+002, 1.479221e+003
1.333831e+002, 1.477510e+003
1.338652e+002, 1.470712e+003
1.343474e+002, 1.467142e+003
1.348295e+002, 1.474714e+003
1.353116e+002, 1.486838e+003
1.357937e+002, 1.496662e+003
1.362758e+002, 1.501064e+003
1.367579e+002, 1.501882e+003
1.372401e+002, 1.503241e+003
1.377222e+002, 1.502274e+003
1.382043e+002, 1.507046e+003
1.386864e+002, 1.522557e+003
1.391685e+002, 1.544242e+003
1.396507e+002, 1.566297e+003
1.401328e+002, 1.586102e+003
1.406149e+002, 1.603444e+003
1.410970e+002, 1.609075e+003
1.415791e+002, 1.595339e+003
1.420612e+002, 1.576239e+003
1.425434e+002, 1.552488e+003
1.430255e+002, 1.525886e+003
1.435076e+002, 1.498687e+003
1.439897e+002, 1.472366e+003
1.444718e+002, 1.445862e+003
1.449539e+002, 1.427784e+003
1.454361e+002, 1.421308e+003
1.459182e+002, 1.418549e+003
1.464003e+002, 1.416317e+003
1.468824e+002, 1.413789e+003
1.473645e+002, 1.410518e+003
1.478466e+002, 1.405744e+003
1.483288e+002, 1.398598e+003
1.488109e+002, 1.393187e+003
1.492930e+002, 1.389811e+003
1.497751e+002, 1.388061e+003
1.502572e+002, 1.387695e+003
1.507393e+002, 1.388712e+003
1.512215e+002, 1.390694e+003
1.517036e+002, 1.393598e+003
1.521857e+002, 1.397419e+003
1.526678e+002, 1.400605e+003
1.531499e+002, 1.401831e+003
1.536320e+002, 1.402015e+003
1.541142e+002, 1.403641e+003
1.545963e+002, 1.408037e+003
1.550784e+002, 1.412995e+003
1.555605e+002, 1.415904e+003
1.560426e+002, 1.416766e+003
1.565247e+002, 1.417836e+003
1.570069e+002, 1.420534e+003
1.574890e+002, 1.424851e+003
1.579711e+002, 1.430280e+003
1.584532e+002, 1.438213e+003
1.589353e+002, 1.446165e+003
1.594174e+002, 1.452139e+003
1.598996e+002, 1.455940e+003
1.603817e+002, 1.459358e+003
1.608638e+002, 1.464449e+003
1.613459e+002, 1.471409e+003
1.618280e+002, 1.479459e+003
1.623102e+002, 1.489771e+003
1.627923e+002, 1.500189e+003
1.632744e+002, 1.509646e+003
1.637565e+002, 1.517780e+003
1.642386e+002, 1.524178e+003
1.647207e+002, 1.527926e+003
1.652029e+002, 1.526643e+003
1.656850e+002, 1.526366e+003
1.661671e+002, 1.526670e+003
1.666492e+002, 1.528389e+003
1.671313e+002, 1.532477e+003
1.676134e+002, 1.539323e+003
1.680956e+002, 1.548329e+003
1.685777e+002, 1.557784e+003
1.690598e+002, 1.567664e+003
1.695419e+002, 1.578078e+003
1.700240e+002, 1.589203e+003
1.705061e+002, 1.600872e+003
1.709883e+002, 1.612674e+003
1.714704e+002, 1.624298e+003
1.719525e+002, 1.636191e+003
1.724346e+002, 1.650452e+003
1.729167e+002, 1.666814e+003
1.733988e+002, 1.685283e+003
1.738810e+002, 1.707368e+003
1.743631e+002, 1.731783e+003
1.748452e+002, 1.754788e+003
1.753273e+002, 1.773463e+003
1.758094e+002, 1.789765e+003
1.762915e+002, 1.810009e+003
1.767737e+002, 1.837090e+003
1.772558e+002, 1.864631e+003
1.777379e+002, 1.887501e+003
1.782200e+002, 1.906208e+003
1.787021e+002, 1.927729e+003
1.791842e+002, 1.958011e+003
1.796664e+002, 1.993125e+003
1.801485e+002, 2.025256e+003
1.806306e+002, 2.052475e+003
1.811127e+002, 2.077635e+003
1.815948e+002, 2.104098e+003
1.820769e+002, 2.132557e+003
1.825591e+002, 2.158254e+003
1.830412e+002, 2.178287e+003
1.835233e+002, 2.194152e+003
1.840054e+002, 2.206781e+003
1.844875e+002, 2.216144e+003
1.849696e+002, 2.222574e+003
1.854518e+002, 2.225966e+003
1.859339e+002, 2.224571e+003
1.864160e+002, 2.224058e+003
1.868981e+002, 2.228777e+003
1.873802e+002, 2.234768e+003
1.878623e+002, 2.237383e+003
1.883445e+002, 2.234135e+003
1.888266e+002, 2.226264e+003
1.893087e+002, 2.218130e+003
1.897908e+002, 2.211308e+003
1.902729e+002, 2.201539e+003
1.907550e+002, 2.188193e+003
1.912372e+002, 2.171582e+003
1.917193e+002, 2.151834e+003
1.922014e+002, 2.128757e+003
1.926835e+002, 2.102919e+003
1.931656e+002, 2.078359e+003
1.936477e+002, 2.055522e+003
1.941299e+002, 2.033869e+003
1.946120e+002, 2.011905e+003
1.950941e+002, 1.991188e+003
1.955762e+002, 1.974617e+003
1.960583e+002, 1.964355e+003
1.965404e+002, 1.960038e+003
1.970226e+002, 1.955279e+003
1.975047e+002, 1.946079e+003
1.979868e+002, 1.940553e+003
1.984689e+002, 1.941992e+003
1.989510e+002, 1.949060e+003
1.994331e+002, 1.958740e+003
1.999153e+002, 1.969273e+003
2.003974e+002, 1.980580e+003
2.008795e+002, 1.990305e+003
2.013616e+002, 2.000198e+003
2.018437e+002, 2.007283e+003
2.023258e+002, 2.009473e+003
2.028080e+002, 2.007460e+003
2.032901e+002, 2.004170e+003
2.037722e+002, 2.002076e+003
2.042543e+002, 2.000544e+003
2.047364e+002, 1.994081e+003
2.052185e+002, 1.980814e+003
2.057007e+002, 1.964697e+003
2.061828e+002, 1.948407e+003
2.066649e+002, 1.931847e+003
2.071470e+002, 1.913087e+003
2.076291e+002, 1.890305e+003
2.081112e+002, 1.863931e+003
2.085934e+002, 1.837266e+003
2.090755e+002, 1.808982e+003
2.095576e+002, 1.781472e+003
2.100397e+002, 1.757493e+003
2.105218e+002, 1.737127e+003
2.110039e+002, 1.717373e+003
2.114861e+002, 1.695896e+003
2.119682e+002, 1.673665e+003
2.124503e+002, 1.652385e+003
2.129324e+002, 1.632704e+003
2.134145e+002, 1.613978e+003
2.138967e+002, 1.595682e+003
2.143788e+002, 1.577899e+003
2.148609e+002, 1.559985e+003
2.153430e+002, 1.539114e+003
2.158251e+002, 1.518323e+003
2.163072e+002, 1.501997e+003
2.167894e+002, 1.492495e+003
2.172715e+002, 1.487021e+003
2.177536e+002, 1.480502e+003
2.182357e+002, 1.472014e+003
2.187178e+002, 1.465131e+003
2.191999e+002, 1.461656e+003
2.196821e+002, 1.460377e+003
2.201642e+002, 1.460066e+003
2.206463e+002, 1.460093e+003
2.211284e+002, 1.460995e+003
2.216105e+002, 1.464292e+003
2.220926e+002, 1.471322e+003
2.225748e+002, 1.478149e+003
2.230569e+002, 1.483569e+003
2.235390e+002, 1.488168e+003
2.240211e+002, 1.492772e+003
2.245032e+002, 1.497911e+003
2.249853e+002, 1.502922e+003
2.254675e+002, 1.506023e+003
2.259496e+002, 1.506669e+003
2.264317e+002, 1.505970e+003
2.269138e+002, 1.504436e+003
2.273959e+002, 1.501830e+003
2.278780e+002, 1.497360e+003
2.283602e+002, 1.490457e+003
2.288423e+002, 1.482414e+003
2.293244e+002, 1.477513e+003
2.298065e+002, 1.478727e+003
2.302886e+002, 1.479176e+003
2.307707e+002, 1.476740e+003
2.312529e+002, 1.473502e+003
2.317350e+002, 1.471671e+003
2.322171e+002, 1.472291e+003
2.326992e+002, 1.475091e+003
2.331813e+002, 1.479192e+003
2.336634e+002, 1.483719e+003
2.341456e+002, 1.490999e+003
2.346277e+002, 1.503887e+003
2.351098e+002, 1.518642e+003
2.355919e+002, 1.531014e+003
2.360740e+002, 1.539057e+003
2.365561e+002, 1.543896e+003
2.370383e+002, 1.548822e+003
2.375204e+002, 1.553617e+003
2.380025e+002, 1.558796e+003
2.384846e+002, 1.566042e+003
2.389667e+002, 1.573195e+003
2.394488e+002, 1.577523e+003
2.399310e+002, 1.577890e+003
2.404131e+002, 1.575273e+003
2.408952e+002, 1.572031e+003
2.413773e+002, 1.567522e+003
2.418594e+002, 1.563267e+003
2.423415e+002, 1.559041e+003
2.428237e+002, 1.555265e+003
2.433058e+002, 1.553304e+003
2.437879e+002, 1.553870e+003
2.442700e+002, 1.554546e+003
2.447521e+002, 1.549651e+003
2.452342e+002, 1.536186e+003
2.457164e+002, 1.523564e+003
2.461985e+002, 1.513779e+003
2.466806e+002, 1.505396e+003
2.471627e+002, 1.497037e+003
2.476448e+002, 1.488402e+003
2.481269e+002, 1.478418e+003
2.486091e+002, 1.464677e+003
2.490912e+002, 1.446725e+003
2.495733e+002, 1.427540e+003
2.500554e+002, 1.405291e+003
2.505375e+002, 1.382645e+003
2.510196e+002, 1.363899e+003
2.515018e+002, 1.350478e+003
2.519839e+002, 1.339900e+003
2.524660e+002, 1.329073e+003
2.529481e+002, 1.317950e+003
2.534302e+002, 1.307039e+003
2.539123e+002, 1.296193e+003
2.543945e+002, 1.285742e+003
2.548766e+002, 1.275993e+003
2.553587e+002, 1.266900e+003
2.558408e+002, 1.258906e+003
2.563229e+002, 1.253399e+003
2.568051e+002, 1.250002e+003
2.572872e+002, 1.245829e+003
2.577693e+002, 1.239135e+003
2.582514e+002, 1.231392e+003
2.587335e+002, 1.224682e+003
2.592156e+002, 1.219145e+003
2.596978e+002, 1.215192e+003
2.601799e+002, 1.214094e+003
2.606620e+002, 1.215104e+003
2.611441e+002, 1.216222e+003
2.616262e+002, 1.216286e+003
2.621083e+002, 1.216234e+003
2.625905e+002, 1.218390e+003
2.630726e+002, 1.223853e+003
2.635547e+002, 1.227960e+003
2.640368e+002, 1.224742e+003
2.645189e+002, 1.217393e+003
2.650010e+002, 1.212281e+003
2.654832e+002, 1.212794e+003
2.659653e+002, 1.216192e+003
2.664474e+002, 1.218650e+003
2.669295e+002, 1.220376e+003
2.674116e+002, 1.220388e+003
2.678937e+002, 1.215643e+003
2.683759e+002, 1.209247e+003
2.688580e+002, 1.205661e+003
2.693401e+002, 1.206959e+003
2.698222e+002, 1.211087e+003
2.703043e+002, 1.216031e+003
2.707864e+002, 1.222575e+003
2.712686e+002, 1.226532e+003
2.717507e+002, 1.222020e+003
2.722328e+002, 1.215093e+003
2.727149e+002, 1.212386e+003
2.731970e+002, 1.216496e+003
2.736791e+002, 1.223632e+003
2.741613e+002, 1.228473e+003
2.746434e+002, 1.230358e+003
2.751255e+002, 1.233542e+003
2.756076e+002, 1.242814e+003
2.760897e+002, 1.252528e+003
2.765718e+002, 1.257263e+003
2.770540e+002, 1.255203e+003
2.775361e+002, 1.251934e+003
2.780182e+002, 1.254432e+003
2.785003e+002, 1.263541e+003
2.789824e+002, 1.272562e+003
2.794645e+002, 1.278674e+003
2.799467e+002, 1.284907e+003
2.804288e+002, 1.293865e+003
2.809109e+002, 1.305880e+003
2.813930e+002, 1.318000e+003
2.818751e+002, 1.326806e+003
2.823572e+002, 1.331957e+003
2.828394e+002, 1.337909e+003
2.833215e+002, 1.346756e+003
2.838036e+002, 1.355395e+003
2.842857e+002, 1.363331e+003
2.847678e+002, 1.369940e+003
2.852499e+002, 1.373011e+003
2.857321e+002, 1.368905e+003
2.862142e+002, 1.357411e+003
2.866963e+002, 1.348025e+003
2.871784e+002, 1.341556e+003
2.876605e+002, 1.337238e+003
2.881426e+002, 1.335380e+003
2.886248e+002, 1.335421e+003
2.891069e+002, 1.335820e+003
2.895890e+002, 1.335088e+003
2.900711e+002, 1.333423e+003
2.905532e+002, 1.333446e+003
2.910353e+002, 1.335071e+003
2.915175e+002, 1.338798e+003
2.919996e+002, 1.344722e+003
2.924817e+002, 1.352677e+003
2.929638e+002, 1.362323e+003
2.934459e+002, 1.373469e+003
2.939280e+002, 1.386188e+003
2.944102e+002, 1.400519e+003
2.948923e+002, 1.417201e+003
2.953744e+002, 1.434578e+003
2.958565e+002, 1.451826e+003
2.963386e+002, 1.469466e+003
2.968207e+002, 1.487958e+003
2.973029e+002, 1.507358e+003
2.977850e+002, 1.527983e+003
2.982671e+002, 1.550685e+003
2.987492e+002, 1.576302e+003
2.992313e+002, 1.602541e+003
2.997134e+002, 1.629070e+003
3.001956e+002, 1.655770e+003
3.006777e+002, 1.683222e+003
3.011598e+002, 1.711774e+003
3.016419e+002, 1.738909e+003
3.021240e+002, 1.760310e+003
3.026061e+002, 1.775405e+003
3.030883e+002, 1.785957e+003
3.035704e+002, 1.792640e+003
3.040525e+002, 1.795033e+003
3.045346e+002, 1.792444e+003
3.050167e+002, 1.784798e+003
3.054988e+002, 1.772754e+003
3.059810e+002, 1.756475e+003
3.064631e+002, 1.735252e+003
3.069452e+002, 1.713090e+003
3.074273e+002, 1.688078e+003
3.079094e+002, 1.663930e+003
3.083915e+002, 1.641950e+003
3.088737e+002, 1.622386e+003
3.093558e+002, 1.604988e+003
3.098379e+002, 1.590080e+003
3.103200e+002, 1.577703e+003
3.108021e+002, 1.565746e+003
3.112842e+002, 1.553551e+003
3.117664e+002, 1.542518e+003
3.122485e+002, 1.532969e+003
3.127306e+002, 1.524979e+003
3.132127e+002, 1.518469e+003
3.136948e+002, 1.513361e+003
3.141769e+002, 1.509739e+003
3.146591e+002, 1.508104e+003
3.151412e+002, 1.509027e+003
3.156233e+002, 1.511443e+003
3.161054e+002, 1.513912e+003
3.165875e+002, 1.517804e+003
3.170696e+002, 1.525255e+003
3.175518e+002, 1.537545e+003
3.180339e+002, 1.553117e+003
3.185160e+002, 1.567621e+003
3.189981e+002, 1.579184e+003
3.194802e+002, 1.593745e+003
3.199623e+002, 1.614608e+003
3.204445e+002, 1.637540e+003
3.209266e+002, 1.658239e+003
3.214087e+002, 1.675492e+003
3.218908e+002, 1.692097e+003
3.223729e+002, 1.711707e+003
3.228550e+002, 1.734230e+003
3.233372e+002, 1.760375e+003
3.238193e+002, 1.792503e+003
3.243014e+002, 1.826593e+003
3.247835e+002, 1.861135e+003
3.252656e+002, 1.895591e+003
3.257477e+002, 1.929881e+003
3.262299e+002, 1.962016e+003
3.267120e+002, 1.990951e+003
3.271941e+002, 2.028044e+003
3.276762e+002, 2.079778e+003
3.281583e+002, 2.134565e+003
3.286404e+002, 2.187592e+003
3.291226e+002, 2.239494e+003
3.296047e+002, 2.293150e+003
3.300868e+002, 2.349951e+003
3.305689e+002, 2.410113e+003
3.310510e+002, 2.475361e+003
3.315331e+002, 2.547118e+003
3.320153e+002, 2.622370e+003
3.324974e+002, 2.699398e+003
3.329795e+002, 2.778707e+003
3.334616e+002, 2.861432e+003
3.339437e+002, 2.948730e+003
3.344258e+002, 3.038866e+003
3.349080e+002, 3.128077e+003
3.353901e+002, 3.218420e+003
3.358722e+002, 3.303309e+003
3.363543e+002, 3.383863e+003
3.368365e+002, 3.457492e+003
3.373186e+002, 3.522851e+003
3.378007e+002, 3.579634e+003
3.382828e+002, 3.624290e+003
3.387649e+002, 3.653098e+003
3.392470e+002, 3.665939e+003
3.397292e+002, 3.662968e+003
3.402113e+002, 3.639338e+003
3.406934e+002, 3.601831e+003
3.411755e+002, 3.552077e+003
3.416576e+002, 3.491135e+003
3.421397e+002, 3.423723e+003
3.426219e+002, 3.349600e+003
3.431040e+002, 3.270072e+003
3.435861e+002, 3.200052e+003
3.440682e+002, 3.144600e+003
3.445503e+002, 3.093690e+003
3.450324e+002, 3.037179e+003
3.455146e+002, 2.979550e+003
3.459967e+002, 2.932098e+003
3.464788e+002, 2.903209e+003
3.469609e+002, 2.887885e+003
3.474430e+002, 2.874096e+003
3.479251e+002, 2.860539e+003
3.484073e+002, 2.852325e+003
3.488894e+002, 2.854054e+003
3.493715e+002, 2.861832e+003
3.498536e+002, 2.871834e+003
3.503357e+002, 2.883431e+003
3.508178e+002, 2.896198e+003
3.513000e+002, 2.909629e+003
3.517821e+002, 2.923730e+003
3.522642e+002, 2.938991e+003
3.527463e+002, 2.956875e+003
3.532284e+002, 2.975189e+003
3.537105e+002, 2.993024e+003
3.541927e+002, 3.010744e+003
3.546748e+002, 3.023567e+003
3.551569e+002, 3.027332e+003
3.556390e+002, 3.023201e+003
3.561211e+002, 3.016918e+003
3.566032e+002, 3.011025e+003
3.570854e+002, 3.000198e+003
3.575675e+002, 2.979796e+003
3.580496e+002, 2.950707e+003
3.585317e+002, 2.915464e+003
3.590138e+002, 2.873425e+003
3.594959e+002, 2.826311e+003
3.599781e+002, 2.776674e+003
3.604602e+002, 2.725183e+003
3.609423e+002, 2.669317e+003
3.614244e+002, 2.605042e+003
3.619065e+002, 2.535654e+003
3.623886e+002, 2.469063e+003
3.628708e+002, 2.407737e+003
3.633529e+002, 2.348290e+003
3.638350e+002, 2.287396e+003
3.643171e+002, 2.225794e+003
3.647992e+002, 2.167686e+003
3.652813e+002, 2.115454e+003
3.657635e+002, 2.067950e+003
3.662456e+002, 2.021651e+003
3.667277e+002, 1.976070e+003
3.672098e+002, 1.933742e+003
3.676919e+002, 1.896323e+003
3.681740e+002, 1.862783e+003
3.686562e+002, 1.831315e+003
3.691383e+002, 1.801524e+003
3.696204e+002, 1.773461e+003
3.701025e+002, 1.746777e+003
3.705846e+002, 1.721350e+003
3.710667e+002, 1.700219e+003
3.715489e+002, 1.685999e+003
3.720310e+002, 1.674772e+003
3.725131e+002, 1.663415e+003
3.729952e+002, 1.651633e+003
3.734773e+002, 1.640267e+003
3.739594e+002, 1.629946e+003
3.744416e+002, 1.620601e+003
3.749237e+002, 1.611775e+003
3.754058e+002, 1.604661e+003
3.758879e+002, 1.596769e+003
3.763700e+002, 1.586798e+003
3.768521e+002, 1.575325e+003
3.773343e+002, 1.563696e+003
3.778164e+002, 1.552523e+003
3.782985e+002, 1.541417e+003
3.787806e+002, 1.529490e+003
3.792627e+002, 1.516972e+003
3.797448e+002, 1.503165e+003
3.802270e+002, 1.486948e+003
3.807091e+002, 1.470056e+003
3.811912e+002, 1.453448e+003
3.816733e+002, 1.437521e+003
3.821554e+002, 1.423299e+003
3.826375e+002, 1.411880e+003
3.831197e+002, 1.403776e+003
3.836018e+002, 1.396237e+003
3.840839e+002, 1.390091e+003
3.845660e+002, 1.383627e+003
3.850481e+002, 1.375222e+003
3.855302e+002, 1.365802e+003
3.860124e+002, 1.357620e+003
3.864945e+002, 1.352131e+003
3.869766e+002, 1.349078e+003
3.874587e+002, 1.347090e+003
3.879408e+002, 1.347999e+003
3.884229e+002, 1.347766e+003
3.889051e+002, 1.344087e+003
3.893872e+002, 1.339985e+003
3.898693e+002, 1.338650e+003
3.903514e+002, 1.341101e+003
3.908335e+002, 1.345894e+003
3.913156e+002, 1.350872e+003
3.917978e+002, 1.356131e+003
3.922799e+002, 1.361345e+003
3.927620e+002, 1.366431e+003
3.932441e+002, 1.371578e+003
3.937262e+002, 1.376941e+003
3.942083e+002, 1.382501e+003
3.946905e+002, 1.388052e+003
3.951726e+002, 1.393297e+003
3.956547e+002, 1.398354e+003
3.961368e+002, 1.404419e+003
3.966189e+002, 1.411315e+003
3.971010e+002, 1.419606e+003
3.975832e+002, 1.430098e+003
3.980653e+002, 1.441709e+003
3.985474e+002, 1.453008e+003
3.990295e+002, 1.463475e+003
3.995116e+002, 1.473511e+003
3.999937e+002, 1.483605e+003
4.004759e+002, 1.493599e+003
4.009580e+002, 1.504403e+003
4.014401e+002, 1.516466e+003
4.019222e+002, 1.529275e+003
4.024043e+002, 1.544365e+003
4.028864e+002, 1.561238e+003
4.033686e+002, 1.573988e+003
4.038507e+002, 1.577083e+003
4.043328e+002, 1.572147e+003
4.048149e+002, 1.565622e+003
4.052970e+002, 1.556620e+003
4.057791e+002, 1.548979e+003
4.062613e+002, 1.548108e+003
4.067434e+002, 1.550340e+003
4.072255e+002, 1.547790e+003
4.077076e+002, 1.535595e+003
4.081897e+002, 1.519972e+003
4.086718e+002, 1.507538e+003
4.091540e+002, 1.498187e+003
4.096361e+002, 1.489683e+003
4.101182e+002, 1.480207e+003
4.106003e+002, 1.472034e+003
4.110824e+002, 1.469165e+003
4.115645e+002, 1.472814e+003
4.120467e+002, 1.476546e+003
4.125288e+002, 1.476689e+003
4.130109e+002, 1.475280e+003
4.134930e+002, 1.475892e+003
4.139751e+002, 1.479267e+003
4.144572e+002, 1.484247e+003
4.149394e+002, 1.489414e+003
4.154215e+002, 1.494836e+003
4.159036e+002, 1.503041e+003
4.163857e+002, 1.516443e+003
4.168678e+002, 1.530628e+003
4.173499e+002, 1.542738e+003
4.178321e+002, 1.553045e+003
4.183142e+002, 1.563081e+003
4.187963e+002, 1.573507e+003
4.192784e+002, 1.584453e+003
4.197605e+002, 1.596362e+003
4.202426e+002, 1.612019e+003
4.207248e+002, 1.624901e+003
4.212069e+002, 1.632115e+003
4.216890e+002, 1.637361e+003
4.221711e+002, 1.644577e+003
4.226532e+002, 1.654561e+003
4.231353e+002, 1.665346e+003
4.236175e+002, 1.674718e+003
4.240996e+002, 1.682666e+003
4.245817e+002, 1.689112e+003
4.250638e+002, 1.695681e+003
4.255459e+002, 1.699371e+003
4.260280e+002, 1.698379e+003
4.265102e+002, 1.693622e+003
4.269923e+002, 1.686643e+003
4.274744e+002, 1.678163e+003
4.279565e+002, 1.668802e+003
4.284386e+002, 1.661076e+003
4.289207e+002, 1.657023e+003
4.294029e+002, 1.650760e+003
4.298850e+002, 1.640618e+003
4.303671e+002, 1.628942e+003
4.308492e+002, 1.616187e+003
4.313313e+002, 1.603056e+003
4.318134e+002, 1.592824e+003
4.322956e+002, 1.590351e+003
4.327777e+002, 1.595869e+003
4.332598e+002, 1.598686e+003
4.337419e+002, 1.596091e+003
4.342241e+002, 1.594039e+003
4.347062e+002, 1.595928e+003
4.351883e+002, 1.600222e+003
4.356704e+002, 1.603624e+003
4.361525e+002, 1.603512e+003
4.366346e+002, 1.603475e+003
4.371168e+002, 1.609144e+003
4.375989e+002, 1.620738e+003
4.380810e+002, 1.635553e+003
4.385631e+002, 1.653126e+003
4.390452e+002, 1.673403e+003
4.395273e+002, 1.697171e+003
4.400095e+002, 1.724870e+003
4.404916e+002, 1.750961e+003
4.409737e+002, 1.768686e+003
4.414558e+002, 1.783477e+003
4.419379e+002, 1.806796e+003
4.424200e+002, 1.840749e+003
4.429022e+002, 1.879666e+003
4.433843e+002, 1.920455e+003
4.438664e+002, 1.962961e+003
4.443485e+002, 2.006271e+003
4.448306e+002, 2.049233e+003
4.453127e+002, 2.094205e+003
4.457949e+002, 2.142634e+003
4.462770e+002, 2.194297e+003
4.467591e+002, 2.249300e+003
4.472412e+002, 2.308353e+003
4.477233e+002, 2.369280e+003
4.482054e+002, 2.428561e+003
4.486876e+002, 2.488809e+003
4.491697e+002, 2.541638e+003
4.496518e+002, 2.587124e+003
4.501339e+002, 2.624542e+003
4.506160e+002, 2.655606e+003
4.510981e+002, 2.678770e+003
4.515803e+002, 2.688536e+003
4.520624e+002, 2.680177e+003
4.525445e+002, 2.654166e+003
4.530266e+002, 2.616391e+003
4.535087e+002, 2.561767e+003
4.539908e+002, 2.500176e+003
4.544730e+002, 2.429912e+003
4.549551e+002, 2.354831e+003
4.554372e+002, 2.277847e+003
4.559193e+002, 2.200430e+003
4.564014e+002, 2.125156e+003
4.568835e+002, 2.056060e+003
4.573657e+002, 1.994229e+003
4.578478e+002, 1.934276e+003
4.583299e+002, 1.871899e+003
4.588120e+002, 1.815967e+003
4.592941e+002, 1.772336e+003
4.597762e+002, 1.738226e+003
4.602584e+002, 1.706332e+003
4.607405e+002, 1.671719e+003
4.612226e+002, 1.637968e+003
4.617047e+002, 1.612994e+003
4.621868e+002, 1.597991e+003
4.626689e+002, 1.585634e+003
4.631511e+002, 1.574249e+003
4.636332e+002, 1.563990e+003
4.641153e+002, 1.553893e+003
4.645974e+002, 1.543610e+003
4.650795e+002, 1.537885e+003
4.655616e+002, 1.542947e+003
4.660438e+002, 1.554086e+003
4.665259e+002, 1.560151e+003
4.670080e+002, 1.559164e+003
4.674901e+002, 1.557221e+003
4.679722e+002, 1.558648e+003
4.684543e+002, 1.563156e+003
4.689365e+002, 1.568463e+003
4.694186e+002, 1.575761e+003
4.699007e+002, 1.582544e+003
4.703828e+002, 1.586631e+003
4.708649e+002, 1.589264e+003
4.713470e+002, 1.593493e+003
4.718292e+002, 1.600528e+003
4.723113e+002, 1.608250e+003
4.727934e+002, 1.613366e+003
4.732755e+002, 1.614553e+003
4.737576e+002, 1.616667e+003
4.742397e+002, 1.620879e+003
4.747219e+002, 1.624933e+003
4.752040e+002, 1.628177e+003
4.756861e+002, 1.630126e+003
4.761682e+002, 1.629571e+003
4.766503e+002, 1.625467e+003
4.771324e+002, 1.619094e+003
4.776146e+002, 1.615591e+003
4.780967e+002, 1.616823e+003
4.785788e+002, 1.618035e+003
4.790609e+002, 1.620286e+003
4.795430e+002, 1.621316e+003
4.800251e+002, 1.618674e+003
4.805073e+002, 1.612494e+003
4.809894e+002, 1.605691e+003
4.814715e+002, 1.602101e+003
4.819536e+002, 1.601169e+003
4.824357e+002, 1.594568e+003
4.829178e+002, 1.578474e+003
4.834000e+002, 1.563243e+003
4.838821e+002, 1.554718e+003
4.843642e+002, 1.549182e+003
4.848463e+002, 1.542000e+003
4.853284e+002, 1.531924e+003
4.858105e+002, 1.519768e+003
4.862927e+002, 1.504941e+003
4.867748e+002, 1.488092e+003
4.872569e+002, 1.473979e+003
4.877390e+002, 1.464777e+003
4.882211e+002, 1.456035e+003
4.887032e+002, 1.442524e+003
4.891854e+002, 1.425048e+003
4.896675e+002, 1.408088e+003
4.901496e+002, 1.393389e+003
4.906317e+002, 1.378782e+003
4.911138e+002, 1.361419e+003
4.915959e+002, 1.342500e+003
4.920781e+002, 1.326820e+003
4.925602e+002, 1.317143e+003
4.930423e+002, 1.310857e+003
4.935244e+002, 1.302201e+003
4.940065e+002, 1.290111e+003
4.944886e+002, 1.277568e+003
4.949708e+002, 1.263139e+003
4.954529e+002, 1.249447e+003
4.959350e+002, 1.238559e+003
4.964171e+002, 1.230347e+003
4.968992e+002, 1.223382e+003
4.973813e+002, 1.216708e+003
4.978635e+002, 1.210218e+003
4.983456e+002, 1.203116e+003
4.988277e+002, 1.194730e+003
4.993098e+002, 1.186634e+003
4.997919e+002, 1.178766e+003
5.002740e+002, 1.171412e+003
5.007562e+002, 1.165076e+003
5.012383e+002, 1.159718e+003
5.017204e+002, 1.154331e+003
5.022025e+002, 1.147887e+003
5.026846e+002, 1.140494e+003
5.031667e+002, 1.132982e+003
5.036489e+002, 1.124893e+003
5.041310e+002, 1.117721e+003
5.046131e+002, 1.113004e+003
5.050952e+002, 1.109505e+003
5.055773e+002, 1.105330e+003
5.060594e+002, 1.099664e+003
5.065416e+002, 1.094258e+003
5.070237e+002, 1.090852e+003
5.075058e+002, 1.088949e+003
5.079879e+002, 1.086654e+003
5.084700e+002, 1.083328e+003
5.089521e+002, 1.080324e+003
5.094343e+002, 1.079644e+003
5.099164e+002, 1.081262e+003
5.103985e+002, 1.080817e+003
5.108806e+002, 1.075928e+003
5.113627e+002, 1.070991e+003
5.118448e+002, 1.068649e+003
5.123270e+002, 1.068166e+003
5.128091e+002, 1.067752e+003
5.132912e+002, 1.066667e+003
5.137733e+002, 1.065060e+003
5.142554e+002, 1.063185e+003
5.147375e+002, 1.061053e+003
5.152197e+002, 1.058595e+003
5.157018e+002, 1.055006e+003
5.161839e+002, 1.051896e+003
5.166660e+002, 1.049885e+003
5.171481e+002, 1.049036e+003
5.176302e+002, 1.049500e+003
5.181124e+002, 1.051575e+003
5.185945e+002, 1.054345e+003
5.190766e+002, 1.055450e+003
5.195587e+002, 1.054609e+003
5.200408e+002, 1.052950e+003
5.205229e+002, 1.049661e+003
5.210051e+002, 1.046358e+003
5.214872e+002, 1.043875e+003
5.219693e+002, 1.042307e+003
5.224514e+002, 1.041727e+003
5.229335e+002, 1.043647e+003
5.234156e+002, 1.046098e+003
5.238978e+002, 1.044948e+003
5.243799e+002, 1.040000e+003
5.248620e+002, 1.034562e+003
5.253441e+002, 1.029532e+003
5.258262e+002, 1.025603e+003
5.263083e+002, 1.024369e+003
5.267905e+002, 1.026648e+003
5.272726e+002, 1.028702e+003
5.277547e+002, 1.030327e+003
5.282368e+002, 1.030699e+003
5.287189e+002, 1.027818e+003
5.292010e+002, 1.022105e+003
5.296832e+002, 1.017357e+003
5.301653e+002, 1.016600e+003
5.306474e+002, 1.019145e+003
5.311295e+002, 1.020263e+003
5.316116e+002, 1.017917e+003
5.320938e+002, 1.016613e+003
5.325759e+002, 1.016755e+003
5.330580e+002, 1.018023e+003
5.335401e+002, 1.021168e+003
5.340222e+002, 1.025618e+003
5.345043e+002, 1.028580e+003
5.349865e+002, 1.026947e+003
5.354686e+002, 1.021147e+003
5.359507e+002, 1.016059e+003
5.364328e+002, 1.010932e+003
5.369149e+002, 1.007985e+003
5.373970e+002, 1.010052e+003
5.378792e+002, 1.013580e+003
5.383613e+002, 1.014805e+003
5.388434e+002, 1.012904e+003
5.393255e+002, 1.009988e+003
5.398076e+002, 1.006851e+003
5.402897e+002, 1.003983e+003
5.407719e+002, 1.002805e+003
5.412540e+002, 1.003618e+003
5.417361e+002, 1.005383e+003
5.422182e+002, 1.007741e+003
5.427003e+002, 1.010454e+003
5.431824e+002, 1.012450e+003
5.436646e+002, 1.014460e+003
5.441467e+002, 1.014822e+003
5.446288e+002, 1.011465e+003
5.451109e+002, 1.006762e+003
5.455930e+002, 1.003858e+003
5.460751e+002, 1.003405e+003
5.465573e+002, 1.004189e+003
5.470394e+002, 1.005157e+003
5.475215e+002, 1.006327e+003
5.480036e+002, 1.006475e+003
5.484857e+002, 1.003140e+003
5.489678e+002, 1.001611e+003
5.494500e+002, 1.005056e+003
5.499321e+002, 1.009672e+003
5.504142e+002, 1.010703e+003
5.508963e+002, 1.007122e+003
5.513784e+002, 1.002886e+003
5.518605e+002, 1.002792e+003
5.523427e+002, 1.006488e+003
5.528248e+002, 1.008758e+003
5.533069e+002, 1.009335e+003
5.537890e+002, 1.008696e+003
5.542711e+002, 1.005404e+003
5.547532e+002, 1.001555e+003
5.552354e+002, 1.000839e+003
5.557175e+002, 1.005401e+003
5.561996e+002, 1.008962e+003
5.566817e+002, 1.005754e+003
5.571638e+002, 9.990664e+002
5.576459e+002, 9.957291e+002
5.581281e+002, 9.970334e+002
5.586102e+002, 1.000076e+003
5.590923e+002, 1.002754e+003
5.595744e+002, 1.005024e+003
5.600565e+002, 1.005927e+003
5.605386e+002, 1.002508e+003
5.610208e+002, 1.001589e+003
5.615029e+002, 1.008166e+003
5.619850e+002, 1.016353e+003
5.624671e+002, 1.018818e+003
5.629492e+002, 1.014422e+003
5.634313e+002, 1.008058e+003
5.639135e+002, 1.004673e+003
5.643956e+002, 1.004210e+003
5.648777e+002, 1.004407e+003
5.653598e+002, 1.006406e+003
5.658419e+002, 1.007199e+003
5.663240e+002, 1.004445e+003
5.668062e+002, 1.000907e+003
5.672883e+002, 9.999603e+002
5.677704e+002, 1.002368e+003
5.682525e+002, 1.004730e+003
5.687346e+002, 1.003837e+003
5.692167e+002, 1.000894e+003
5.696989e+002, 9.993597e+002
5.701810e+002, 9.996641e+002
5.706631e+002, 1.000280e+003
5.711452e+002, 1.000460e+003
5.716273e+002, 1.000144e+003
5.721094e+002, 9.990826e+002
5.725916e+002, 9.960087e+002
5.730737e+002, 9.945071e+002
5.735558e+002, 9.969219e+002
5.740379e+002, 1.000579e+003
5.745200e+002, 1.002471e+003
5.750021e+002, 1.002401e+003
5.754843e+002, 1.002269e+003
5.759664e+002, 1.003764e+003
5.764485e+002, 1.006344e+003
5.769306e+002, 1.006519e+003
5.774127e+002, 1.002193e+003
5.778948e+002, 9.987620e+002
5.783770e+002, 9.965193e+002
5.788591e+002, 9.956368e+002
5.793412e+002, 9.969769e+002
5.798233e+002, 1.000120e+003
5.803054e+002, 1.002856e+003
5.807875e+002, 1.003141e+003
5.812697e+002, 1.002032e+003
5.817518e+002, 1.002442e+003
5.822339e+002, 1.004599e+003
5.827161e+002, 1.006210e+003
5.831982e+002, 1.006542e+003
5.836803e+002, 1.005674e+003
5.841624e+002, 1.003080e+003
5.846445e+002, 9.983083e+002
5.851266e+002, 9.958328e+002
5.856088e+002, 9.994125e+002
5.860909e+002, 1.003794e+003
5.865730e+002, 1.004004e+003
5.870551e+002, 1.000768e+003
5.875372e+002, 9.975467e+002
5.880193e+002, 9.961381e+002
5.885015e+002, 9.958994e+002
5.889836e+002, 9.953849e+002
5.894657e+002, 9.940919e+002
5.899478e+002, 9.936686e+002
5.904299e+002, 9.954481e+002
5.909120e+002, 9.967087e+002
5.913942e+002, 9.947947e+002
5.918763e+002, 9.914902e+002
5.923584e+002, 9.908345e+002
5.928405e+002, 9.951483e+002
5.933226e+002, 1.001362e+003
5.938047e+002, 1.005342e+003
5.942869e+002, 1.007097e+003
5.947690e+002, 1.006416e+003
5.952511e+002, 1.001815e+003
5.957332e+002, 9.973073e+002
5.962153e+002, 9.970708e+002
5.966974e+002, 9.999348e+002
5.971796e+002, 1.002104e+003
5.976617e+002, 1.002701e+003
5.981438e+002, 1.002826e+003
5.986259e+002, 1.002926e+003
5.991080e+002, 1.002997e+003
5.995901e+002, 1.002854e+003
6.000723e+002, 1.002498e+003
6.005544e+002, 1.002647e+003
6.010365e+002, 1.004295e+003
6.015186e+002, 1.007524e+003
6.020007e+002, 1.009027e+003
6.024828e+002, 1.008004e+003
6.029650e+002, 1.006138e+003
6.034471e+002, 1.002852e+003
6.039292e+002, 9.993778e+002
6.044113e+002, 9.966746e+002
6.048934e+002, 9.950217e+002
6.053755e+002, 9.945023e+002
6.058577e+002, 9.958529e+002
6.063398e+002, 9.984374e+002
6.068219e+002, 9.997474e+002
6.073040e+002, 9.995376e+002
6.077861e+002, 9.994513e+002
6.082682e+002, 1.000558e+003
6.087504e+002, 1.001944e+003
6.092325e+002, 1.001879e+003
6.097146e+002, 1.000008e+003
6.101967e+002, 9.986354e+002
6.106788e+002, 9.982129e+002
6.111609e+002, 9.986371e+002
6.116431e+002, 1.000671e+003
6.121252e+002, 1.003573e+003
6.126073e+002, 1.004786e+003
6.130894e+002, 1.002846e+003
6.135715e+002, 9.995192e+002
6.140536e+002, 9.988512e+002
6.145358e+002, 1.002442e+003
6.150179e+002, 1.004765e+003
6.155000e+002, 1.005994e+003
6.159821e+002, 1.005772e+003
6.164642e+002, 1.002074e+003
6.169464e+002, 9.971450e+002
6.174285e+002, 9.955726e+002
6.179106e+002, 9.998504e+002
6.183927e+002, 1.005153e+003
6.188748e+002, 1.005202e+003
6.193569e+002, 1.001159e+003
6.198391e+002, 9.994568e+002
6.203212e+002, 1.001508e+003
6.208033e+002, 1.004361e+003
6.212854e+002, 1.005929e+003
6.217675e+002, 1.006275e+003
6.222496e+002, 1.006117e+003
6.227318e+002, 1.004783e+003
6.232139e+002, 1.003816e+003
6.236960e+002, 1.003769e+003
6.241781e+002, 1.004208e+003
6.246602e+002, 1.004809e+003
6.251423e+002, 1.005440e+003
6.256245e+002, 1.005892e+003
6.261066e+002, 1.005952e+003
6.265887e+002, 1.005748e+003
6.270708e+002, 1.005900e+003
6.275529e+002, 1.006582e+003
6.280350e+002, 1.007195e+003
6.285172e+002, 1.007346e+003
6.289993e+002, 1.007617e+003
6.294814e+002, 1.008344e+003
6.299635e+002, 1.009545e+003
6.304456e+002, 1.011164e+003
6.309277e+002, 1.013994e+003
6.314099e+002, 1.016556e+003
6.318920e+002, 1.017268e+003
6.323741e+002, 1.016300e+003
6.328562e+002, 1.013841e+003
6.333383e+002, 1.009666e+003
6.338204e+002, 1.005810e+003
6.343026e+002, 1.004727e+003
6.347847e+002, 1.006660e+003
6.352668e+002, 1.009277e+003
6.357489e+002, 1.013947e+003
6.362310e+002, 1.017571e+003
6.367131e+002, 1.018429e+003
6.371953e+002, 1.018147e+003
6.376774e+002, 1.018358e+003
6.381595e+002, 1.019529e+003
6.386416e+002, 1.021629e+003
6.391237e+002, 1.025624e+003
6.396058e+002, 1.030593e+003
6.400880e+002, 1.030811e+003
6.405701e+002, 1.024441e+003
6.410522e+002, 1.020868e+003
6.415343e+002, 1.026070e+003
6.420164e+002, 1.034123e+003
6.424985e+002, 1.036652e+003
6.429807e+002, 1.033249e+003
6.434628e+002, 1.030610e+003
6.439449e+002, 1.032022e+003
6.444270e+002, 1.033727e+003
6.449091e+002, 1.032077e+003
6.453912e+002, 1.028178e+003
6.458734e+002, 1.025392e+003
6.463555e+002, 1.025099e+003
6.468376e+002, 1.025764e+003
6.473197e+002, 1.024711e+003
6.478018e+002, 1.021088e+003
6.482839e+002, 1.020667e+003
6.487661e+002, 1.027336e+003
6.492482e+002, 1.032457e+003
6.497303e+002, 1.032297e+003
6.502124e+002, 1.029705e+003
6.506945e+002, 1.027849e+003
6.511766e+002, 1.027431e+003
6.516588e+002, 1.028557e+003
6.521409e+002, 1.032807e+003
6.526230e+002, 1.038224e+003
6.531051e+002, 1.040245e+003
6.535872e+002, 1.038712e+003
6.540693e+002, 1.037435e+003
6.545515e+002, 1.038468e+003
6.550336e+002, 1.040812e+003
6.555157e+002, 1.042478e+003
6.559978e+002, 1.043600e+003
6.564799e+002, 1.043560e+003
6.569620e+002, 1.040442e+003
6.574442e+002, 1.038042e+003
6.579263e+002, 1.038980e+003
6.584084e+002, 1.041949e+003
6.588905e+002, 1.044810e+003
6.593726e+002, 1.046674e+003
6.598547e+002, 1.047106e+003
6.603369e+002, 1.044429e+003
6.608190e+002, 1.039025e+003
6.613011e+002, 1.036702e+003
6.617832e+002, 1.038430e+003
6.622653e+002, 1.041467e+003
6.627474e+002, 1.045635e+003
6.632296e+002, 1.049560e+003
6.637117e+002, 1.050254e+003
6.641938e+002, 1.046387e+003
6.646759e+002, 1.043600e+003
6.651580e+002, 1.044145e+003
6.656401e+002, 1.046138e+003
6.661223e+002, 1.048560e+003
6.666044e+002, 1.050904e+003
6.670865e+002, 1.052000e+003
6.675686e+002, 1.051193e+003
6.680507e+002, 1.049642e+003
6.685328e+002, 1.049815e+003
6.690150e+002, 1.052470e+003
6.694971e+002, 1.053529e+003
6.699792e+002, 1.051716e+003
6.704613e+002, 1.049816e+003
6.709434e+002, 1.048564e+003
6.714255e+002, 1.048161e+003
6.719077e+002, 1.049355e+003
6.723898e+002, 1.052799e+003
6.728719e+002, 1.055233e+003
6.733540e+002, 1.053693e+003
6.738361e+002, 1.050259e+003
6.743182e+002, 1.047776e+003
6.748004e+002, 1.046546e+003
6.752825e+002, 1.046651e+003
6.757646e+002, 1.048320e+003
6.762467e+002, 1.050811e+003
6.767288e+002, 1.052402e+003
6.772109e+002, 1.052606e+003
6.776931e+002, 1.053046e+003
6.781752e+002, 1.053354e+003
6.786573e+002, 1.054253e+003
6.791394e+002, 1.056673e+003
6.796215e+002, 1.059691e+003
6.801036e+002, 1.061863e+003
6.805858e+002, 1.062689e+003
6.810679e+002, 1.062667e+003
6.815500e+002, 1.061226e+003
6.820321e+002, 1.059378e+003
6.825142e+002, 1.060839e+003
6.829963e+002, 1.066092e+003
6.834785e+002, 1.070270e+003
6.839606e+002, 1.070372e+003
6.844427e+002, 1.068059e+003
6.849248e+002, 1.067100e+003
6.854069e+002, 1.067542e+003
6.858890e+002, 1.069382e+003
6.863712e+002, 1.074504e+003
6.868533e+002, 1.079165e+003
6.873354e+002, 1.081713e+003
6.878175e+002, 1.082281e+003
6.882996e+002, 1.080670e+003
6.887817e+002, 1.076868e+003
6.892639e+002, 1.073699e+003
6.897460e+002, 1.075064e+003
6.902281e+002, 1.080342e+003
6.907102e+002, 1.085473e+003
6.911923e+002, 1.090465e+003
6.916744e+002, 1.094403e+003
6.921566e+002, 1.096254e+003
6.926387e+002, 1.097158e+003
6.931208e+002, 1.099599e+003
6.936029e+002, 1.104219e+003
6.940850e+002, 1.107369e+003
6.945671e+002, 1.105876e+003
6.950493e+002, 1.105178e+003
6.955314e+002, 1.110005e+003
6.960135e+002, 1.117994e+003
6.964956e+002, 1.124348e+003
6.969777e+002, 1.127305e+003
6.974598e+002, 1.128561e+003
6.979420e+002, 1.130017e+003
6.984241e+002, 1.131664e+003
6.989062e+002, 1.132971e+003
6.993883e+002, 1.132844e+003
6.998704e+002, 1.135583e+003
7.003525e+002, 1.145402e+003
7.008347e+002, 1.157424e+003
7.013168e+002, 1.165009e+003
7.017989e+002, 1.167783e+003
7.022810e+002, 1.169836e+003
7.027631e+002, 1.171514e+003
7.032452e+002, 1.173488e+003
7.037274e+002, 1.176837e+003
7.042095e+002, 1.180705e+003
7.046916e+002, 1.182884e+003
7.051737e+002, 1.182837e+003
7.056558e+002, 1.183151e+003
7.061379e+002, 1.187589e+003
7.066201e+002, 1.195704e+003
7.071022e+002, 1.198610e+003
7.075843e+002, 1.193524e+003
7.080664e+002, 1.189813e+003
7.085485e+002, 1.191754e+003
7.090306e+002, 1.195347e+003
7.095128e+002, 1.197114e+003
7.099949e+002, 1.197038e+003
7.104770e+002, 1.196401e+003
7.109591e+002, 1.195771e+003
7.114412e+002, 1.194573e+003
7.119233e+002, 1.192315e+003
7.124055e+002, 1.189224e+003
7.128876e+002, 1.185510e+003
7.133697e+002, 1.181344e+003
7.138518e+002, 1.177440e+003
7.143339e+002, 1.174652e+003
7.148160e+002, 1.172727e+003
7.152982e+002, 1.169700e+003
7.157803e+002, 1.165130e+003
7.162624e+002, 1.160481e+003
7.167445e+002, 1.155921e+003
7.172266e+002, 1.151490e+003
7.177087e+002, 1.146693e+003
7.181909e+002, 1.141912e+003
7.186730e+002, 1.138815e+003
7.191551e+002, 1.139516e+003
7.196372e+002, 1.139871e+003
7.201193e+002, 1.136138e+003
7.206014e+002, 1.130465e+003
7.210836e+002, 1.126874e+003
7.215657e+002, 1.125755e+003
7.220478e+002, 1.124181e+003
7.225299e+002, 1.119840e+003
7.230120e+002, 1.113608e+003
7.234941e+002, 1.108595e+003
7.239763e+002, 1.104547e+003
7.244584e+002, 1.102456e+003
7.249405e+002, 1.104447e+003
7.254226e+002, 1.106288e+003
7.259047e+002, 1.105660e+003
7.263868e+002, 1.103267e+003
7.268690e+002, 1.100508e+003
7.273511e+002, 1.097412e+003
7.278332e+002, 1.094903e+003
7.283153e+002, 1.094089e+003
7.287974e+002, 1.093902e+003
7.292795e+002, 1.092700e+003
7.297617e+002, 1.090585e+003
7.302438e+002, 1.089136e+003
7.307259e+002, 1.089330e+003
7.312080e+002, 1.089727e+003
7.316901e+002, 1.086877e+003
7.321722e+002, 1.079321e+003
7.326544e+002, 1.074790e+003
7.331365e+002, 1.075269e+003
7.336186e+002, 1.076050e+003
7.341007e+002, 1.075508e+003
7.345828e+002, 1.074010e+003
7.350649e+002, 1.071460e+003
7.355471e+002, 1.067652e+003
7.360292e+002, 1.065456e+003
7.365113e+002, 1.067799e+003
7.369934e+002, 1.071143e+003
7.374755e+002, 1.072299e+003
7.379576e+002, 1.071449e+003
7.384398e+002, 1.069240e+003
7.389219e+002, 1.065952e+003
7.394040e+002, 1.062769e+003
7.398861e+002, 1.061383e+003
7.403682e+002, 1.061732e+003
7.408503e+002, 1.060166e+003
7.413325e+002, 1.054632e+003
7.418146e+002, 1.051499e+003
7.422967e+002, 1.054514e+003
7.427788e+002, 1.059199e+003
7.432609e+002, 1.062100e+003
7.437430e+002, 1.063230e+003
7.442252e+002, 1.063870e+003
7.447073e+002, 1.064891e+003
7.451894e+002, 1.065036e+003
7.456715e+002, 1.062773e+003
7.461536e+002, 1.059396e+003
7.466357e+002, 1.056677e+003
7.471179e+002, 1.055061e+003
7.476000e+002, 1.054671e+003
7.480821e+002, 1.055702e+003
7.485642e+002, 1.057826e+003
7.490463e+002, 1.060149e+003
7.495284e+002, 1.062959e+003
7.500106e+002, 1.064624e+003
7.504927e+002, 1.063719e+003
7.509748e+002, 1.063329e+003
7.514569e+002, 1.066852e+003
7.519390e+002, 1.072230e+003
7.524211e+002, 1.074789e+003
7.529033e+002, 1.072691e+003
7.533854e+002, 1.070934e+003
7.538675e+002, 1.071139e+003
7.543496e+002, 1.072625e+003
7.548317e+002, 1.075421e+003
7.553138e+002, 1.078902e+003
7.557960e+002, 1.081472e+003
7.562781e+002, 1.082402e+003
7.567602e+002, 1.083051e+003
7.572423e+002, 1.085597e+003
7.577244e+002, 1.089952e+003
7.582065e+002, 1.093586e+003
7.586887e+002, 1.095897e+003
7.591708e+002, 1.099593e+003
7.596529e+002, 1.107580e+003
7.601350e+002, 1.116050e+003
7.606171e+002, 1.118342e+003
7.610992e+002, 1.113969e+003
7.615814e+002, 1.111947e+003
7.620635e+002, 1.113575e+003
7.625456e+002, 1.117555e+003
7.630277e+002, 1.125584e+003
7.635098e+002, 1.134455e+003
7.639919e+002, 1.139468e+003
7.644741e+002, 1.140409e+003
7.649562e+002, 1.141633e+003
7.654383e+002, 1.146827e+003
7.659204e+002, 1.154146e+003
7.664025e+002, 1.158970e+003
7.668846e+002, 1.161415e+003
7.673668e+002, 1.165309e+003
7.678489e+002, 1.171398e+003
7.683310e+002, 1.179384e+003
7.688131e+002, 1.189768e+003
7.692952e+002, 1.201858e+003
7.697773e+002, 1.211790e+003
7.702595e+002, 1.217784e+003
7.707416e+002, 1.224372e+003
7.712237e+002, 1.231815e+003
7.717058e+002, 1.239880e+003
7.721879e+002, 1.249220e+003
7.726700e+002, 1.258847e+003
7.731522e+002, 1.266550e+003
7.736343e+002, 1.271312e+003
7.741164e+002, 1.276269e+003
7.745985e+002, 1.285215e+003
7.750806e+002, 1.296333e+003
7.755627e+002, 1.304531e+003
7.760449e+002, 1.310011e+003
7.765270e+002, 1.319049e+003
7.770091e+002, 1.335059e+003
7.774912e+002, 1.352715e+003
7.779733e+002, 1.363641e+003
7.784554e+002, 1.366896e+003
7.789376e+002, 1.371993e+003
7.794197e+002, 1.380899e+003
7.799019e+002, 1.389019e+003
7.803840e+002, 1.393848e+003
7.808661e+002, 1.398686e+003
7.813482e+002, 1.407365e+003
7.818303e+002, 1.419278e+003
7.823124e+002, 1.429322e+003
7.827946e+002, 1.433863e+003
7.832767e+002, 1.437671e+003
7.837588e+002, 1.444988e+003
7.842409e+002, 1.454135e+003
7.847230e+002, 1.461936e+003
7.852051e+002, 1.468074e+003
7.856873e+002, 1.474703e+003
7.861694e+002, 1.483482e+003
7.866515e+002, 1.492959e+003
7.871336e+002, 1.499146e+003
7.876157e+002, 1.501357e+003
7.880978e+002, 1.503628e+003
7.885800e+002, 1.504426e+003
7.890621e+002, 1.508468e+003
7.895442e+002, 1.521400e+003
7.900263e+002, 1.537933e+003
7.905084e+002, 1.549116e+003
7.909905e+002, 1.553071e+003
7.914727e+002, 1.559388e+003
7.919548e+002, 1.573615e+003
7.924369e+002, 1.587647e+003
7.929190e+002, 1.594713e+003
7.934011e+002, 1.598745e+003
7.938832e+002, 1.607276e+003
7.943654e+002, 1.621655e+003
7.948475e+002, 1.636068e+003
7.953296e+002, 1.644797e+003
7.958117e+002, 1.650196e+003
7.962938e+002, 1.658909e+003
7.967759e+002, 1.670825e+003
7.972581e+002, 1.681266e+003
7.977402e+002, 1.688906e+003
7.982223e+002, 1.695402e+003
7.987044e+002, 1.701834e+003
7.991865e+002, 1.708307e+003
7.996686e+002, 1.715402e+003
8.001508e+002, 1.722523e+003
8.006329e+002, 1.731219e+003
8.011150e+002, 1.742121e+003
8.015971e+002, 1.754021e+003
8.020792e+002, 1.765794e+003
8.025613e+002, 1.778255e+003
8.030435e+002, 1.792757e+003
8.035256e+002, 1.809572e+003
8.040077e+002, 1.829491e+003
8.044898e+002, 1.853903e+003
8.049719e+002, 1.881185e+003
8.054540e+002, 1.907666e+003
8.059362e+002, 1.934712e+003
8.064183e+002, 1.968346e+003
8.069004e+002, 2.010702e+003
8.073825e+002, 2.058900e+003
8.078646e+002, 2.109293e+003
8.083467e+002, 2.162310e+003
8.088289e+002, 2.223413e+003
8.093110e+002, 2.293202e+003
8.097931e+002, 2.369580e+003
8.102752e+002, 2.450730e+003
8.107573e+002, 2.539695e+003
8.112394e+002, 2.639475e+003
8.117216e+002, 2.748333e+003
8.122037e+002, 2.859195e+003
8.126858e+002, 2.968819e+003
8.131679e+002, 3.085471e+003
8.136500e+002, 3.212261e+003
8.141321e+002, 3.346501e+003
8.146143e+002, 3.484416e+003
8.150964e+002, 3.627094e+003
8.155785e+002, 3.777390e+003
8.160606e+002, 3.936097e+003
8.165427e+002, 4.107149e+003
8.170248e+002, 4.296861e+003
8.175070e+002, 4.502503e+003
8.179891e+002, 4.713626e+003
8.184712e+002, 4.930810e+003
8.189533e+002, 5.159558e+003
8.194354e+002, 5.401052e+003
8.199175e+002, 5.654096e+003
8.203997e+002, 5.917974e+003
8.208818e+002, 6.192510e+003
8.213639e+002, 6.468986e+003
8.218460e+002, 6.748861e+003
8.223281e+002, 7.028702e+003
8.228102e+002, 7.317501e+003
8.232924e+002, 7.599021e+003
8.237745e+002, 7.873440e+003
8.242566e+002, 8.130629e+003
8.247387e+002, 8.345608e+003
8.252208e+002, 8.511936e+003
8.257029e+002, 8.637224e+003
8.261851e+002, 8.726620e+003
8.266672e+002, 8.777521e+003
8.271493e+002, 8.778398e+003
8.276314e+002, 8.738066e+003
8.281135e+002, 8.679838e+003
8.285956e+002, 8.613261e+003
8.290778e+002, 8.539590e+003
8.295599e+002, 8.456738e+003
8.300420e+002, 8.367976e+003
8.305241e+002, 8.295363e+003
8.310062e+002, 8.240971e+003
8.314883e+002, 8.190777e+003
8.319705e+002, 8.138478e+003
8.324526e+002, 8.094893e+003
8.329347e+002, 8.073032e+003
8.334168e+002, 8.070522e+003
8.338989e+002, 8.065038e+003
8.343810e+002, 8.048694e+003
8.348632e+002, 8.040990e+003
8.353453e+002, 8.048251e+003
8.358274e+002, 8.060139e+003
8.363095e+002, 8.073417e+003
8.367916e+002, 8.085604e+003
8.372737e+002, 8.092643e+003
8.377559e+002, 8.093122e+003
8.382380e+002, 8.093047e+003
8.387201e+002, 8.101340e+003
8.392022e+002, 8.108643e+003
8.396843e+002, 8.106419e+003
8.401664e+002, 8.092035e+003
8.406486e+002, 8.058103e+003
8.411307e+002, 8.002698e+003
8.416128e+002, 7.932189e+003
8.420949e+002, 7.853884e+003
8.425770e+002, 7.765366e+003
8.430591e+002, 7.656298e+003
8.435413e+002, 7.526142e+003
8.440234e+002, 7.375802e+003
8.445055e+002, 7.200003e+003
8.449876e+002, 7.012885e+003
8.454697e+002, 6.821608e+003
8.459518e+002, 6.625590e+003
8.464340e+002, 6.423075e+003
8.469161e+002, 6.208210e+003
8.473982e+002, 6.003519e+003
8.478803e+002, 5.811594e+003
8.483624e+002, 5.629061e+003
8.488445e+002, 5.454304e+003
8.493267e+002, 5.287695e+003
8.498088e+002, 5.129663e+003
8.502909e+002, 4.979950e+003
8.507730e+002, 4.840321e+003
8.512551e+002, 4.710471e+003
8.517372e+002, 4.592500e+003
8.522194e+002, 4.490767e+003
8.527015e+002, 4.401781e+003
8.531836e+002, 4.316028e+003
8.536657e+002, 4.232292e+003
8.541478e+002, 4.157835e+003
8.546299e+002, 4.097309e+003
8.551121e+002, 4.048155e+003
8.555942e+002, 4.003483e+003
8.560763e+002, 3.962998e+003
8.565584e+002, 3.931887e+003
8.570405e+002, 3.913074e+003
8.575226e+002, 3.896224e+003
8.580048e+002, 3.875167e+003
8.584869e+002, 3.855001e+003
8.589690e+002, 3.843020e+003
8.594511e+002, 3.839371e+003
8.599332e+002, 3.839996e+003
8.604153e+002, 3.849612e+003
8.608975e+002, 3.857163e+003
8.613796e+002, 3.857538e+003
8.618617e+002, 3.856282e+003
8.623438e+002, 3.858030e+003
8.628259e+002, 3.862585e+003
8.633080e+002, 3.867904e+003
8.637902e+002, 3.873564e+003
8.642723e+002, 3.878194e+003
8.647544e+002, 3.883114e+003
8.652365e+002, 3.884954e+003
8.657186e+002, 3.879096e+003
8.662007e+002, 3.865249e+003
8.666829e+002, 3.843390e+003
8.671650e+002, 3.813738e+003
8.676471e+002, 3.778686e+003
8.681292e+002, 3.741698e+003
8.686113e+002, 3.702016e+003
8.690934e+002, 3.655603e+003
8.695756e+002, 3.602826e+003
8.700577e+002, 3.540398e+003
8.705398e+002, 3.465175e+003
8.710219e+002, 3.386384e+003
8.715040e+002, 3.311548e+003
8.719861e+002, 3.239045e+003
8.724683e+002, 3.160823e+003
8.729504e+002, 3.073791e+003
8.734325e+002, 2.986793e+003
8.739146e+002, 2.898917e+003
8.743967e+002, 2.812652e+003
8.748788e+002, 2.728675e+003
8.753610e+002, 2.647062e+003
8.758431e+002, 2.567610e+003
8.763252e+002, 2.490240e+003
8.768073e+002, 2.417975e+003
8.772894e+002, 2.353771e+003
8.777715e+002, 2.293049e+003
8.782537e+002, 2.230809e+003
8.787358e+002, 2.170762e+003
8.792179e+002, 2.119735e+003
8.797000e+002, 2.077018e+003
8.801821e+002, 2.036389e+003
8.806642e+002, 1.994206e+003
8.811464e+002, 1.952964e+003
8.816285e+002, 1.917110e+003
8.821106e+002, 1.885812e+003
8.825927e+002, 1.852905e+003
8.830748e+002, 1.818144e+003
8.835569e+002, 1.788164e+003
8.840391e+002, 1.765802e+003
8.845212e+002, 1.748117e+003
8.850033e+002, 1.732116e+003
8.854854e+002, 1.717676e+003
8.859675e+002, 1.700431e+003
8.864496e+002, 1.679253e+003
8.869318e+002, 1.657655e+003
8.874139e+002, 1.635011e+003
8.878960e+002, 1.613190e+003
8.883781e+002, 1.595171e+003
8.888602e+002, 1.578113e+003
8.893423e+002, 1.555983e+003
8.898245e+002, 1.526995e+003
8.903066e+002, 1.497775e+003
8.907887e+002, 1.469920e+003
8.912708e+002, 1.442581e+003
8.917529e+002, 1.414622e+003
8.922350e+002, 1.387194e+003
8.927172e+002, 1.361818e+003
8.931993e+002, 1.338873e+003
8.936814e+002, 1.318000e+003
8.941635e+002, 1.299288e+003
8.946456e+002, 1.281975e+003
8.951277e+002, 1.265728e+003
8.956099e+002, 1.250192e+003
8.960920e+002, 1.234386e+003
8.965741e+002, 1.218417e+003
8.970562e+002, 1.204034e+003
8.975383e+002, 1.192033e+003
8.980204e+002, 1.181496e+003
8.985026e+002, 1.171386e+003
8.989847e+002, 1.161623e+003
8.994668e+002, 1.151053e+003
8.999489e+002, 1.139220e+003
9.004310e+002, 1.128727e+003
9.009131e+002, 1.120443e+003
9.013953e+002, 1.113146e+003
9.018774e+002, 1.105623e+003
9.023595e+002, 1.098236e+003
9.028416e+002, 1.092888e+003
9.033237e+002, 1.092146e+003
9.038058e+002, 1.088777e+003
9.042880e+002, 1.080896e+003
9.047701e+002, 1.072711e+003
9.052522e+002, 1.065251e+003
9.057343e+002, 1.058793e+003
9.062164e+002, 1.053551e+003
9.066985e+002, 1.049552e+003
9.071807e+002, 1.046937e+003
9.076628e+002, 1.048213e+003
9.081449e+002, 1.047981e+003
9.086270e+002, 1.041324e+003
9.091091e+002, 1.032916e+003
9.095912e+002, 1.028151e+003
9.100734e+002, 1.026650e+003
9.105555e+002, 1.025090e+003
9.110376e+002, 1.021994e+003
9.115197e+002, 1.018742e+003
9.120018e+002, 1.017641e+003
9.124839e+002, 1.017088e+003
9.129661e+002, 1.012897e+003
9.134482e+002, 1.005904e+003
9.139303e+002, 1.000964e+003
9.144124e+002, 9.993182e+002
9.148945e+002, 9.974357e+002
9.153766e+002, 9.916930e+002
9.158588e+002, 9.844149e+002
9.163409e+002, 9.839186e+002
9.168230e+002, 9.912756e+002
9.173051e+002, 9.951911e+002
9.177872e+002, 9.944553e+002
9.182693e+002, 9.909813e+002
9.187515e+002, 9.848734e+002
9.192336e+002, 9.775530e+002
9.197157e+002, 9.709674e+002
9.201978e+002, 9.649618e+002
9.206799e+002, 9.609855e+002
9.211620e+002, 9.599929e+002
9.216442e+002, 9.597415e+002
9.221263e+002, 9.603893e+002
9.226084e+002, 9.612706e+002
9.230905e+002, 9.620778e+002
9.235726e+002, 9.627513e+002
9.240547e+002, 9.632847e+002
9.245369e+002, 9.637823e+002
9.250190e+002, 9.636914e+002
9.255011e+002, 9.627010e+002
9.259832e+002, 9.611935e+002
9.264653e+002, 9.586870e+002
9.269474e+002, 9.562047e+002
9.274296e+002, 9.553232e+002
9.279117e+002, 9.560633e+002
9.283938e+002, 9.570911e+002
9.288759e+002, 9.577342e+002
9.293580e+002, 9.581046e+002
9.298401e+002, 9.585933e+002
9.303223e+002, 9.587764e+002
9.308044e+002, 9.578776e+002
9.312865e+002, 9.558776e+002
9.317686e+002, 9.524422e+002
9.322507e+002, 9.475355e+002
9.327328e+002, 9.437421e+002
9.332150e+002, 9.447723e+002
9.336971e+002, 9.488638e+002
9.341792e+002, 9.487329e+002
9.346613e+002, 9.443844e+002
9.351434e+002, 9.407096e+002
9.356255e+002, 9.385179e+002
9.361077e+002, 9.378716e+002
9.365898e+002, 9.392291e+002
9.370719e+002, 9.413911e+002
9.375540e+002, 9.415247e+002
9.380361e+002, 9.390345e+002
9.385182e+002, 9.378820e+002
9.390004e+002, 9.390326e+002
9.394825e+002, 9.396042e+002
9.399646e+002, 9.379899e+002
9.404467e+002, 9.362853e+002
9.409288e+002, 9.366180e+002
9.414109e+002, 9.385524e+002
9.418931e+002, 9.402679e+002
9.423752e+002, 9.424301e+002
9.428573e+002, 9.430314e+002
9.433394e+002, 9.403315e+002
9.438215e+002, 9.376818e+002
9.443036e+002, 9.364508e+002
9.447858e+002, 9.364818e+002
9.452679e+002, 9.382887e+002
9.457500e+002, 9.414984e+002
9.462321e+002, 9.427562e+002
9.467142e+002, 9.383898e+002
9.471964e+002, 9.346218e+002
9.476785e+002, 9.363022e+002
9.481606e+002, 9.397550e+002
9.486427e+002, 9.408807e+002
9.491248e+002, 9.400850e+002
9.496069e+002, 9.396241e+002
9.500891e+002, 9.403255e+002
9.505712e+002, 9.413571e+002
9.510533e+002, 9.417670e+002
9.515354e+002, 9.421442e+002
9.520175e+002, 9.441872e+002
9.524996e+002, 9.469346e+002
9.529818e+002, 9.470677e+002
9.534639e+002, 9.443789e+002
9.539460e+002, 9.420874e+002
9.544281e+002, 9.422007e+002
9.549102e+002, 9.438823e+002
9.553923e+002, 9.463231e+002
9.558745e+002, 9.492723e+002
9.563566e+002, 9.494118e+002
9.568387e+002, 9.464899e+002
9.573208e+002, 9.465356e+002
9.578029e+002, 9.521445e+002
9.582850e+002, 9.567885e+002
9.587672e+002, 9.538519e+002
9.592493e+002, 9.456187e+002
9.597314e+002, 9.412272e+002
9.602135e+002, 9.411376e+002
9.606956e+002, 9.434422e+002
9.611777e+002, 9.495662e+002
9.616599e+002, 9.549861e+002
9.621420e+002, 9.578596e+002
9.626241e+002, 9.590291e+002
9.631062e+002, 9.591569e+002
9.635883e+002, 9.582444e+002
9.640704e+002, 9.580292e+002
9.645526e+002, 9.585074e+002
9.650347e+002, 9.596447e+002
9.655168e+002, 9.613927e+002
9.659989e+002, 9.638446e+002
9.664810e+002, 9.684653e+002
9.669631e+002, 9.731917e+002
9.674453e+002, 9.743294e+002
9.679274e+002, 9.713334e+002
9.684095e+002, 9.693312e+002
9.688916e+002, 9.698188e+002
9.693737e+002, 9.715599e+002
9.698558e+002, 9.759308e+002
9.703380e+002, 9.797765e+002
9.708201e+002, 9.788734e+002
9.713022e+002, 9.750824e+002
9.717843e+002, 9.737440e+002
9.722664e+002, 9.767570e+002
9.727485e+002, 9.799149e+002
9.732307e+002, 9.801124e+002
9.737128e+002, 9.793999e+002
9.741949e+002, 9.802423e+002
9.746770e+002, 9.814144e+002
9.751591e+002, 9.802814e+002
9.756412e+002, 9.770004e+002
9.761234e+002, 9.742003e+002
9.766055e+002, 9.733206e+002
9.770876e+002, 9.733631e+002
9.775698e+002, 9.737406e+002
9.780519e+002, 9.738924e+002
9.785340e+002, 9.718126e+002
9.790161e+002, 9.682571e+002
9.794982e+002, 9.673093e+002
9.799803e+002, 9.697017e+002
9.804625e+002, 9.705903e+002
9.809446e+002, 9.656841e+002
9.814267e+002, 9.582464e+002
9.819088e+002, 9.564182e+002
9.823909e+002, 9.593060e+002
9.828730e+002, 9.572241e+002
9.833552e+002, 9.494608e+002
9.838373e+002, 9.436365e+002
9.843194e+002, 9.428400e+002
9.848015e+002, 9.431257e+002
9.852836e+002, 9.405089e+002
9.857657e+002, 9.352446e+002
9.862479e+002, 9.277930e+002
9.867300e+002, 9.169694e+002
9.872121e+002, 9.108312e+002
9.876942e+002, 9.117357e+002
9.881763e+002, 9.122178e+002
9.886584e+002, 9.088234e+002
9.891406e+002, 9.032412e+002
9.896227e+002, 8.971327e+002
9.901048e+002, 8.904956e+002
9.905869e+002, 8.875184e+002
9.910690e+002, 8.913552e+002
9.915511e+002, 8.926244e+002
9.920333e+002, 8.878445e+002
9.925154e+002, 8.834917e+002
9.929975e+002, 8.842417e+002
9.934796e+002, 8.869227e+002
9.939617e+002, 8.860820e+002
9.944438e+002, 8.811898e+002
9.949260e+002, 8.783610e+002
9.954081e+002, 8.804017e+002
9.958902e+002, 8.811556e+002
9.963723e+002, 8.783204e+002
9.968544e+002, 8.747860e+002
9.973365e+002, 8.724153e+002
9.978187e+002, 8.708134e+002
9.983008e+002, 8.686924e+002
9.987829e+002, 8.656546e+002
9.992650e+002, 8.643776e+002
9.997471e+002, 8.683923e+002
1.000229e+003, 8.709803e+002
1.000711e+003, 8.670814e+002
1.001193e+003, 8.618754e+002
1.001676e+003, 8.611923e+002
1.002158e+003, 8.634432e+002
1.002640e+003, 8.628864e+002
1.003122e+003, 8.574479e+002
1.003604e+003, 8.530605e+002
1.004086e+003, 8.538107e+002
1.004568e+003, 8.561517e+002
1.005050e+003, 8.577827e+002
1.005533e+003, 8.588794e+002
1.006015e+003, 8.602853e+002
1.006497e+003, 8.615700e+002
1.006979e+003, 8.606456e+002
1.007461e+003, 8.563212e+002
1.007943e+003, 8.524390e+002
1.008425e+003, 8.534203e+002
1.008907e+003, 8.559744e+002
1.009389e+003, 8.556472e+002
1.009872e+003, 8.535961e+002
1.010354e+003, 8.527267e+002
1.010836e+003, 8.532552e+002
1.011318e+003, 8.530179e+002
1.011800e+003, 8.506031e+002
1.012282e+003, 8.483248e+002
1.012764e+003, 8.503118e+002
1.013246e+003, 8.539977e+002
1.013729e+003, 8.530957e+002
1.014211e+003, 8.487224e+002
1.014693e+003, 8.453994e+002
1.015175e+003, 8.442622e+002
1.015657e+003, 8.449244e+002
1.016139e+003, 8.473447e+002
1.016621e+003, 8.500410e+002
1.017103e+003, 8.502610e+002
1.017585e+003, 8.485255e+002
1.018068e+003, 8.470574e+002
1.018550e+003, 8.459247e+002
1.019032e+003, 8.443722e+002
1.019514e+003, 8.422098e+002
1.019996e+003, 8.425350e+002
1.020478e+003, 8.484800e+002
1.020960e+003, 8.563631e+002
1.021442e+003, 8.567423e+002
1.021924e+003, 8.499715e+002
1.022407e+003, 8.454994e+002
1.022889e+003, 8.437468e+002
1.023371e+003, 8.424552e+002
1.023853e+003, 8.409891e+002
1.024335e+003, 8.391292e+002
1.024817e+003, 8.363540e+002
1.025299e+003, 8.336019e+002
1.025781e+003, 8.347189e+002
1.026264e+003, 8.407414e+002
1.026746e+003, 8.411877e+002
1.027228e+003, 8.342386e+002
1.027710e+003, 8.285876e+002
1.028192e+003, 8.268358e+002
1.028674e+003, 8.284606e+002
1.029156e+003, 8.339281e+002
1.029638e+003, 8.416879e+002
1.030120e+003, 8.454147e+002
1.030603e+003, 8.442639e+002
1.031085e+003, 8.419879e+002
1.031567e+003, 8.379049e+002
1.032049e+003, 8.345267e+002
1.032531e+003, 8.325246e+002
1.033013e+003, 8.318889e+002
1.033495e+003, 8.330757e+002
1.033977e+003, 8.355744e+002
1.034459e+003, 8.367498e+002
1.034942e+003, 8.357580e+002
1.035424e+003, 8.355172e+002
1.035906e+003, 8.371735e+002
1.036388e+003, 8.375833e+002
1.036870e+003, 8.346935e+002
1.037352e+003, 8.311122e+002
1.037834e+003, 8.289932e+002
1.038316e+003, 8.283727e+002
1.038799e+003, 8.295416e+002
1.039281e+003, 8.348815e+002
1.039763e+003, 8.373651e+002
1.040245e+003, 8.332869e+002
1.040727e+003, 8.311353e+002
1.041209e+003, 8.358958e+002
1.041691e+003, 8.420004e+002
1.042173e+003, 8.441364e+002
1.042656e+003, 8.429399e+002
1.043138e+003, 8.417253e+002
1.043620e+003, 8.403370e+002
1.044102e+003, 8.394843e+002
1.044584e+003, 8.393441e+002
1.045066e+003, 8.395731e+002
1.045548e+003, 8.407550e+002
1.046030e+003, 8.417034e+002
1.046512e+003, 8.410554e+002
1.046995e+003, 8.391079e+002
1.047477e+003, 8.373821e+002
1.047959e+003, 8.362518e+002
1.048441e+003, 8.348821e+002
1.048923e+003, 8.318830e+002
1.049405e+003, 8.301957e+002
1.049887e+003, 8.320946e+002
1.050369e+003, 8.350798e+002
1.050851e+003, 8.370319e+002
1.051334e+003, 8.378057e+002
1.051816e+003, 8.375369e+002
1.052298e+003, 8.360422e+002
1.052780e+003, 8.340800e+002
1.053262e+003, 8.306597e+002
1.053744e+003, 8.281865e+002
1.054226e+003, 8.282864e+002
1.054708e+003, 8.294567e+002
1.055191e+003, 8.300699e+002
1.055673e+003, 8.303402e+002
1.056155e+003, 8.316970e+002
1.056637e+003, 8.350760e+002
1.057119e+003, 8.373118e+002
1.057601e+003, 8.359523e+002
1.058083e+003, 8.350182e+002
1.058565e+003, 8.369320e+002
1.059047e+003, 8.399196e+002
1.059530e+003, 8.426906e+002
1.060012e+003, 8.448285e+002
1.060494e+003, 8.455651e+002
1.060976e+003, 8.442554e+002
1.061458e+003, 8.437455e+002
1.061940e+003, 8.454435e+002
1.062422e+003, 8.477124e+002
1.062904e+003, 8.495524e+002
1.063386e+003, 8.516481e+002
1.063869e+003, 8.553998e+002
1.064351e+003, 8.599467e+002
1.064833e+003, 8.625972e+002
1.065315e+003, 8.623561e+002
1.065797e+003, 8.628079e+002
1.066279e+003, 8.668913e+002
1.066761e+003, 8.702338e+002
1.067243e+003, 8.699427e+002
1.067726e+003, 8.682521e+002
1.068208e+003, 8.671198e+002
1.068690e+003, 8.665621e+002
1.069172e+003, 8.660490e+002
1.069654e+003, 8.654688e+002
1.070136e+003, 8.647233e+002
1.070618e+003, 8.632747e+002
1.071100e+003, 8.622684e+002
1.071583e+003, 8.632508e+002
1.072065e+003, 8.641398e+002
1.072547e+003, 8.621836e+002
1.073029e+003, 8.587939e+002
1.073511e+003, 8.576296e+002
1.073993e+003, 8.594677e+002
1.074475e+003, 8.599896e+002
1.074957e+003, 8.562318e+002
1.075439e+003, 8.520471e+002
1.075922e+003, 8.488784e+002
1.076404e+003, 8.465672e+002
1.076886e+003, 8.458604e+002
1.077368e+003, 8.455151e+002
1.077850e+003, 8.425759e+002
1.078332e+003, 8.368561e+002
1.078814e+003, 8.335089e+002
1.079296e+003, 8.382821e+002
1.079779e+003, 8.409816e+002
1.080261e+003, 8.332682e+002
1.080743e+003, 8.248701e+002
1.081225e+003, 8.249541e+002
1.081707e+003, 8.293105e+002
1.082189e+003, 8.301642e+002
1.082671e+003, 8.268231e+002
1.083153e+003, 8.249529e+002
1.083635e+003, 8.279984e+002
1.084118e+003, 8.304886e+002
1.084600e+003, 8.289769e+002
1.085082e+003, 8.270265e+002
1.085564e+003, 8.279191e+002
1.086046e+003, 8.295984e+002
1.086528e+003, 8.286444e+002
1.087010e+003, 8.252767e+002
1.087492e+003, 8.228758e+002
1.087974e+003, 8.228060e+002
1.088457e+003, 8.230865e+002
1.088939e+003, 8.229442e+002
1.089421e+003, 8.228364e+002
1.089903e+003, 8.240413e+002
1.090385e+003, 8.247341e+002
1.090867e+003, 8.214678e+002
1.091349e+003, 8.156806e+002
1.091831e+003, 8.132446e+002
1.092314e+003, 8.165287e+002
1.092796e+003, 8.198420e+002
1.093278e+003, 8.208347e+002
1.093760e+003, 8.216512e+002
1.094242e+003, 8.235641e+002
1.094724e+003, 8.256637e+002
1.095206e+003, 8.276440e+002
1.095688e+003, 8.289147e+002
1.096171e+003, 8.276377e+002
1.096653e+003, 8.228345e+002
1.097135e+003, 8.205452e+002
1.097617e+003, 8.256412e+002
1.098099e+003, 8.295265e+002
1.098581e+003, 8.271002e+002
1.099063e+003, 8.237922e+002
1.099545e+003, 8.255158e+002
1.100027e+003, 8.290050e+002
1.100510e+003, 8.262370e+002
1.100992e+003, 8.159348e+002
1.101474e+003, 8.107140e+002
1.101956e+003, 8.188090e+002
1.102438e+003, 8.246487e+002
1.102920e+003, 8.225285e+002
1.103402e+003, 8.187263e+002
1.103884e+003, 8.157706e+002
1.104366e+003, 8.143629e+002
1.104849e+003, 8.162548e+002
1.105331e+003, 8.210930e+002
1.105813e+003, 8.231356e+002
1.106295e+003, 8.190761e+002
1.106777e+003, 8.160552e+002
1.107259e+003, 8.150829e+002
1.107741e+003, 8.152582e+002
1.108223e+003, 8.177961e+002
1.108706e+003, 8.200677e+002
1.109188e+003, 8.185199e+002
1.109670e+003, 8.139955e+002
1.110152e+003, 8.113415e+002
1.110634e+003, 8.114169e+002
1.111116e+003, 8.120375e+002
1.111598e+003, 8.142778e+002
1.112080e+003, 8.154901e+002
1.112563e+003, 8.135580e+002
1.113045e+003, 8.115748e+002
1.113527e+003, 8.128590e+002
1.114009e+003, 8.157867e+002
1.114491e+003, 8.156834e+002
1.114973e+003, 8.113738e+002
1.115455e+003, 8.091697e+002
1.115937e+003, 8.104296e+002
1.116419e+003, 8.114732e+002
1.116901e+003, 8.120388e+002
1.117384e+003, 8.116371e+002
1.117866e+003, 8.090770e+002
1.118348e+003, 8.060897e+002
1.118830e+003, 8.056124e+002
1.119312e+003, 8.076844e+002
1.119794e+003, 8.107167e+002
1.120276e+003, 8.160276e+002
1.120758e+003, 8.185651e+002
1.121241e+003, 8.164941e+002
1.121723e+003, 8.146437e+002
1.122205e+003, 8.155565e+002
1.122687e+003, 8.170335e+002
1.123169e+003, 8.164791e+002
1.123651e+003, 8.141862e+002
1.124133e+003, 8.117780e+002
1.124615e+003, 8.092119e+002
1.125098e+003, 8.065485e+002
1.125580e+003, 8.032922e+002
1.126062e+003, 8.022889e+002
1.126544e+003, 8.048346e+002
1.127026e+003, 8.088883e+002
1.127508e+003, 8.133219e+002
1.127990e+003, 8.168828e+002
1.128472e+003, 8.156192e+002
1.128954e+003, 8.093210e+002
1.129437e+003, 8.066254e+002
1.129919e+003, 8.077132e+002
1.130401e+003, 8.099305e+002
1.130883e+003, 8.129583e+002
1.131365e+003, 8.137887e+002
1.131847e+003, 8.102733e+002
1.132329e+003, 8.058681e+002
1.132811e+003, 8.058135e+002
1.133293e+003, 8.093243e+002
1.133776e+003, 8.135948e+002
1.134258e+003, 8.182872e+002
1.134740e+003, 8.195966e+002
1.135222e+003, 8.174240e+002
1.135704e+003, 8.167855e+002
1.136186e+003, 8.197005e+002
1.136668e+003, 8.232836e+002
1.137150e+003, 8.250184e+002
1.137633e+003, 8.248259e+002
1.138115e+003, 8.206136e+002
1.138597e+003, 8.147524e+002
1.139079e+003, 8.161788e+002
1.139561e+003, 8.230760e+002
1.140043e+003, 8.255262e+002
1.140525e+003, 8.217318e+002
1.141007e+003, 8.182841e+002
1.141490e+003, 8.193760e+002
1.141972e+003, 8.226398e+002
1.142454e+003, 8.268114e+002
1.142936e+003, 8.301937e+002
1.143418e+003, 8.289614e+002
1.143900e+003, 8.252015e+002
1.144382e+003, 8.228297e+002
1.144864e+003, 8.224261e+002
1.145346e+003, 8.238781e+002
1.145828e+003, 8.270469e+002
1.146311e+003, 8.292394e+002
1.146793e+003, 8.270345e+002
1.147275e+003, 8.244686e+002
1.147757e+003, 8.257868e+002
1.148239e+003, 8.284276e+002
1.148721e+003, 8.294191e+002
1.149203e+003, 8.292666e+002
1.149685e+003, 8.300719e+002
1.150168e+003, 8.318202e+002
1.150650e+003, 8.310659e+002
1.151132e+003, 8.237598e+002
1.151614e+003, 8.196008e+002
1.152096e+003, 8.277293e+002
1.152578e+003, 8.360919e+002
1.153060e+003, 8.352433e+002
1.153542e+003, 8.308566e+002
1.154025e+003, 8.304123e+002
1.154507e+003, 8.329118e+002
1.154989e+003, 8.323743e+002
1.155471e+003, 8.269047e+002
1.155953e+003, 8.219622e+002
1.156435e+003, 8.178835e+002
1.156917e+003, 8.157806e+002
1.157399e+003, 8.174115e+002
1.157881e+003, 8.197074e+002
1.158364e+003, 8.209066e+002
1.158846e+003, 8.212147e+002
1.159328e+003, 8.207585e+002
1.159810e+003, 8.195223e+002
1.160292e+003, 8.194769e+002
1.160774e+003, 8.227259e+002
1.161256e+003, 8.232536e+002
1.161738e+003, 8.181581e+002
1.162220e+003, 8.147233e+002
1.162703e+003, 8.162527e+002
1.163185e+003, 8.196655e+002
1.163667e+003, 8.226788e+002
1.164149e+003, 8.249007e+002
1.164631e+003, 8.246110e+002
1.165113e+003, 8.208903e+002
1.165595e+003, 8.208177e+002
1.166077e+003, 8.256725e+002
1.166560e+003, 8.283951e+002
1.167042e+003, 8.272028e+002
1.167524e+003, 8.250101e+002
1.168006e+003, 8.233052e+002
1.168488e+003, 8.224756e+002
1.168970e+003, 8.233304e+002
1.169452e+003, 8.254417e+002
1.169934e+003, 8.265338e+002
1.170417e+003, 8.266940e+002
1.170899e+003, 8.271800e+002
1.171381e+003, 8.281156e+002
1.171863e+003, 8.297911e+002
1.172345e+003, 8.322424e+002
1.172827e+003, 8.339406e+002
1.173309e+003, 8.336048e+002
1.173791e+003, 8.319777e+002
1.174273e+003, 8.299249e+002
1.174755e+003, 8.277059e+002
1.175238e+003, 8.254030e+002
1.175720e+003, 8.235594e+002
1.176202e+003, 8.243937e+002
1.176684e+003, 8.274272e+002
1.177166e+003, 8.289878e+002
1.177648e+003, 8.275202e+002
1.178130e+003, 8.256553e+002
1.178612e+003, 8.259840e+002
1.179095e+003, 8.265544e+002
1.179577e+003, 8.245829e+002
1.180059e+003, 8.223721e+002
1.180541e+003, 8.231799e+002
1.181023e+003, 8.258085e+002
1.181505e+003, 8.277018e+002
1.181987e+003, 8.283710e+002
1.182469e+003, 8.285277e+002
1.182952e+003, 8.284445e+002
1.183434e+003, 8.278580e+002
1.183916e+003, 8.259930e+002
1.184398e+003, 8.243683e+002
1.184880e+003, 8.234821e+002
1.185362e+003, 8.235120e+002
1.185844e+003, 8.242238e+002
1.186326e+003, 8.260421e+002
1.186808e+003, 8.310911e+002
1.187291e+003, 8.405377e+002
1.187773e+003, 8.443903e+002
1.188255e+003, 8.359806e+002
1.188737e+003, 8.309284e+002
1.189219e+003, 8.342863e+002
1.189701e+003, 8.363732e+002
1.190183e+003, 8.311465e+002
1.190665e+003, 8.251211e+002
1.191147e+003, 8.260800e+002
1.191630e+003, 8.319501e+002
1.192112e+003, 8.336041e+002
1.192594e+003, 8.297764e+002
1.193076e+003, 8.284665e+002
1.193558e+003, 8.304495e+002
1.194040e+003, 8.307380e+002
1.194522e+003, 8.278997e+002
1.195004e+003, 8.249423e+002
1.195487e+003, 8.234800e+002
1.195969e+003, 8.238486e+002
1.196451e+003, 8.268566e+002
1.196933e+003, 8.317739e+002
1.197415e+003, 8.366369e+002
1.197897e+003, 8.409625e+002
1.198379e+003, 8.412731e+002
1.198861e+003, 8.378913e+002
1.199344e+003, 8.341519e+002
1.199826e+003, 8.311995e+002
1.200308e+003, 8.293652e+002
1.200790e+003, 8.287927e+002
1.201272e+003, 8.298895e+002
1.201754e+003, 8.347137e+002
1.202236e+003, 8.402116e+002
1.202718e+003, 8.419876e+002
1.203200e+003, 8.413262e+002
1.203682e+003, 8.397570e+002
1.204165e+003, 8.381042e+002
1.204647e+003, 8.378154e+002
1.205129e+003, 8.391765e+002
1.205611e+003, 8.401672e+002
1.206093e+003, 8.387254e+002
1.206575e+003, 8.383176e+002
1.207057e+003, 8.425780e+002
1.207539e+003, 8.464263e+002
1.208022e+003, 8.453696e+002
1.208504e+003, 8.426958e+002
1.208986e+003, 8.427831e+002
1.209468e+003, 8.449450e+002
1.209950e+003, 8.454249e+002
1.210432e+003, 8.431208e+002
1.210914e+003, 8.420349e+002
1.211396e+003, 8.429459e+002
1.211879e+003, 8.444113e+002
1.212361e+003, 8.472972e+002
1.212843e+003, 8.489956e+002
1.213325e+003, 8.476196e+002
1.213807e+003, 8.451323e+002
1.214289e+003, 8.435588e+002
1.214771e+003, 8.430954e+002
1.215253e+003, 8.453157e+002
1.215735e+003, 8.508323e+002
1.216218e+003, 8.528997e+002
1.216700e+003, 8.511029e+002
1.217182e+003, 8.494265e+002
1.217664e+003, 8.487861e+002
1.218146e+003, 8.483350e+002
1.218628e+003, 8.474736e+002
1.219110e+003, 8.478119e+002
1.219592e+003, 8.523099e+002
1.220074e+003, 8.585077e+002
1.220557e+003, 8.600553e+002
1.221039e+003, 8.586859e+002
1.221521e+003, 8.593965e+002
1.222003e+003, 8.614901e+002
1.222485e+003, 8.608856e+002
1.222967e+003, 8.571730e+002
1.223449e+003, 8.544055e+002
1.223931e+003, 8.551052e+002
1.224414e+003, 8.550905e+002
1.224896e+003, 8.481110e+002
1.225378e+003, 8.424883e+002
1.225860e+003, 8.479581e+002
1.226342e+003, 8.557872e+002
1.226824e+003, 8.556341e+002
1.227306e+003, 8.509157e+002
1.227788e+003, 8.505371e+002
1.228271e+003, 8.552706e+002
1.228753e+003, 8.568181e+002
1.229235e+003, 8.506498e+002
1.229717e+003, 8.463387e+002
1.230199e+003, 8.463398e+002
1.230681e+003, 8.467762e+002
1.231163e+003, 8.456792e+002
1.231645e+003, 8.456390e+002
1.232127e+003, 8.496326e+002
1.232609e+003, 8.549252e+002
1.233092e+003, 8.559752e+002
1.233574e+003, 8.528873e+002
1.234056e+003, 8.506625e+002
1.234538e+003, 8.492008e+002
1.235020e+003, 8.495173e+002
1.235502e+003, 8.518076e+002
1.235984e+003, 8.540213e+002
1.236466e+003, 8.554332e+002
1.236949e+003, 8.568636e+002
1.237431e+003, 8.590338e+002
1.237913e+003, 8.609854e+002
1.238395e+003, 8.608660e+002
1.238877e+003, 8.595163e+002
1.239359e+003, 8.594168e+002
1.239841e+003, 8.595676e+002
1.240323e+003, 8.562950e+002
1.240806e+003, 8.510311e+002
1.241288e+003, 8.498123e+002
1.241770e+003, 8.538267e+002
1.242252e+003, 8.574487e+002
1.242734e+003, 8.574115e+002
1.243216e+003, 8.566165e+002
1.243698e+003, 8.560934e+002
1.244180e+003, 8.564556e+002
1.244662e+003, 8.586843e+002
1.245145e+003, 8.615340e+002
1.245627e+003, 8.644463e+002
1.246109e+003, 8.667165e+002
1.246591e+003, 8.667170e+002
1.247073e+003, 8.641327e+002
1.247555e+003, 8.625598e+002
1.248037e+003, 8.631574e+002
1.248519e+003, 8.628680e+002
1.249001e+003, 8.607133e+002
1.249484e+003, 8.595261e+002
1.249966e+003, 8.607437e+002
1.250448e+003, 8.618900e+002
1.250930e+003, 8.608241e+002
1.251412e+003, 8.588865e+002
1.251894e+003, 8.587747e+002
1.252376e+003, 8.601847e+002
1.252858e+003, 8.609100e+002
1.253341e+003, 8.609846e+002
1.253823e+003, 8.603804e+002
1.254305e+003, 8.593344e+002
1.254787e+003, 8.597173e+002
1.255269e+003, 8.618947e+002
1.255751e+003, 8.633090e+002
1.256233e+003, 8.619899e+002
1.256715e+003, 8.611527e+002
1.257198e+003, 8.662082e+002
1.257680e+003, 8.716420e+002
1.258162e+003, 8.700179e+002
1.258644e+003, 8.659331e+002
1.259126e+003, 8.649950e+002
1.259608e+003, 8.667037e+002
1.260090e+003, 8.691654e+002
1.260572e+003, 8.717899e+002
1.261054e+003, 8.733959e+002
1.261536e+003, 8.743872e+002
1.262019e+003, 8.727121e+002
1.262501e+003, 8.634969e+002
1.262983e+003, 8.578049e+002
1.263465e+003, 8.601413e+002
1.263947e+003, 8.656193e+002
1.264429e+003, 8.731321e+002
1.264911e+003, 8.797988e+002
1.265393e+003, 8.809520e+002
1.265876e+003, 8.773936e+002
1.266358e+003, 8.743796e+002
1.266840e+003, 8.718741e+002
1.267322e+003, 8.710760e+002
1.267804e+003, 8.720285e+002
1.268286e+003, 8.736636e+002
1.268768e+003, 8.757018e+002
1.269250e+003, 8.780187e+002
1.269733e+003, 8.805737e+002
1.270215e+003, 8.820524e+002
1.270697e+003, 8.804476e+002
1.271179e+003, 8.778164e+002
1.271661e+003, 8.767449e+002
1.272143e+003, 8.767933e+002
1.272625e+003, 8.778216e+002
1.273107e+003, 8.792311e+002
1.273589e+003, 8.799716e+002
1.274072e+003, 8.801244e+002
1.274554e+003, 8.807811e+002
1.275036e+003, 8.823892e+002
1.275518e+003, 8.831263e+002
1.276000e+003, 8.806920e+002
1.276482e+003, 8.798073e+002
1.276964e+003, 8.841926e+002
1.277446e+003, 8.874463e+002
1.277929e+003, 8.850007e+002
1.278411e+003, 8.815970e+002
1.278893e+003, 8.820735e+002
1.279375e+003, 8.847878e+002
1.279857e+003, 8.847661e+002
1.280339e+003, 8.819221e+002
1.280821e+003, 8.841219e+002
1.281303e+003, 8.916167e+002
1.281786e+003, 8.957291e+002
1.282268e+003, 8.952622e+002
##END=



