##NAMES=Wendwilsonite
##RRUFFID=R180011
##IDEAL CHEMISTRY=Ca_2_Mg(As^5+^O_4_)_2_&#183;2H_2_O
##LOCALITY=Bou Azzer, Morrocco
##OWNER=RRUFF
##SOURCE=Wendell Wilson
##DESCRIPTION=Red vitreous crystals. Photo from Wendell Wilson
##STATUS=The identification of this mineral is confirmed by single-crystal X-ray diffraction and chemical analysis.
##URL=rruff.info/R180011
##MEASURED CHEMISTRY=Ca_2.00_(Mg_0.50_Co_0.42_Zn_0.03_Ni_0.03_)_Σ=0.98_(AsO_4_)_2_·2H_2_O
8.758203e+001, 2.850240e+003
8.806415e+001, 2.815845e+003
8.854626e+001, 2.809887e+003
8.902838e+001, 2.848974e+003
8.951050e+001, 2.893360e+003
8.999261e+001, 2.931325e+003
9.047473e+001, 2.961068e+003
9.095685e+001, 2.980654e+003
9.143896e+001, 2.986012e+003
9.192108e+001, 2.976523e+003
9.240320e+001, 2.967221e+003
9.288531e+001, 2.922060e+003
9.336743e+001, 2.827859e+003
9.384955e+001, 2.705397e+003
9.433167e+001, 2.598399e+003
9.481378e+001, 2.496831e+003
9.529590e+001, 2.409207e+003
9.577802e+001, 2.334156e+003
9.626013e+001, 2.271859e+003
9.674225e+001, 2.223193e+003
9.722437e+001, 2.186318e+003
9.770648e+001, 2.153875e+003
9.818860e+001, 2.124266e+003
9.867072e+001, 2.098288e+003
9.915283e+001, 2.075582e+003
9.963495e+001, 2.055977e+003
1.001171e+002, 2.040420e+003
1.005992e+002, 2.030344e+003
1.010813e+002, 2.025652e+003
1.015634e+002, 2.026084e+003
1.020455e+002, 2.031008e+003
1.025277e+002, 2.038777e+003
1.030098e+002, 2.051354e+003
1.034919e+002, 2.069190e+003
1.039740e+002, 2.086776e+003
1.044561e+002, 2.086098e+003
1.049382e+002, 2.055644e+003
1.054204e+002, 2.018828e+003
1.059025e+002, 1.974422e+003
1.063846e+002, 1.925286e+003
1.068667e+002, 1.875369e+003
1.073488e+002, 1.826122e+003
1.078309e+002, 1.778534e+003
1.083131e+002, 1.738809e+003
1.087952e+002, 1.706863e+003
1.092773e+002, 1.680952e+003
1.097594e+002, 1.661698e+003
1.102415e+002, 1.648762e+003
1.107236e+002, 1.638708e+003
1.112058e+002, 1.629646e+003
1.116879e+002, 1.621511e+003
1.121700e+002, 1.614156e+003
1.126521e+002, 1.607862e+003
1.131342e+002, 1.602288e+003
1.136163e+002, 1.596402e+003
1.140985e+002, 1.589020e+003
1.145806e+002, 1.584018e+003
1.150627e+002, 1.584650e+003
1.155448e+002, 1.589365e+003
1.160269e+002, 1.594674e+003
1.165090e+002, 1.599109e+003
1.169912e+002, 1.602643e+003
1.174733e+002, 1.603665e+003
1.179554e+002, 1.595447e+003
1.184375e+002, 1.590412e+003
1.189196e+002, 1.594327e+003
1.194017e+002, 1.606759e+003
1.198839e+002, 1.623358e+003
1.203660e+002, 1.638510e+003
1.208481e+002, 1.648251e+003
1.213302e+002, 1.667063e+003
1.218123e+002, 1.695791e+003
1.222944e+002, 1.730547e+003
1.227766e+002, 1.774113e+003
1.232587e+002, 1.825440e+003
1.237408e+002, 1.875625e+003
1.242229e+002, 1.907903e+003
1.247050e+002, 1.929538e+003
1.251871e+002, 1.918234e+003
1.256693e+002, 1.853084e+003
1.261514e+002, 1.759916e+003
1.266335e+002, 1.668780e+003
1.271156e+002, 1.590758e+003
1.275977e+002, 1.526163e+003
1.280798e+002, 1.477109e+003
1.285620e+002, 1.444750e+003
1.290441e+002, 1.420009e+003
1.295262e+002, 1.401058e+003
1.300083e+002, 1.387278e+003
1.304904e+002, 1.376547e+003
1.309725e+002, 1.368536e+003
1.314547e+002, 1.362858e+003
1.319368e+002, 1.358164e+003
1.324189e+002, 1.354642e+003
1.329010e+002, 1.351817e+003
1.333831e+002, 1.348512e+003
1.338652e+002, 1.344146e+003
1.343474e+002, 1.342510e+003
1.348295e+002, 1.349366e+003
1.353116e+002, 1.358946e+003
1.357937e+002, 1.364681e+003
1.362758e+002, 1.362638e+003
1.367579e+002, 1.356189e+003
1.372401e+002, 1.354172e+003
1.377222e+002, 1.358188e+003
1.382043e+002, 1.364782e+003
1.386864e+002, 1.374540e+003
1.391685e+002, 1.385462e+003
1.396507e+002, 1.394864e+003
1.401328e+002, 1.401101e+003
1.406149e+002, 1.404197e+003
1.410970e+002, 1.404068e+003
1.415791e+002, 1.397168e+003
1.420612e+002, 1.390181e+003
1.425434e+002, 1.384767e+003
1.430255e+002, 1.380782e+003
1.435076e+002, 1.377180e+003
1.439897e+002, 1.372906e+003
1.444718e+002, 1.367562e+003
1.449539e+002, 1.364032e+003
1.454361e+002, 1.361946e+003
1.459182e+002, 1.361461e+003
1.464003e+002, 1.363633e+003
1.468824e+002, 1.368146e+003
1.473645e+002, 1.372610e+003
1.478466e+002, 1.373882e+003
1.483288e+002, 1.370233e+003
1.488109e+002, 1.370118e+003
1.492930e+002, 1.375888e+003
1.497751e+002, 1.384259e+003
1.502572e+002, 1.391969e+003
1.507393e+002, 1.398317e+003
1.512215e+002, 1.403957e+003
1.517036e+002, 1.409371e+003
1.521857e+002, 1.414452e+003
1.526678e+002, 1.420537e+003
1.531499e+002, 1.428241e+003
1.536320e+002, 1.437254e+003
1.541142e+002, 1.446793e+003
1.545963e+002, 1.456588e+003
1.550784e+002, 1.467017e+003
1.555605e+002, 1.478673e+003
1.560426e+002, 1.491498e+003
1.565247e+002, 1.504306e+003
1.570069e+002, 1.515942e+003
1.574890e+002, 1.526441e+003
1.579711e+002, 1.537635e+003
1.584532e+002, 1.551757e+003
1.589353e+002, 1.565278e+003
1.594174e+002, 1.575788e+003
1.598996e+002, 1.583000e+003
1.603817e+002, 1.588244e+003
1.608638e+002, 1.593135e+003
1.613459e+002, 1.597925e+003
1.618280e+002, 1.601381e+003
1.623102e+002, 1.605644e+003
1.627923e+002, 1.607251e+003
1.632744e+002, 1.602312e+003
1.637565e+002, 1.590007e+003
1.642386e+002, 1.574605e+003
1.647207e+002, 1.564163e+003
1.652029e+002, 1.563092e+003
1.656850e+002, 1.560232e+003
1.661671e+002, 1.551551e+003
1.666492e+002, 1.542457e+003
1.671313e+002, 1.538070e+003
1.676134e+002, 1.540629e+003
1.680956e+002, 1.548197e+003
1.685777e+002, 1.555186e+003
1.690598e+002, 1.560345e+003
1.695419e+002, 1.566359e+003
1.700240e+002, 1.573335e+003
1.705061e+002, 1.581326e+003
1.709883e+002, 1.590401e+003
1.714704e+002, 1.600600e+003
1.719525e+002, 1.611907e+003
1.724346e+002, 1.624391e+003
1.729167e+002, 1.640371e+003
1.733988e+002, 1.654877e+003
1.738810e+002, 1.664074e+003
1.743631e+002, 1.670277e+003
1.748452e+002, 1.679675e+003
1.753273e+002, 1.696024e+003
1.758094e+002, 1.718009e+003
1.762915e+002, 1.739215e+003
1.767737e+002, 1.759897e+003
1.772558e+002, 1.779707e+003
1.777379e+002, 1.797766e+003
1.782200e+002, 1.814233e+003
1.787021e+002, 1.831715e+003
1.791842e+002, 1.851891e+003
1.796664e+002, 1.874102e+003
1.801485e+002, 1.897153e+003
1.806306e+002, 1.922386e+003
1.811127e+002, 1.946823e+003
1.815948e+002, 1.966634e+003
1.820769e+002, 1.981294e+003
1.825591e+002, 1.994208e+003
1.830412e+002, 2.005979e+003
1.835233e+002, 2.017276e+003
1.840054e+002, 2.029076e+003
1.844875e+002, 2.042147e+003
1.849696e+002, 2.055171e+003
1.854518e+002, 2.065073e+003
1.859339e+002, 2.069807e+003
1.864160e+002, 2.076068e+003
1.868981e+002, 2.088953e+003
1.873802e+002, 2.103755e+003
1.878623e+002, 2.115059e+003
1.883445e+002, 2.120008e+003
1.888266e+002, 2.119896e+003
1.893087e+002, 2.119355e+003
1.897908e+002, 2.121991e+003
1.902729e+002, 2.118346e+003
1.907550e+002, 2.107363e+003
1.912372e+002, 2.089284e+003
1.917193e+002, 2.064370e+003
1.922014e+002, 2.032667e+003
1.926835e+002, 1.994471e+003
1.931656e+002, 1.951903e+003
1.936477e+002, 1.898664e+003
1.941299e+002, 1.847344e+003
1.946120e+002, 1.798930e+003
1.950941e+002, 1.753922e+003
1.955762e+002, 1.713036e+003
1.960583e+002, 1.676675e+003
1.965404e+002, 1.644814e+003
1.970226e+002, 1.617510e+003
1.975047e+002, 1.597117e+003
1.979868e+002, 1.578483e+003
1.984689e+002, 1.559885e+003
1.989510e+002, 1.541947e+003
1.994331e+002, 1.526322e+003
1.999153e+002, 1.513984e+003
2.003974e+002, 1.505002e+003
2.008795e+002, 1.499890e+003
2.013616e+002, 1.502745e+003
2.018437e+002, 1.504634e+003
2.023258e+002, 1.500387e+003
2.028080e+002, 1.491313e+003
2.032901e+002, 1.483118e+003
2.037722e+002, 1.480392e+003
2.042543e+002, 1.482527e+003
2.047364e+002, 1.480454e+003
2.052185e+002, 1.471241e+003
2.057007e+002, 1.460669e+003
2.061828e+002, 1.452396e+003
2.066649e+002, 1.446336e+003
2.071470e+002, 1.440318e+003
2.076291e+002, 1.432889e+003
2.081112e+002, 1.424200e+003
2.085934e+002, 1.415400e+003
2.090755e+002, 1.406636e+003
2.095576e+002, 1.397734e+003
2.100397e+002, 1.389096e+003
2.105218e+002, 1.380775e+003
2.110039e+002, 1.370898e+003
2.114861e+002, 1.355900e+003
2.119682e+002, 1.338757e+003
2.124503e+002, 1.325530e+003
2.129324e+002, 1.319781e+003
2.134145e+002, 1.316801e+003
2.138967e+002, 1.310428e+003
2.143788e+002, 1.299770e+003
2.148609e+002, 1.289853e+003
2.153430e+002, 1.284221e+003
2.158251e+002, 1.280917e+003
2.163072e+002, 1.277818e+003
2.167894e+002, 1.274234e+003
2.172715e+002, 1.270489e+003
2.177536e+002, 1.266942e+003
2.182357e+002, 1.263316e+003
2.187178e+002, 1.260717e+003
2.191999e+002, 1.259771e+003
2.196821e+002, 1.259958e+003
2.201642e+002, 1.260868e+003
2.206463e+002, 1.262461e+003
2.211284e+002, 1.264518e+003
2.216105e+002, 1.266563e+003
2.220926e+002, 1.268531e+003
2.225748e+002, 1.270659e+003
2.230569e+002, 1.273537e+003
2.235390e+002, 1.276427e+003
2.240211e+002, 1.278266e+003
2.245032e+002, 1.278350e+003
2.249853e+002, 1.277660e+003
2.254675e+002, 1.278996e+003
2.259496e+002, 1.283344e+003
2.264317e+002, 1.288371e+003
2.269138e+002, 1.295522e+003
2.273959e+002, 1.302283e+003
2.278780e+002, 1.305205e+003
2.283602e+002, 1.302353e+003
2.288423e+002, 1.296104e+003
2.293244e+002, 1.294220e+003
2.298065e+002, 1.299873e+003
2.302886e+002, 1.305940e+003
2.307707e+002, 1.311617e+003
2.312529e+002, 1.317117e+003
2.317350e+002, 1.322744e+003
2.322171e+002, 1.328638e+003
2.326992e+002, 1.334751e+003
2.331813e+002, 1.340963e+003
2.336634e+002, 1.348559e+003
2.341456e+002, 1.354601e+003
2.346277e+002, 1.357023e+003
2.351098e+002, 1.358452e+003
2.355919e+002, 1.362698e+003
2.360740e+002, 1.371548e+003
2.365561e+002, 1.382501e+003
2.370383e+002, 1.388138e+003
2.375204e+002, 1.383195e+003
2.380025e+002, 1.378706e+003
2.384846e+002, 1.374689e+003
2.389667e+002, 1.371635e+003
2.394488e+002, 1.370475e+003
2.399310e+002, 1.371642e+003
2.404131e+002, 1.374111e+003
2.408952e+002, 1.375272e+003
2.413773e+002, 1.374543e+003
2.418594e+002, 1.373331e+003
2.423415e+002, 1.372608e+003
2.428237e+002, 1.371207e+003
2.433058e+002, 1.367423e+003
2.437879e+002, 1.360526e+003
2.442700e+002, 1.351606e+003
2.447521e+002, 1.342905e+003
2.452342e+002, 1.335520e+003
2.457164e+002, 1.326178e+003
2.461985e+002, 1.313413e+003
2.466806e+002, 1.298647e+003
2.471627e+002, 1.283653e+003
2.476448e+002, 1.268851e+003
2.481269e+002, 1.254289e+003
2.486091e+002, 1.239830e+003
2.490912e+002, 1.225234e+003
2.495733e+002, 1.211376e+003
2.500554e+002, 1.198208e+003
2.505375e+002, 1.185834e+003
2.510196e+002, 1.174275e+003
2.515018e+002, 1.163467e+003
2.519839e+002, 1.153884e+003
2.524660e+002, 1.146660e+003
2.529481e+002, 1.141717e+003
2.534302e+002, 1.137568e+003
2.539123e+002, 1.133783e+003
2.543945e+002, 1.130608e+003
2.548766e+002, 1.128823e+003
2.553587e+002, 1.128955e+003
2.558408e+002, 1.129114e+003
2.563229e+002, 1.126514e+003
2.568051e+002, 1.121559e+003
2.572872e+002, 1.116985e+003
2.577693e+002, 1.113132e+003
2.582514e+002, 1.110219e+003
2.587335e+002, 1.108878e+003
2.592156e+002, 1.109502e+003
2.596978e+002, 1.110554e+003
2.601799e+002, 1.109823e+003
2.606620e+002, 1.108010e+003
2.611441e+002, 1.107947e+003
2.616262e+002, 1.111564e+003
2.621083e+002, 1.117105e+003
2.625905e+002, 1.122061e+003
2.630726e+002, 1.126359e+003
2.635547e+002, 1.129637e+003
2.640368e+002, 1.131068e+003
2.645189e+002, 1.131248e+003
2.650010e+002, 1.131148e+003
2.654832e+002, 1.130034e+003
2.659653e+002, 1.129224e+003
2.664474e+002, 1.131821e+003
2.669295e+002, 1.139184e+003
2.674116e+002, 1.144917e+003
2.678937e+002, 1.142419e+003
2.683759e+002, 1.136262e+003
2.688580e+002, 1.132742e+003
2.693401e+002, 1.134683e+003
2.698222e+002, 1.139354e+003
2.703043e+002, 1.142903e+003
2.707864e+002, 1.145139e+003
2.712686e+002, 1.147086e+003
2.717507e+002, 1.147903e+003
2.722328e+002, 1.149181e+003
2.727149e+002, 1.153060e+003
2.731970e+002, 1.160756e+003
2.736791e+002, 1.169898e+003
2.741613e+002, 1.177369e+003
2.746434e+002, 1.183010e+003
2.751255e+002, 1.188072e+003
2.756076e+002, 1.192006e+003
2.760897e+002, 1.196072e+003
2.765718e+002, 1.201464e+003
2.770540e+002, 1.208553e+003
2.775361e+002, 1.216390e+003
2.780182e+002, 1.223566e+003
2.785003e+002, 1.229737e+003
2.789824e+002, 1.237611e+003
2.794645e+002, 1.249977e+003
2.799467e+002, 1.263024e+003
2.804288e+002, 1.274275e+003
2.809109e+002, 1.283358e+003
2.813930e+002, 1.291262e+003
2.818751e+002, 1.299149e+003
2.823572e+002, 1.307128e+003
2.828394e+002, 1.313717e+003
2.833215e+002, 1.319614e+003
2.838036e+002, 1.322998e+003
2.842857e+002, 1.322827e+003
2.847678e+002, 1.319077e+003
2.852499e+002, 1.312326e+003
2.857321e+002, 1.301702e+003
2.862142e+002, 1.287092e+003
2.866963e+002, 1.274849e+003
2.871784e+002, 1.266806e+003
2.876605e+002, 1.259908e+003
2.881426e+002, 1.252673e+003
2.886248e+002, 1.245252e+003
2.891069e+002, 1.238471e+003
2.895890e+002, 1.233069e+003
2.900711e+002, 1.228928e+003
2.905532e+002, 1.224718e+003
2.910353e+002, 1.218571e+003
2.915175e+002, 1.214877e+003
2.919996e+002, 1.215543e+003
2.924817e+002, 1.219639e+003
2.929638e+002, 1.225441e+003
2.934459e+002, 1.232079e+003
2.939280e+002, 1.239569e+003
2.944102e+002, 1.247859e+003
2.948923e+002, 1.257745e+003
2.953744e+002, 1.267259e+003
2.958565e+002, 1.274510e+003
2.963386e+002, 1.281482e+003
2.968207e+002, 1.290833e+003
2.973029e+002, 1.303989e+003
2.977850e+002, 1.319709e+003
2.982671e+002, 1.335007e+003
2.987492e+002, 1.349990e+003
2.992313e+002, 1.364334e+003
2.997134e+002, 1.377499e+003
3.001956e+002, 1.390343e+003
3.006777e+002, 1.403933e+003
3.011598e+002, 1.418702e+003
3.016419e+002, 1.433255e+003
3.021240e+002, 1.445485e+003
3.026061e+002, 1.455812e+003
3.030883e+002, 1.462346e+003
3.035704e+002, 1.463984e+003
3.040525e+002, 1.462626e+003
3.045346e+002, 1.459750e+003
3.050167e+002, 1.455483e+003
3.054988e+002, 1.448282e+003
3.059810e+002, 1.435160e+003
3.064631e+002, 1.414397e+003
3.069452e+002, 1.395697e+003
3.074273e+002, 1.379320e+003
3.079094e+002, 1.365530e+003
3.083915e+002, 1.355157e+003
3.088737e+002, 1.347812e+003
3.093558e+002, 1.341911e+003
3.098379e+002, 1.336372e+003
3.103200e+002, 1.331201e+003
3.108021e+002, 1.325708e+003
3.112842e+002, 1.318443e+003
3.117664e+002, 1.312377e+003
3.122485e+002, 1.309211e+003
3.127306e+002, 1.308079e+003
3.132127e+002, 1.306777e+003
3.136948e+002, 1.303214e+003
3.141769e+002, 1.298302e+003
3.146591e+002, 1.297742e+003
3.151412e+002, 1.303584e+003
3.156233e+002, 1.311438e+003
3.161054e+002, 1.320796e+003
3.165875e+002, 1.330936e+003
3.170696e+002, 1.340822e+003
3.175518e+002, 1.349811e+003
3.180339e+002, 1.358706e+003
3.185160e+002, 1.369569e+003
3.189981e+002, 1.383409e+003
3.194802e+002, 1.397259e+003
3.199623e+002, 1.409439e+003
3.204445e+002, 1.421949e+003
3.209266e+002, 1.436475e+003
3.214087e+002, 1.453579e+003
3.218908e+002, 1.472472e+003
3.223729e+002, 1.492074e+003
3.228550e+002, 1.512658e+003
3.233372e+002, 1.533156e+003
3.238193e+002, 1.552100e+003
3.243014e+002, 1.571899e+003
3.247835e+002, 1.593849e+003
3.252656e+002, 1.618109e+003
3.257477e+002, 1.644612e+003
3.262299e+002, 1.673376e+003
3.267120e+002, 1.704363e+003
3.271941e+002, 1.737247e+003
3.276762e+002, 1.774510e+003
3.281583e+002, 1.811425e+003
3.286404e+002, 1.844023e+003
3.291226e+002, 1.874306e+003
3.296047e+002, 1.908099e+003
3.300868e+002, 1.950343e+003
3.305689e+002, 1.999842e+003
3.310510e+002, 2.048346e+003
3.315331e+002, 2.093194e+003
3.320153e+002, 2.141259e+003
3.324974e+002, 2.197097e+003
3.329795e+002, 2.256745e+003
3.334616e+002, 2.314753e+003
3.339437e+002, 2.368831e+003
3.344258e+002, 2.419517e+003
3.349080e+002, 2.468299e+003
3.353901e+002, 2.517336e+003
3.358722e+002, 2.559142e+003
3.363543e+002, 2.592277e+003
3.368365e+002, 2.617678e+003
3.373186e+002, 2.636340e+003
3.378007e+002, 2.648613e+003
3.382828e+002, 2.651896e+003
3.387649e+002, 2.642261e+003
3.392470e+002, 2.619027e+003
3.397292e+002, 2.588121e+003
3.402113e+002, 2.546403e+003
3.406934e+002, 2.499990e+003
3.411755e+002, 2.451862e+003
3.416576e+002, 2.402491e+003
3.421397e+002, 2.351943e+003
3.426219e+002, 2.297313e+003
3.431040e+002, 2.239765e+003
3.435861e+002, 2.192694e+003
3.440682e+002, 2.161815e+003
3.445503e+002, 2.135463e+003
3.450324e+002, 2.104329e+003
3.455146e+002, 2.071491e+003
3.459967e+002, 2.044719e+003
3.464788e+002, 2.029606e+003
3.469609e+002, 2.022921e+003
3.474430e+002, 2.017071e+003
3.479251e+002, 2.011597e+003
3.484073e+002, 2.008317e+003
3.488894e+002, 2.007827e+003
3.493715e+002, 2.010113e+003
3.498536e+002, 2.016068e+003
3.503357e+002, 2.027136e+003
3.508178e+002, 2.039563e+003
3.513000e+002, 2.048445e+003
3.517821e+002, 2.053575e+003
3.522642e+002, 2.059725e+003
3.527463e+002, 2.068919e+003
3.532284e+002, 2.079699e+003
3.537105e+002, 2.092132e+003
3.541927e+002, 2.106816e+003
3.546748e+002, 2.116863e+003
3.551569e+002, 2.115111e+003
3.556390e+002, 2.104045e+003
3.561211e+002, 2.095217e+003
3.566032e+002, 2.092362e+003
3.570854e+002, 2.089165e+003
3.575675e+002, 2.080376e+003
3.580496e+002, 2.066514e+003
3.585317e+002, 2.048936e+003
3.590138e+002, 2.027735e+003
3.594959e+002, 2.003249e+003
3.599781e+002, 1.975046e+003
3.604602e+002, 1.942834e+003
3.609423e+002, 1.909683e+003
3.614244e+002, 1.877726e+003
3.619065e+002, 1.846722e+003
3.623886e+002, 1.815925e+003
3.628708e+002, 1.786143e+003
3.633529e+002, 1.755741e+003
3.638350e+002, 1.721221e+003
3.643171e+002, 1.683825e+003
3.647992e+002, 1.652057e+003
3.652813e+002, 1.631465e+003
3.657635e+002, 1.617299e+003
3.662456e+002, 1.599564e+003
3.667277e+002, 1.577373e+003
3.672098e+002, 1.555122e+003
3.676919e+002, 1.533111e+003
3.681740e+002, 1.512503e+003
3.686562e+002, 1.495705e+003
3.691383e+002, 1.483483e+003
3.696204e+002, 1.474292e+003
3.701025e+002, 1.466722e+003
3.705846e+002, 1.460834e+003
3.710667e+002, 1.455749e+003
3.715489e+002, 1.451372e+003
3.720310e+002, 1.447760e+003
3.725131e+002, 1.445203e+003
3.729952e+002, 1.443625e+003
3.734773e+002, 1.442575e+003
3.739594e+002, 1.442257e+003
3.744416e+002, 1.442244e+003
3.749237e+002, 1.438912e+003
3.754058e+002, 1.431265e+003
3.758879e+002, 1.421819e+003
3.763700e+002, 1.412081e+003
3.768521e+002, 1.401234e+003
3.773343e+002, 1.387276e+003
3.778164e+002, 1.369096e+003
3.782985e+002, 1.348229e+003
3.787806e+002, 1.328147e+003
3.792627e+002, 1.308445e+003
3.797448e+002, 1.290250e+003
3.802270e+002, 1.274072e+003
3.807091e+002, 1.259271e+003
3.811912e+002, 1.245498e+003
3.816733e+002, 1.232527e+003
3.821554e+002, 1.219693e+003
3.826375e+002, 1.205824e+003
3.831197e+002, 1.190138e+003
3.836018e+002, 1.177777e+003
3.840839e+002, 1.171256e+003
3.845660e+002, 1.165009e+003
3.850481e+002, 1.155888e+003
3.855302e+002, 1.144900e+003
3.860124e+002, 1.135102e+003
3.864945e+002, 1.128587e+003
3.869766e+002, 1.124688e+003
3.874587e+002, 1.119769e+003
3.879408e+002, 1.112781e+003
3.884229e+002, 1.105956e+003
3.889051e+002, 1.097896e+003
3.893872e+002, 1.090880e+003
3.898693e+002, 1.088001e+003
3.903514e+002, 1.090050e+003
3.908335e+002, 1.093947e+003
3.913156e+002, 1.094553e+003
3.917978e+002, 1.090107e+003
3.922799e+002, 1.087182e+003
3.927620e+002, 1.087385e+003
3.932441e+002, 1.087693e+003
3.937262e+002, 1.086156e+003
3.942083e+002, 1.083165e+003
3.946905e+002, 1.080559e+003
3.951726e+002, 1.079687e+003
3.956547e+002, 1.080497e+003
3.961368e+002, 1.082585e+003
3.966189e+002, 1.086993e+003
3.971010e+002, 1.091205e+003
3.975832e+002, 1.094846e+003
3.980653e+002, 1.097738e+003
3.985474e+002, 1.099177e+003
3.990295e+002, 1.098574e+003
3.995116e+002, 1.097966e+003
3.999937e+002, 1.101478e+003
4.004759e+002, 1.110296e+003
4.009580e+002, 1.117016e+003
4.014401e+002, 1.117281e+003
4.019222e+002, 1.116687e+003
4.024043e+002, 1.119913e+003
4.028864e+002, 1.126946e+003
4.033686e+002, 1.132901e+003
4.038507e+002, 1.133345e+003
4.043328e+002, 1.129515e+003
4.048149e+002, 1.126716e+003
4.052970e+002, 1.125298e+003
4.057791e+002, 1.125015e+003
4.062613e+002, 1.127409e+003
4.067434e+002, 1.130718e+003
4.072255e+002, 1.131012e+003
4.077076e+002, 1.125045e+003
4.081897e+002, 1.117496e+003
4.086718e+002, 1.114020e+003
4.091540e+002, 1.114448e+003
4.096361e+002, 1.114421e+003
4.101182e+002, 1.111461e+003
4.106003e+002, 1.107581e+003
4.110824e+002, 1.106128e+003
4.115645e+002, 1.107293e+003
4.120467e+002, 1.109822e+003
4.125288e+002, 1.114140e+003
4.130109e+002, 1.119233e+003
4.134930e+002, 1.123078e+003
4.139751e+002, 1.125165e+003
4.144572e+002, 1.127016e+003
4.149394e+002, 1.130232e+003
4.154215e+002, 1.134897e+003
4.159036e+002, 1.139265e+003
4.163857e+002, 1.142026e+003
4.168678e+002, 1.145521e+003
4.173499e+002, 1.152082e+003
4.178321e+002, 1.160866e+003
4.183142e+002, 1.168878e+003
4.187963e+002, 1.174328e+003
4.192784e+002, 1.177976e+003
4.197605e+002, 1.182352e+003
4.202426e+002, 1.188393e+003
4.207248e+002, 1.193888e+003
4.212069e+002, 1.197618e+003
4.216890e+002, 1.201199e+003
4.221711e+002, 1.206449e+003
4.226532e+002, 1.213700e+003
4.231353e+002, 1.221877e+003
4.236175e+002, 1.229858e+003
4.240996e+002, 1.237839e+003
4.245817e+002, 1.244503e+003
4.250638e+002, 1.249781e+003
4.255459e+002, 1.254010e+003
4.260280e+002, 1.256045e+003
4.265102e+002, 1.257229e+003
4.269923e+002, 1.260193e+003
4.274744e+002, 1.266577e+003
4.279565e+002, 1.275361e+003
4.284386e+002, 1.282851e+003
4.289207e+002, 1.287491e+003
4.294029e+002, 1.293756e+003
4.298850e+002, 1.302601e+003
4.303671e+002, 1.312752e+003
4.308492e+002, 1.322452e+003
4.313313e+002, 1.331754e+003
4.318134e+002, 1.343001e+003
4.322956e+002, 1.359604e+003
4.327777e+002, 1.381755e+003
4.332598e+002, 1.402197e+003
4.337419e+002, 1.419061e+003
4.342241e+002, 1.436346e+003
4.347062e+002, 1.455712e+003
4.351883e+002, 1.476874e+003
4.356704e+002, 1.499098e+003
4.361525e+002, 1.521928e+003
4.366346e+002, 1.545892e+003
4.371168e+002, 1.571789e+003
4.375989e+002, 1.599584e+003
4.380810e+002, 1.629213e+003
4.385631e+002, 1.661261e+003
4.390452e+002, 1.694659e+003
4.395273e+002, 1.727801e+003
4.400095e+002, 1.760458e+003
4.404916e+002, 1.795103e+003
4.409737e+002, 1.832668e+003
4.414558e+002, 1.873290e+003
4.419379e+002, 1.917269e+003
4.424200e+002, 1.965030e+003
4.429022e+002, 2.014664e+003
4.433843e+002, 2.064773e+003
4.438664e+002, 2.115862e+003
4.443485e+002, 2.170748e+003
4.448306e+002, 2.229790e+003
4.453127e+002, 2.292648e+003
4.457949e+002, 2.361529e+003
4.462770e+002, 2.434396e+003
4.467591e+002, 2.506303e+003
4.472412e+002, 2.575620e+003
4.477233e+002, 2.643067e+003
4.482054e+002, 2.710731e+003
4.486876e+002, 2.783454e+003
4.491697e+002, 2.845504e+003
4.496518e+002, 2.896684e+003
4.501339e+002, 2.936387e+003
4.506160e+002, 2.966557e+003
4.510981e+002, 2.985561e+003
4.515803e+002, 2.987335e+003
4.520624e+002, 2.966649e+003
4.525445e+002, 2.924100e+003
4.530266e+002, 2.867380e+003
4.535087e+002, 2.789319e+003
4.539908e+002, 2.704181e+003
4.544730e+002, 2.613159e+003
4.549551e+002, 2.516575e+003
4.554372e+002, 2.412306e+003
4.559193e+002, 2.300695e+003
4.564014e+002, 2.189400e+003
4.568835e+002, 2.089257e+003
4.573657e+002, 2.001765e+003
4.578478e+002, 1.919711e+003
4.583299e+002, 1.841902e+003
4.588120e+002, 1.771345e+003
4.592941e+002, 1.710373e+003
4.597762e+002, 1.657844e+003
4.602584e+002, 1.610713e+003
4.607405e+002, 1.567410e+003
4.612226e+002, 1.528391e+003
4.617047e+002, 1.494398e+003
4.621868e+002, 1.465526e+003
4.626689e+002, 1.440680e+003
4.631511e+002, 1.421288e+003
4.636332e+002, 1.404824e+003
4.641153e+002, 1.388125e+003
4.645974e+002, 1.370696e+003
4.650795e+002, 1.356478e+003
4.655616e+002, 1.350628e+003
4.660438e+002, 1.349227e+003
4.665259e+002, 1.342204e+003
4.670080e+002, 1.327431e+003
4.674901e+002, 1.313219e+003
4.679722e+002, 1.306203e+003
4.684543e+002, 1.305470e+003
4.689365e+002, 1.304999e+003
4.694186e+002, 1.306177e+003
4.699007e+002, 1.305926e+003
4.703828e+002, 1.301192e+003
4.708649e+002, 1.293950e+003
4.713470e+002, 1.288617e+003
4.718292e+002, 1.286815e+003
4.723113e+002, 1.286823e+003
4.727934e+002, 1.286119e+003
4.732755e+002, 1.284530e+003
4.737576e+002, 1.282562e+003
4.742397e+002, 1.281547e+003
4.747219e+002, 1.278999e+003
4.752040e+002, 1.272271e+003
4.756861e+002, 1.262597e+003
4.761682e+002, 1.253666e+003
4.766503e+002, 1.248017e+003
4.771324e+002, 1.244469e+003
4.776146e+002, 1.238494e+003
4.780967e+002, 1.228394e+003
4.785788e+002, 1.218385e+003
4.790609e+002, 1.208306e+003
4.795430e+002, 1.198851e+003
4.800251e+002, 1.190493e+003
4.805073e+002, 1.183328e+003
4.809894e+002, 1.177137e+003
4.814715e+002, 1.172908e+003
4.819536e+002, 1.170215e+003
4.824357e+002, 1.162570e+003
4.829178e+002, 1.146736e+003
4.834000e+002, 1.131448e+003
4.838821e+002, 1.120884e+003
4.843642e+002, 1.112928e+003
4.848463e+002, 1.105022e+003
4.853284e+002, 1.096492e+003
4.858105e+002, 1.087635e+003
4.862927e+002, 1.078002e+003
4.867748e+002, 1.067936e+003
4.872569e+002, 1.059971e+003
4.877390e+002, 1.055247e+003
4.882211e+002, 1.051437e+003
4.887032e+002, 1.046314e+003
4.891854e+002, 1.040042e+003
4.896675e+002, 1.033282e+003
4.901496e+002, 1.025969e+003
4.906317e+002, 1.018367e+003
4.911138e+002, 1.010254e+003
4.915959e+002, 1.002003e+003
4.920781e+002, 9.950474e+002
4.925602e+002, 9.903019e+002
4.930423e+002, 9.866801e+002
4.935244e+002, 9.816530e+002
4.940065e+002, 9.735302e+002
4.944886e+002, 9.673248e+002
4.949708e+002, 9.651163e+002
4.954529e+002, 9.634284e+002
4.959350e+002, 9.591637e+002
4.964171e+002, 9.526907e+002
4.968992e+002, 9.467925e+002
4.973813e+002, 9.437230e+002
4.978635e+002, 9.428956e+002
4.983456e+002, 9.405706e+002
4.988277e+002, 9.356981e+002
4.993098e+002, 9.307606e+002
4.997919e+002, 9.254147e+002
5.002740e+002, 9.205966e+002
5.007562e+002, 9.171102e+002
5.012383e+002, 9.150873e+002
5.017204e+002, 9.140607e+002
5.022025e+002, 9.145221e+002
5.026846e+002, 9.161519e+002
5.031667e+002, 9.147180e+002
5.036489e+002, 9.086789e+002
5.041310e+002, 9.024577e+002
5.046131e+002, 8.985326e+002
5.050952e+002, 8.959154e+002
5.055773e+002, 8.931771e+002
5.060594e+002, 8.897985e+002
5.065416e+002, 8.867668e+002
5.070237e+002, 8.852338e+002
5.075058e+002, 8.847747e+002
5.079879e+002, 8.838586e+002
5.084700e+002, 8.820514e+002
5.089521e+002, 8.800236e+002
5.094343e+002, 8.785051e+002
5.099164e+002, 8.775010e+002
5.103985e+002, 8.762703e+002
5.108806e+002, 8.738511e+002
5.113627e+002, 8.720907e+002
5.118448e+002, 8.730192e+002
5.123270e+002, 8.753531e+002
5.128091e+002, 8.760042e+002
5.132912e+002, 8.736045e+002
5.137733e+002, 8.696647e+002
5.142554e+002, 8.669709e+002
5.147375e+002, 8.663605e+002
5.152197e+002, 8.650443e+002
5.157018e+002, 8.608491e+002
5.161839e+002, 8.580692e+002
5.166660e+002, 8.601945e+002
5.171481e+002, 8.655690e+002
5.176302e+002, 8.701815e+002
5.181124e+002, 8.717459e+002
5.185945e+002, 8.706859e+002
5.190766e+002, 8.674105e+002
5.195587e+002, 8.605080e+002
5.200408e+002, 8.559371e+002
5.205229e+002, 8.567468e+002
5.210051e+002, 8.590569e+002
5.214872e+002, 8.610533e+002
5.219693e+002, 8.624298e+002
5.224514e+002, 8.626362e+002
5.229335e+002, 8.604343e+002
5.234156e+002, 8.571587e+002
5.238978e+002, 8.552326e+002
5.243799e+002, 8.547100e+002
5.248620e+002, 8.552415e+002
5.253441e+002, 8.575412e+002
5.258262e+002, 8.601556e+002
5.263083e+002, 8.597318e+002
5.267905e+002, 8.551001e+002
5.272726e+002, 8.516488e+002
5.277547e+002, 8.520714e+002
5.282368e+002, 8.538433e+002
5.287189e+002, 8.542690e+002
5.292010e+002, 8.531191e+002
5.296832e+002, 8.514255e+002
5.301653e+002, 8.498146e+002
5.306474e+002, 8.483865e+002
5.311295e+002, 8.477888e+002
5.316116e+002, 8.488978e+002
5.320938e+002, 8.497406e+002
5.325759e+002, 8.498991e+002
5.330580e+002, 8.498615e+002
5.335401e+002, 8.503668e+002
5.340222e+002, 8.513240e+002
5.345043e+002, 8.516296e+002
5.349865e+002, 8.498405e+002
5.354686e+002, 8.462469e+002
5.359507e+002, 8.444376e+002
5.364328e+002, 8.453541e+002
5.369149e+002, 8.462985e+002
5.373970e+002, 8.461559e+002
5.378792e+002, 8.456146e+002
5.383613e+002, 8.456616e+002
5.388434e+002, 8.466141e+002
5.393255e+002, 8.467741e+002
5.398076e+002, 8.440770e+002
5.402897e+002, 8.396805e+002
5.407719e+002, 8.364291e+002
5.412540e+002, 8.346068e+002
5.417361e+002, 8.344924e+002
5.422182e+002, 8.371992e+002
5.427003e+002, 8.418378e+002
5.431824e+002, 8.440868e+002
5.436646e+002, 8.423044e+002
5.441467e+002, 8.403235e+002
5.446288e+002, 8.395975e+002
5.451109e+002, 8.393612e+002
5.455930e+002, 8.381539e+002
5.460751e+002, 8.358395e+002
5.465573e+002, 8.343163e+002
5.470394e+002, 8.357873e+002
5.475215e+002, 8.403624e+002
5.480036e+002, 8.432811e+002
5.484857e+002, 8.436273e+002
5.489678e+002, 8.432484e+002
5.494500e+002, 8.425070e+002
5.499321e+002, 8.411674e+002
5.504142e+002, 8.380848e+002
5.508963e+002, 8.332341e+002
5.513784e+002, 8.295758e+002
5.518605e+002, 8.317236e+002
5.523427e+002, 8.390930e+002
5.528248e+002, 8.425404e+002
5.533069e+002, 8.401579e+002
5.537890e+002, 8.371914e+002
5.542711e+002, 8.361595e+002
5.547532e+002, 8.365573e+002
5.552354e+002, 8.381354e+002
5.557175e+002, 8.415822e+002
5.561996e+002, 8.442277e+002
5.566817e+002, 8.439064e+002
5.571638e+002, 8.416711e+002
5.576459e+002, 8.394377e+002
5.581281e+002, 8.375565e+002
5.586102e+002, 8.361379e+002
5.590923e+002, 8.352792e+002
5.595744e+002, 8.349825e+002
5.600565e+002, 8.352179e+002
5.605386e+002, 8.363834e+002
5.610208e+002, 8.374972e+002
5.615029e+002, 8.388557e+002
5.619850e+002, 8.397843e+002
5.624671e+002, 8.388214e+002
5.629492e+002, 8.360558e+002
5.634313e+002, 8.340396e+002
5.639135e+002, 8.360737e+002
5.643956e+002, 8.420264e+002
5.648777e+002, 8.442087e+002
5.653598e+002, 8.400133e+002
5.658419e+002, 8.361094e+002
5.663240e+002, 8.348318e+002
5.668062e+002, 8.346920e+002
5.672883e+002, 8.340526e+002
5.677704e+002, 8.325585e+002
5.682525e+002, 8.313553e+002
5.687346e+002, 8.316263e+002
5.692167e+002, 8.328629e+002
5.696989e+002, 8.336331e+002
5.701810e+002, 8.337777e+002
5.706631e+002, 8.338522e+002
5.711452e+002, 8.344265e+002
5.716273e+002, 8.351176e+002
5.721094e+002, 8.345412e+002
5.725916e+002, 8.312014e+002
5.730737e+002, 8.293673e+002
5.735558e+002, 8.313571e+002
5.740379e+002, 8.347355e+002
5.745200e+002, 8.370680e+002
5.750021e+002, 8.380176e+002
5.754843e+002, 8.382739e+002
5.759664e+002, 8.383036e+002
5.764485e+002, 8.381782e+002
5.769306e+002, 8.385056e+002
5.774127e+002, 8.409367e+002
5.778948e+002, 8.410126e+002
5.783770e+002, 8.350277e+002
5.788591e+002, 8.290256e+002
5.793412e+002, 8.282653e+002
5.798233e+002, 8.326003e+002
5.803054e+002, 8.374301e+002
5.807875e+002, 8.395402e+002
5.812697e+002, 8.397357e+002
5.817518e+002, 8.399992e+002
5.822339e+002, 8.403888e+002
5.827161e+002, 8.403146e+002
5.831982e+002, 8.395363e+002
5.836803e+002, 8.381669e+002
5.841624e+002, 8.360287e+002
5.846445e+002, 8.328782e+002
5.851266e+002, 8.310426e+002
5.856088e+002, 8.328314e+002
5.860909e+002, 8.348906e+002
5.865730e+002, 8.334567e+002
5.870551e+002, 8.294910e+002
5.875372e+002, 8.270895e+002
5.880193e+002, 8.285280e+002
5.885015e+002, 8.318864e+002
5.889836e+002, 8.327712e+002
5.894657e+002, 8.292635e+002
5.899478e+002, 8.274899e+002
5.904299e+002, 8.289510e+002
5.909120e+002, 8.304881e+002
5.913942e+002, 8.303869e+002
5.918763e+002, 8.291914e+002
5.923584e+002, 8.279844e+002
5.928405e+002, 8.270259e+002
5.933226e+002, 8.272639e+002
5.938047e+002, 8.315120e+002
5.942869e+002, 8.396478e+002
5.947690e+002, 8.435791e+002
5.952511e+002, 8.400804e+002
5.957332e+002, 8.352752e+002
5.962153e+002, 8.350236e+002
5.966974e+002, 8.379748e+002
5.971796e+002, 8.396271e+002
5.976617e+002, 8.376671e+002
5.981438e+002, 8.360419e+002
5.986259e+002, 8.379385e+002
5.991080e+002, 8.413324e+002
5.995901e+002, 8.423815e+002
6.000723e+002, 8.402239e+002
6.005544e+002, 8.373455e+002
6.010365e+002, 8.364763e+002
6.015186e+002, 8.376891e+002
6.020007e+002, 8.378703e+002
6.024828e+002, 8.355145e+002
6.029650e+002, 8.339779e+002
6.034471e+002, 8.341802e+002
6.039292e+002, 8.352634e+002
6.044113e+002, 8.366071e+002
6.048934e+002, 8.379874e+002
6.053755e+002, 8.390500e+002
6.058577e+002, 8.393016e+002
6.063398e+002, 8.389733e+002
6.068219e+002, 8.387814e+002
6.073040e+002, 8.386335e+002
6.077861e+002, 8.392845e+002
6.082682e+002, 8.420438e+002
6.087504e+002, 8.450656e+002
6.092325e+002, 8.448436e+002
6.097146e+002, 8.406317e+002
6.101967e+002, 8.373912e+002
6.106788e+002, 8.364660e+002
6.111609e+002, 8.370018e+002
6.116431e+002, 8.387780e+002
6.121252e+002, 8.413817e+002
6.126073e+002, 8.438970e+002
6.130894e+002, 8.458719e+002
6.135715e+002, 8.472578e+002
6.140536e+002, 8.480133e+002
6.145358e+002, 8.484305e+002
6.150179e+002, 8.474819e+002
6.155000e+002, 8.429188e+002
6.159821e+002, 8.392587e+002
6.164642e+002, 8.390294e+002
6.169464e+002, 8.409794e+002
6.174285e+002, 8.425699e+002
6.179106e+002, 8.427700e+002
6.183927e+002, 8.425221e+002
6.188748e+002, 8.428997e+002
6.193569e+002, 8.437838e+002
6.198391e+002, 8.446609e+002
6.203212e+002, 8.455731e+002
6.208033e+002, 8.459027e+002
6.212854e+002, 8.447920e+002
6.217675e+002, 8.425961e+002
6.222496e+002, 8.414755e+002
6.227318e+002, 8.413367e+002
6.232139e+002, 8.423286e+002
6.236960e+002, 8.457222e+002
6.241781e+002, 8.495367e+002
6.246602e+002, 8.513925e+002
6.251423e+002, 8.512357e+002
6.256245e+002, 8.507930e+002
6.261066e+002, 8.514636e+002
6.265887e+002, 8.529450e+002
6.270708e+002, 8.538182e+002
6.275529e+002, 8.536757e+002
6.280350e+002, 8.539064e+002
6.285172e+002, 8.550082e+002
6.289993e+002, 8.564318e+002
6.294814e+002, 8.580157e+002
6.299635e+002, 8.596681e+002
6.304456e+002, 8.610814e+002
6.309277e+002, 8.626304e+002
6.314099e+002, 8.634562e+002
6.318920e+002, 8.617872e+002
6.323741e+002, 8.583864e+002
6.328562e+002, 8.564681e+002
6.333383e+002, 8.571229e+002
6.338204e+002, 8.589357e+002
6.343026e+002, 8.601602e+002
6.347847e+002, 8.606009e+002
6.352668e+002, 8.624119e+002
6.357489e+002, 8.677637e+002
6.362310e+002, 8.716974e+002
6.367131e+002, 8.712301e+002
6.371953e+002, 8.693333e+002
6.376774e+002, 8.699723e+002
6.381595e+002, 8.736934e+002
6.386416e+002, 8.772505e+002
6.391237e+002, 8.771761e+002
6.396058e+002, 8.742282e+002
6.400880e+002, 8.721803e+002
6.405701e+002, 8.709976e+002
6.410522e+002, 8.709642e+002
6.415343e+002, 8.731014e+002
6.420164e+002, 8.757635e+002
6.424985e+002, 8.764435e+002
6.429807e+002, 8.749528e+002
6.434628e+002, 8.743784e+002
6.439449e+002, 8.771947e+002
6.444270e+002, 8.799077e+002
6.449091e+002, 8.784100e+002
6.453912e+002, 8.744704e+002
6.458734e+002, 8.735386e+002
6.463555e+002, 8.778309e+002
6.468376e+002, 8.835887e+002
6.473197e+002, 8.844896e+002
6.478018e+002, 8.790199e+002
6.482839e+002, 8.773856e+002
6.487661e+002, 8.834926e+002
6.492482e+002, 8.887155e+002
6.497303e+002, 8.896794e+002
6.502124e+002, 8.886906e+002
6.506945e+002, 8.886976e+002
6.511766e+002, 8.903741e+002
6.516588e+002, 8.921584e+002
6.521409e+002, 8.925817e+002
6.526230e+002, 8.923602e+002
6.531051e+002, 8.929419e+002
6.535872e+002, 8.944006e+002
6.540693e+002, 8.964984e+002
6.545515e+002, 8.995228e+002
6.550336e+002, 9.024285e+002
6.555157e+002, 9.028675e+002
6.559978e+002, 8.990867e+002
6.564799e+002, 8.969374e+002
6.569620e+002, 8.971896e+002
6.574442e+002, 8.983442e+002
6.579263e+002, 9.007952e+002
6.584084e+002, 9.032726e+002
6.588905e+002, 9.032615e+002
6.593726e+002, 8.997567e+002
6.598547e+002, 8.956649e+002
6.603369e+002, 8.952670e+002
6.608190e+002, 8.982506e+002
6.613011e+002, 8.998989e+002
6.617832e+002, 8.995328e+002
6.622653e+002, 8.990345e+002
6.627474e+002, 8.991476e+002
6.632296e+002, 8.999474e+002
6.637117e+002, 9.018626e+002
6.641938e+002, 9.057908e+002
6.646759e+002, 9.078701e+002
6.651580e+002, 9.051670e+002
6.656401e+002, 9.014147e+002
6.661223e+002, 9.003480e+002
6.666044e+002, 9.014061e+002
6.670865e+002, 9.019019e+002
6.675686e+002, 9.004378e+002
6.680507e+002, 8.979108e+002
6.685328e+002, 8.959368e+002
6.690150e+002, 8.945604e+002
6.694971e+002, 8.935316e+002
6.699792e+002, 8.926219e+002
6.704613e+002, 8.923900e+002
6.709434e+002, 8.938605e+002
6.714255e+002, 8.958192e+002
6.719077e+002, 8.962533e+002
6.723898e+002, 8.944733e+002
6.728719e+002, 8.926135e+002
6.733540e+002, 8.920728e+002
6.738361e+002, 8.922926e+002
6.743182e+002, 8.924126e+002
6.748004e+002, 8.923952e+002
6.752825e+002, 8.926227e+002
6.757646e+002, 8.933339e+002
6.762467e+002, 8.943578e+002
6.767288e+002, 8.952785e+002
6.772109e+002, 8.958376e+002
6.776931e+002, 8.969205e+002
6.781752e+002, 8.995500e+002
6.786573e+002, 9.015836e+002
6.791394e+002, 9.010316e+002
6.796215e+002, 8.995794e+002
6.801036e+002, 9.004002e+002
6.805858e+002, 9.047056e+002
6.810679e+002, 9.090505e+002
6.815500e+002, 9.092687e+002
6.820321e+002, 9.069637e+002
6.825142e+002, 9.069153e+002
6.829963e+002, 9.095856e+002
6.834785e+002, 9.128997e+002
6.839606e+002, 9.161122e+002
6.844427e+002, 9.187741e+002
6.849248e+002, 9.195596e+002
6.854069e+002, 9.163171e+002
6.858890e+002, 9.163840e+002
6.863712e+002, 9.233163e+002
6.868533e+002, 9.302238e+002
6.873354e+002, 9.330966e+002
6.878175e+002, 9.333770e+002
6.882996e+002, 9.338031e+002
6.887817e+002, 9.354281e+002
6.892639e+002, 9.381958e+002
6.897460e+002, 9.427698e+002
6.902281e+002, 9.487224e+002
6.907102e+002, 9.523862e+002
6.911923e+002, 9.529108e+002
6.916744e+002, 9.544785e+002
6.921566e+002, 9.599637e+002
6.926387e+002, 9.671953e+002
6.931208e+002, 9.717118e+002
6.936029e+002, 9.730341e+002
6.940850e+002, 9.743203e+002
6.945671e+002, 9.740237e+002
6.950493e+002, 9.757766e+002
6.955314e+002, 9.839998e+002
6.960135e+002, 9.955764e+002
6.964956e+002, 1.004277e+003
6.969777e+002, 1.007889e+003
6.974598e+002, 1.009481e+003
6.979420e+002, 1.012849e+003
6.984241e+002, 1.017906e+003
6.989062e+002, 1.022367e+003
6.993883e+002, 1.025842e+003
6.998704e+002, 1.029830e+003
7.003525e+002, 1.035475e+003
7.008347e+002, 1.041577e+003
7.013168e+002, 1.045876e+003
7.017989e+002, 1.048003e+003
7.022810e+002, 1.052647e+003
7.027631e+002, 1.064408e+003
7.032452e+002, 1.075942e+003
7.037274e+002, 1.082235e+003
7.042095e+002, 1.084253e+003
7.046916e+002, 1.083175e+003
7.051737e+002, 1.079769e+003
7.056558e+002, 1.077311e+003
7.061379e+002, 1.080300e+003
7.066201e+002, 1.088297e+003
7.071022e+002, 1.092909e+003
7.075843e+002, 1.092899e+003
7.080664e+002, 1.092456e+003
7.085485e+002, 1.093493e+003
7.090306e+002, 1.094145e+003
7.095128e+002, 1.092150e+003
7.099949e+002, 1.087696e+003
7.104770e+002, 1.084125e+003
7.109591e+002, 1.083267e+003
7.114412e+002, 1.082918e+003
7.119233e+002, 1.082454e+003
7.124055e+002, 1.081108e+003
7.128876e+002, 1.076762e+003
7.133697e+002, 1.069222e+003
7.138518e+002, 1.061646e+003
7.143339e+002, 1.057386e+003
7.148160e+002, 1.055778e+003
7.152982e+002, 1.051701e+003
7.157803e+002, 1.043660e+003
7.162624e+002, 1.036658e+003
7.167445e+002, 1.033161e+003
7.172266e+002, 1.029773e+003
7.177087e+002, 1.023214e+003
7.181909e+002, 1.014474e+003
7.186730e+002, 1.007971e+003
7.191551e+002, 1.006662e+003
7.196372e+002, 1.005815e+003
7.201193e+002, 1.002450e+003
7.206014e+002, 9.972646e+002
7.210836e+002, 9.905962e+002
7.215657e+002, 9.829500e+002
7.220478e+002, 9.769108e+002
7.225299e+002, 9.747767e+002
7.230120e+002, 9.749821e+002
7.234941e+002, 9.716470e+002
7.239763e+002, 9.629398e+002
7.244584e+002, 9.557479e+002
7.249405e+002, 9.509624e+002
7.254226e+002, 9.476439e+002
7.259047e+002, 9.458419e+002
7.263868e+002, 9.450146e+002
7.268690e+002, 9.442191e+002
7.273511e+002, 9.436434e+002
7.278332e+002, 9.419158e+002
7.283153e+002, 9.376284e+002
7.287974e+002, 9.320519e+002
7.292795e+002, 9.264396e+002
7.297617e+002, 9.211288e+002
7.302438e+002, 9.168623e+002
7.307259e+002, 9.141166e+002
7.312080e+002, 9.119365e+002
7.316901e+002, 9.081440e+002
7.321722e+002, 9.020422e+002
7.326544e+002, 8.973016e+002
7.331365e+002, 8.940965e+002
7.336186e+002, 8.920361e+002
7.341007e+002, 8.919774e+002
7.345828e+002, 8.923910e+002
7.350649e+002, 8.909285e+002
7.355471e+002, 8.870695e+002
7.360292e+002, 8.841800e+002
7.365113e+002, 8.857093e+002
7.369934e+002, 8.874740e+002
7.374755e+002, 8.844064e+002
7.379576e+002, 8.780287e+002
7.384398e+002, 8.728841e+002
7.389219e+002, 8.705903e+002
7.394040e+002, 8.702962e+002
7.398861e+002, 8.712775e+002
7.403682e+002, 8.734935e+002
7.408503e+002, 8.743909e+002
7.413325e+002, 8.737258e+002
7.418146e+002, 8.722156e+002
7.422967e+002, 8.688778e+002
7.427788e+002, 8.656579e+002
7.432609e+002, 8.644447e+002
7.437430e+002, 8.650455e+002
7.442252e+002, 8.655089e+002
7.447073e+002, 8.655551e+002
7.451894e+002, 8.649572e+002
7.456715e+002, 8.628353e+002
7.461536e+002, 8.602708e+002
7.466357e+002, 8.594728e+002
7.471179e+002, 8.604813e+002
7.476000e+002, 8.607496e+002
7.480821e+002, 8.580219e+002
7.485642e+002, 8.536907e+002
7.490463e+002, 8.525880e+002
7.495284e+002, 8.556085e+002
7.500106e+002, 8.577816e+002
7.504927e+002, 8.578991e+002
7.509748e+002, 8.578408e+002
7.514569e+002, 8.591157e+002
7.519390e+002, 8.611169e+002
7.524211e+002, 8.624658e+002
7.529033e+002, 8.625563e+002
7.533854e+002, 8.630760e+002
7.538675e+002, 8.652570e+002
7.543496e+002, 8.676495e+002
7.548317e+002, 8.688799e+002
7.553138e+002, 8.690995e+002
7.557960e+002, 8.688426e+002
7.562781e+002, 8.683512e+002
7.567602e+002, 8.683678e+002
7.572423e+002, 8.701285e+002
7.577244e+002, 8.735721e+002
7.582065e+002, 8.772814e+002
7.586887e+002, 8.813655e+002
7.591708e+002, 8.852577e+002
7.596529e+002, 8.890518e+002
7.601350e+002, 8.922211e+002
7.606171e+002, 8.933268e+002
7.610992e+002, 8.920851e+002
7.615814e+002, 8.929860e+002
7.620635e+002, 8.975677e+002
7.625456e+002, 9.032903e+002
7.630277e+002, 9.092954e+002
7.635098e+002, 9.156302e+002
7.639919e+002, 9.232766e+002
7.644741e+002, 9.318195e+002
7.649562e+002, 9.383522e+002
7.654383e+002, 9.397335e+002
7.659204e+002, 9.386837e+002
7.664025e+002, 9.415590e+002
7.668846e+002, 9.482137e+002
7.673668e+002, 9.545192e+002
7.678489e+002, 9.594168e+002
7.683310e+002, 9.645464e+002
7.688131e+002, 9.715288e+002
7.692952e+002, 9.799064e+002
7.697773e+002, 9.871271e+002
7.702595e+002, 9.918231e+002
7.707416e+002, 9.974509e+002
7.712237e+002, 1.004128e+003
7.717058e+002, 1.011837e+003
7.721879e+002, 1.022022e+003
7.726700e+002, 1.032874e+003
7.731522e+002, 1.040453e+003
7.736343e+002, 1.043020e+003
7.741164e+002, 1.045309e+003
7.745985e+002, 1.052346e+003
7.750806e+002, 1.062281e+003
7.755627e+002, 1.070947e+003
7.760449e+002, 1.078213e+003
7.765270e+002, 1.085711e+003
7.770091e+002, 1.094279e+003
7.774912e+002, 1.102853e+003
7.779733e+002, 1.109795e+003
7.784554e+002, 1.115056e+003
7.789376e+002, 1.119556e+003
7.794197e+002, 1.122651e+003
7.799019e+002, 1.125886e+003
7.803840e+002, 1.129272e+003
7.808661e+002, 1.133163e+003
7.813482e+002, 1.138339e+003
7.818303e+002, 1.144496e+003
7.823124e+002, 1.149707e+003
7.827946e+002, 1.152320e+003
7.832767e+002, 1.154766e+003
7.837588e+002, 1.159675e+003
7.842409e+002, 1.165557e+003
7.847230e+002, 1.169408e+003
7.852051e+002, 1.171040e+003
7.856873e+002, 1.172666e+003
7.861694e+002, 1.175753e+003
7.866515e+002, 1.180096e+003
7.871336e+002, 1.185834e+003
7.876157e+002, 1.193797e+003
7.880978e+002, 1.198012e+003
7.885800e+002, 1.195128e+003
7.890621e+002, 1.193562e+003
7.895442e+002, 1.199100e+003
7.900263e+002, 1.208321e+003
7.905084e+002, 1.215697e+003
7.909905e+002, 1.220417e+003
7.914727e+002, 1.226281e+003
7.919548e+002, 1.235711e+003
7.924369e+002, 1.245022e+003
7.929190e+002, 1.250636e+003
7.934011e+002, 1.255053e+003
7.938832e+002, 1.263098e+003
7.943654e+002, 1.275558e+003
7.948475e+002, 1.288352e+003
7.953296e+002, 1.297691e+003
7.958117e+002, 1.304824e+003
7.962938e+002, 1.312550e+003
7.967759e+002, 1.320869e+003
7.972581e+002, 1.331024e+003
7.977402e+002, 1.343562e+003
7.982223e+002, 1.356497e+003
7.987044e+002, 1.367268e+003
7.991865e+002, 1.376911e+003
7.996686e+002, 1.391415e+003
8.001508e+002, 1.416678e+003
8.006329e+002, 1.438430e+003
8.011150e+002, 1.452694e+003
8.015971e+002, 1.467123e+003
8.020792e+002, 1.486164e+003
8.025613e+002, 1.508547e+003
8.030435e+002, 1.531039e+003
8.035256e+002, 1.552368e+003
8.040077e+002, 1.577004e+003
8.044898e+002, 1.609969e+003
8.049719e+002, 1.647036e+003
8.054540e+002, 1.681500e+003
8.059362e+002, 1.714398e+003
8.064183e+002, 1.750984e+003
8.069004e+002, 1.793132e+003
8.073825e+002, 1.839638e+003
8.078646e+002, 1.888755e+003
8.083467e+002, 1.940833e+003
8.088289e+002, 2.000740e+003
8.093110e+002, 2.070368e+003
8.097931e+002, 2.142740e+003
8.102752e+002, 2.213923e+003
8.107573e+002, 2.289893e+003
8.112394e+002, 2.374972e+003
8.117216e+002, 2.468073e+003
8.122037e+002, 2.564791e+003
8.126858e+002, 2.665253e+003
8.131679e+002, 2.768733e+003
8.136500e+002, 2.874076e+003
8.141321e+002, 2.982711e+003
8.146143e+002, 3.095296e+003
8.150964e+002, 3.211553e+003
8.155785e+002, 3.331022e+003
8.160606e+002, 3.453177e+003
8.165427e+002, 3.580236e+003
8.170248e+002, 3.715463e+003
8.175070e+002, 3.857616e+003
8.179891e+002, 4.002981e+003
8.184712e+002, 4.151965e+003
8.189533e+002, 4.301380e+003
8.194354e+002, 4.449261e+003
8.199175e+002, 4.598188e+003
8.203997e+002, 4.751730e+003
8.208818e+002, 4.909702e+003
8.213639e+002, 5.062317e+003
8.218460e+002, 5.212870e+003
8.223281e+002, 5.352793e+003
8.228102e+002, 5.486374e+003
8.232924e+002, 5.605636e+003
8.237745e+002, 5.706376e+003
8.242566e+002, 5.788348e+003
8.247387e+002, 5.851049e+003
8.252208e+002, 5.895463e+003
8.257029e+002, 5.918278e+003
8.261851e+002, 5.911332e+003
8.266672e+002, 5.886201e+003
8.271493e+002, 5.854049e+003
8.276314e+002, 5.815907e+003
8.281135e+002, 5.770159e+003
8.285956e+002, 5.716304e+003
8.290778e+002, 5.659185e+003
8.295599e+002, 5.602075e+003
8.300420e+002, 5.546835e+003
8.305241e+002, 5.506005e+003
8.310062e+002, 5.480770e+003
8.314883e+002, 5.463729e+003
8.319705e+002, 5.453140e+003
8.324526e+002, 5.449688e+003
8.329347e+002, 5.453499e+003
8.334168e+002, 5.464864e+003
8.338989e+002, 5.486594e+003
8.343810e+002, 5.523949e+003
8.348632e+002, 5.563061e+003
8.353453e+002, 5.602570e+003
8.358274e+002, 5.643721e+003
8.363095e+002, 5.690671e+003
8.367916e+002, 5.739096e+003
8.372737e+002, 5.781572e+003
8.377559e+002, 5.816081e+003
8.382380e+002, 5.844391e+003
8.387201e+002, 5.867137e+003
8.392022e+002, 5.884944e+003
8.396843e+002, 5.902673e+003
8.401664e+002, 5.916222e+003
8.406486e+002, 5.913232e+003
8.411307e+002, 5.889978e+003
8.416128e+002, 5.851057e+003
8.420949e+002, 5.801257e+003
8.425770e+002, 5.739729e+003
8.430591e+002, 5.662204e+003
8.435413e+002, 5.567247e+003
8.440234e+002, 5.462148e+003
8.445055e+002, 5.345232e+003
8.449876e+002, 5.222818e+003
8.454697e+002, 5.098905e+003
8.459518e+002, 4.971996e+003
8.464340e+002, 4.837071e+003
8.469161e+002, 4.686768e+003
8.473982e+002, 4.548943e+003
8.478803e+002, 4.435542e+003
8.483624e+002, 4.324771e+003
8.488445e+002, 4.201877e+003
8.493267e+002, 4.076742e+003
8.498088e+002, 3.961816e+003
8.502909e+002, 3.859565e+003
8.507730e+002, 3.768999e+003
8.512551e+002, 3.691340e+003
8.517372e+002, 3.622946e+003
8.522194e+002, 3.558968e+003
8.527015e+002, 3.500359e+003
8.531836e+002, 3.450529e+003
8.536657e+002, 3.409440e+003
8.541478e+002, 3.371642e+003
8.546299e+002, 3.332703e+003
8.551121e+002, 3.297055e+003
8.555942e+002, 3.275880e+003
8.560763e+002, 3.271326e+003
8.565584e+002, 3.263230e+003
8.570405e+002, 3.247670e+003
8.575226e+002, 3.237500e+003
8.580048e+002, 3.240867e+003
8.584869e+002, 3.250183e+003
8.589690e+002, 3.253862e+003
8.594511e+002, 3.251319e+003
8.599332e+002, 3.253497e+003
8.604153e+002, 3.263017e+003
8.608975e+002, 3.274484e+003
8.613796e+002, 3.287179e+003
8.618617e+002, 3.300638e+003
8.623438e+002, 3.315712e+003
8.628259e+002, 3.331218e+003
8.633080e+002, 3.344034e+003
8.637902e+002, 3.352743e+003
8.642723e+002, 3.359135e+003
8.647544e+002, 3.366095e+003
8.652365e+002, 3.370992e+003
8.657186e+002, 3.369742e+003
8.662007e+002, 3.362531e+003
8.666829e+002, 3.352099e+003
8.671650e+002, 3.339410e+003
8.676471e+002, 3.320405e+003
8.681292e+002, 3.289966e+003
8.686113e+002, 3.249280e+003
8.690934e+002, 3.205207e+003
8.695756e+002, 3.157848e+003
8.700577e+002, 3.107009e+003
8.705398e+002, 3.053063e+003
8.710219e+002, 2.995057e+003
8.715040e+002, 2.932395e+003
8.719861e+002, 2.865247e+003
8.724683e+002, 2.792306e+003
8.729504e+002, 2.708913e+003
8.734325e+002, 2.628508e+003
8.739146e+002, 2.553554e+003
8.743967e+002, 2.479348e+003
8.748788e+002, 2.403084e+003
8.753610e+002, 2.326800e+003
8.758431e+002, 2.253223e+003
8.763252e+002, 2.182540e+003
8.768073e+002, 2.114997e+003
8.772894e+002, 2.051192e+003
8.777715e+002, 1.989533e+003
8.782537e+002, 1.927479e+003
8.787358e+002, 1.867696e+003
8.792179e+002, 1.815329e+003
8.797000e+002, 1.769636e+003
8.801821e+002, 1.725295e+003
8.806642e+002, 1.679117e+003
8.811464e+002, 1.633994e+003
8.816285e+002, 1.594649e+003
8.821106e+002, 1.560445e+003
8.825927e+002, 1.527838e+003
8.830748e+002, 1.496927e+003
8.835569e+002, 1.464779e+003
8.840391e+002, 1.429377e+003
8.845212e+002, 1.395932e+003
8.850033e+002, 1.370846e+003
8.854854e+002, 1.353739e+003
8.859675e+002, 1.334056e+003
8.864496e+002, 1.309912e+003
8.869318e+002, 1.287126e+003
8.874139e+002, 1.267403e+003
8.878960e+002, 1.248204e+003
8.883781e+002, 1.228194e+003
8.888602e+002, 1.207609e+003
8.893423e+002, 1.186729e+003
8.898245e+002, 1.165248e+003
8.903066e+002, 1.144645e+003
8.907887e+002, 1.126412e+003
8.912708e+002, 1.108004e+003
8.917529e+002, 1.086071e+003
8.922350e+002, 1.064017e+003
8.927172e+002, 1.047099e+003
8.931993e+002, 1.035530e+003
8.936814e+002, 1.024883e+003
8.941635e+002, 1.012565e+003
8.946456e+002, 9.998680e+002
8.951277e+002, 9.892521e+002
8.956099e+002, 9.792896e+002
8.960920e+002, 9.656852e+002
8.965741e+002, 9.488845e+002
8.970562e+002, 9.347684e+002
8.975383e+002, 9.261401e+002
8.980204e+002, 9.204479e+002
8.985026e+002, 9.147147e+002
8.989847e+002, 9.087340e+002
8.994668e+002, 8.989146e+002
8.999489e+002, 8.838087e+002
9.004310e+002, 8.730671e+002
9.009131e+002, 8.707820e+002
9.013953e+002, 8.697148e+002
9.018774e+002, 8.634728e+002
9.023595e+002, 8.533263e+002
9.028416e+002, 8.452393e+002
9.033237e+002, 8.405157e+002
9.038058e+002, 8.354984e+002
9.042880e+002, 8.300125e+002
9.047701e+002, 8.244791e+002
9.052522e+002, 8.186163e+002
9.057343e+002, 8.130604e+002
9.062164e+002, 8.088494e+002
9.066985e+002, 8.059793e+002
9.071807e+002, 8.028990e+002
9.076628e+002, 7.989423e+002
9.081449e+002, 7.947559e+002
9.086270e+002, 7.900590e+002
9.091091e+002, 7.857501e+002
9.095912e+002, 7.828834e+002
9.100734e+002, 7.813668e+002
9.105555e+002, 7.807750e+002
9.110376e+002, 7.809694e+002
9.115197e+002, 7.808344e+002
9.120018e+002, 7.792921e+002
9.124839e+002, 7.765297e+002
9.129661e+002, 7.726861e+002
9.134482e+002, 7.679303e+002
9.139303e+002, 7.629569e+002
9.144124e+002, 7.579411e+002
9.148945e+002, 7.527550e+002
9.153766e+002, 7.468694e+002
9.158588e+002, 7.415916e+002
9.163409e+002, 7.421483e+002
9.168230e+002, 7.495717e+002
9.173051e+002, 7.527032e+002
9.177872e+002, 7.497656e+002
9.182693e+002, 7.451556e+002
9.187515e+002, 7.402739e+002
9.192336e+002, 7.358260e+002
9.197157e+002, 7.329608e+002
9.201978e+002, 7.317552e+002
9.206799e+002, 7.312608e+002
9.211620e+002, 7.329011e+002
9.216442e+002, 7.332559e+002
9.221263e+002, 7.304532e+002
9.226084e+002, 7.275497e+002
9.230905e+002, 7.270469e+002
9.235726e+002, 7.279574e+002
9.240547e+002, 7.276837e+002
9.245369e+002, 7.254118e+002
9.250190e+002, 7.234205e+002
9.255011e+002, 7.227333e+002
9.259832e+002, 7.223757e+002
9.264653e+002, 7.217381e+002
9.269474e+002, 7.209951e+002
9.274296e+002, 7.209098e+002
9.279117e+002, 7.212070e+002
9.283938e+002, 7.199266e+002
9.288759e+002, 7.150961e+002
9.293580e+002, 7.102298e+002
9.298401e+002, 7.101122e+002
9.303223e+002, 7.123485e+002
9.308044e+002, 7.126885e+002
9.312865e+002, 7.109055e+002
9.317686e+002, 7.074531e+002
9.322507e+002, 7.026163e+002
9.327328e+002, 6.987293e+002
9.332150e+002, 6.986486e+002
9.336971e+002, 7.015838e+002
9.341792e+002, 7.053971e+002
9.346613e+002, 7.100668e+002
9.351434e+002, 7.110221e+002
9.356255e+002, 7.069257e+002
9.361077e+002, 7.024697e+002
9.365898e+002, 7.007231e+002
9.370719e+002, 7.005927e+002
9.375540e+002, 6.995514e+002
9.380361e+002, 6.972714e+002
9.385182e+002, 6.959208e+002
9.390004e+002, 6.957627e+002
9.394825e+002, 6.960419e+002
9.399646e+002, 6.968387e+002
9.404467e+002, 6.977077e+002
9.409288e+002, 6.984282e+002
9.414109e+002, 6.989105e+002
9.418931e+002, 6.987227e+002
9.423752e+002, 6.980121e+002
9.428573e+002, 6.963360e+002
9.433394e+002, 6.918556e+002
9.438215e+002, 6.883699e+002
9.443036e+002, 6.885813e+002
9.447858e+002, 6.905262e+002
9.452679e+002, 6.917792e+002
9.457500e+002, 6.919792e+002
9.462321e+002, 6.916869e+002
9.467142e+002, 6.910068e+002
9.471964e+002, 6.900800e+002
9.476785e+002, 6.885844e+002
9.481606e+002, 6.871849e+002
9.486427e+002, 6.860216e+002
9.491248e+002, 6.857039e+002
9.496069e+002, 6.884779e+002
9.500891e+002, 6.949442e+002
9.505712e+002, 6.998344e+002
9.510533e+002, 6.959202e+002
9.515354e+002, 6.888781e+002
9.520175e+002, 6.888451e+002
9.524996e+002, 6.934506e+002
9.529818e+002, 6.958332e+002
9.534639e+002, 6.949188e+002
9.539460e+002, 6.933014e+002
9.544281e+002, 6.925573e+002
9.549102e+002, 6.924280e+002
9.553923e+002, 6.922609e+002
9.558745e+002, 6.921950e+002
9.563566e+002, 6.940201e+002
9.568387e+002, 6.978857e+002
9.573208e+002, 7.008875e+002
9.578029e+002, 7.022209e+002
9.582850e+002, 7.020179e+002
9.587672e+002, 7.000831e+002
9.592493e+002, 6.970119e+002
9.597314e+002, 6.950399e+002
9.602135e+002, 6.938699e+002
9.606956e+002, 6.952239e+002
9.611777e+002, 7.012897e+002
9.616599e+002, 7.053641e+002
9.621420e+002, 7.033912e+002
9.626241e+002, 6.993019e+002
9.631062e+002, 6.979063e+002
9.635883e+002, 6.991975e+002
9.640704e+002, 7.003502e+002
9.645526e+002, 7.016656e+002
9.650347e+002, 7.023922e+002
9.655168e+002, 7.017743e+002
9.659989e+002, 7.012804e+002
9.664810e+002, 7.013131e+002
9.669631e+002, 7.021603e+002
9.674453e+002, 7.049492e+002
9.679274e+002, 7.099371e+002
9.684095e+002, 7.125141e+002
9.688916e+002, 7.087877e+002
9.693737e+002, 7.056549e+002
9.698558e+002, 7.077457e+002
9.703380e+002, 7.105498e+002
9.708201e+002, 7.083088e+002
9.713022e+002, 7.032650e+002
9.717843e+002, 7.025219e+002
9.722664e+002, 7.087241e+002
9.727485e+002, 7.140824e+002
9.732307e+002, 7.126177e+002
9.737128e+002, 7.085474e+002
9.741949e+002, 7.053760e+002
9.746770e+002, 7.028566e+002
9.751591e+002, 6.999276e+002
9.756412e+002, 6.968192e+002
9.761234e+002, 6.953767e+002
9.766055e+002, 6.967688e+002
9.770876e+002, 6.988285e+002
9.775698e+002, 6.994050e+002
9.780519e+002, 6.985306e+002
9.785340e+002, 6.952901e+002
9.790161e+002, 6.905410e+002
9.794982e+002, 6.883420e+002
9.799803e+002, 6.894862e+002
9.804625e+002, 6.899769e+002
9.809446e+002, 6.864030e+002
9.814267e+002, 6.808659e+002
9.819088e+002, 6.781269e+002
9.823909e+002, 6.778625e+002
9.828730e+002, 6.770577e+002
9.833552e+002, 6.755454e+002
9.838373e+002, 6.731255e+002
9.843194e+002, 6.697421e+002
9.848015e+002, 6.651821e+002
9.852836e+002, 6.587691e+002
9.857657e+002, 6.513362e+002
9.862479e+002, 6.473679e+002
9.867300e+002, 6.477606e+002
9.872121e+002, 6.466727e+002
9.876942e+002, 6.429332e+002
9.881763e+002, 6.398673e+002
9.886584e+002, 6.394678e+002
9.891406e+002, 6.397974e+002
9.896227e+002, 6.380404e+002
9.901048e+002, 6.342166e+002
9.905869e+002, 6.320208e+002
9.910690e+002, 6.331117e+002
9.915511e+002, 6.325289e+002
9.920333e+002, 6.276691e+002
9.925154e+002, 6.236417e+002
9.929975e+002, 6.242384e+002
9.934796e+002, 6.268076e+002
9.939617e+002, 6.268911e+002
9.944438e+002, 6.241079e+002
9.949260e+002, 6.228361e+002
9.954081e+002, 6.255828e+002
9.958902e+002, 6.267465e+002
9.963723e+002, 6.245132e+002
9.968544e+002, 6.209605e+002
9.973365e+002, 6.163532e+002
9.978187e+002, 6.118334e+002
9.983008e+002, 6.094480e+002
9.987829e+002, 6.096072e+002
9.992650e+002, 6.106464e+002
9.997471e+002, 6.137226e+002
1.000229e+003, 6.155272e+002
1.000711e+003, 6.136136e+002
1.001193e+003, 6.104569e+002
1.001676e+003, 6.080253e+002
1.002158e+003, 6.065081e+002
1.002640e+003, 6.059168e+002
1.003122e+003, 6.063990e+002
1.003604e+003, 6.061476e+002
1.004086e+003, 6.028334e+002
1.004568e+003, 5.997321e+002
1.005050e+003, 6.003400e+002
1.005533e+003, 6.022953e+002
1.006015e+003, 6.020960e+002
1.006497e+003, 5.998811e+002
1.006979e+003, 5.980192e+002
1.007461e+003, 5.975870e+002
1.007943e+003, 5.974088e+002
1.008425e+003, 5.959904e+002
1.008907e+003, 5.945983e+002
1.009389e+003, 5.955009e+002
1.009872e+003, 5.975360e+002
1.010354e+003, 5.978509e+002
1.010836e+003, 5.963535e+002
1.011318e+003, 5.954952e+002
1.011800e+003, 5.967885e+002
1.012282e+003, 5.984686e+002
1.012764e+003, 5.985619e+002
1.013246e+003, 5.973374e+002
1.013729e+003, 5.945655e+002
1.014211e+003, 5.909847e+002
1.014693e+003, 5.896603e+002
1.015175e+003, 5.910286e+002
1.015657e+003, 5.921183e+002
1.016139e+003, 5.907385e+002
1.016621e+003, 5.886905e+002
1.017103e+003, 5.897118e+002
1.017585e+003, 5.928026e+002
1.018068e+003, 5.933918e+002
1.018550e+003, 5.914990e+002
1.019032e+003, 5.881312e+002
1.019514e+003, 5.836053e+002
1.019996e+003, 5.814365e+002
1.020478e+003, 5.849434e+002
1.020960e+003, 5.910666e+002
1.021442e+003, 5.923542e+002
1.021924e+003, 5.890106e+002
1.022407e+003, 5.862756e+002
1.022889e+003, 5.842872e+002
1.023371e+003, 5.839583e+002
1.023853e+003, 5.859106e+002
1.024335e+003, 5.872106e+002
1.024817e+003, 5.848663e+002
1.025299e+003, 5.805326e+002
1.025781e+003, 5.799565e+002
1.026264e+003, 5.839485e+002
1.026746e+003, 5.843805e+002
1.027228e+003, 5.800110e+002
1.027710e+003, 5.768585e+002
1.028192e+003, 5.771904e+002
1.028674e+003, 5.787429e+002
1.029156e+003, 5.795153e+002
1.029638e+003, 5.796071e+002
1.030120e+003, 5.794533e+002
1.030603e+003, 5.791718e+002
1.031085e+003, 5.780519e+002
1.031567e+003, 5.753300e+002
1.032049e+003, 5.737175e+002
1.032531e+003, 5.744956e+002
1.033013e+003, 5.761971e+002
1.033495e+003, 5.776429e+002
1.033977e+003, 5.787231e+002
1.034459e+003, 5.788033e+002
1.034942e+003, 5.771281e+002
1.035424e+003, 5.762927e+002
1.035906e+003, 5.770853e+002
1.036388e+003, 5.773638e+002
1.036870e+003, 5.759231e+002
1.037352e+003, 5.741586e+002
1.037834e+003, 5.734523e+002
1.038316e+003, 5.736439e+002
1.038799e+003, 5.737766e+002
1.039281e+003, 5.739482e+002
1.039763e+003, 5.738680e+002
1.040245e+003, 5.729253e+002
1.040727e+003, 5.725157e+002
1.041209e+003, 5.740280e+002
1.041691e+003, 5.755306e+002
1.042173e+003, 5.743232e+002
1.042656e+003, 5.712624e+002
1.043138e+003, 5.710204e+002
1.043620e+003, 5.763224e+002
1.044102e+003, 5.792978e+002
1.044584e+003, 5.773940e+002
1.045066e+003, 5.756924e+002
1.045548e+003, 5.769122e+002
1.046030e+003, 5.785034e+002
1.046512e+003, 5.775587e+002
1.046995e+003, 5.746473e+002
1.047477e+003, 5.728336e+002
1.047959e+003, 5.733163e+002
1.048441e+003, 5.729071e+002
1.048923e+003, 5.699443e+002
1.049405e+003, 5.674789e+002
1.049887e+003, 5.666427e+002
1.050369e+003, 5.670003e+002
1.050851e+003, 5.694130e+002
1.051334e+003, 5.727009e+002
1.051816e+003, 5.720704e+002
1.052298e+003, 5.641440e+002
1.052780e+003, 5.594706e+002
1.053262e+003, 5.629491e+002
1.053744e+003, 5.671309e+002
1.054226e+003, 5.692879e+002
1.054708e+003, 5.699252e+002
1.055191e+003, 5.686017e+002
1.055673e+003, 5.663436e+002
1.056155e+003, 5.664901e+002
1.056637e+003, 5.706490e+002
1.057119e+003, 5.740725e+002
1.057601e+003, 5.746588e+002
1.058083e+003, 5.749834e+002
1.058565e+003, 5.760033e+002
1.059047e+003, 5.776400e+002
1.059530e+003, 5.805907e+002
1.060012e+003, 5.839768e+002
1.060494e+003, 5.852365e+002
1.060976e+003, 5.833436e+002
1.061458e+003, 5.812808e+002
1.061940e+003, 5.795316e+002
1.062422e+003, 5.785477e+002
1.062904e+003, 5.782057e+002
1.063386e+003, 5.790247e+002
1.063869e+003, 5.824484e+002
1.064351e+003, 5.873418e+002
1.064833e+003, 5.903571e+002
1.065315e+003, 5.902797e+002
1.065797e+003, 5.913263e+002
1.066279e+003, 5.970708e+002
1.066761e+003, 6.020984e+002
1.067243e+003, 6.036233e+002
1.067726e+003, 6.029505e+002
1.068208e+003, 6.005358e+002
1.068690e+003, 5.973010e+002
1.069172e+003, 5.948734e+002
1.069654e+003, 5.937038e+002
1.070136e+003, 5.927394e+002
1.070618e+003, 5.908557e+002
1.071100e+003, 5.899041e+002
1.071583e+003, 5.924229e+002
1.072065e+003, 5.949859e+002
1.072547e+003, 5.937131e+002
1.073029e+003, 5.900908e+002
1.073511e+003, 5.878295e+002
1.073993e+003, 5.877565e+002
1.074475e+003, 5.874200e+002
1.074957e+003, 5.854347e+002
1.075439e+003, 5.833096e+002
1.075922e+003, 5.827380e+002
1.076404e+003, 5.815028e+002
1.076886e+003, 5.763596e+002
1.077368e+003, 5.695629e+002
1.077850e+003, 5.656838e+002
1.078332e+003, 5.653818e+002
1.078814e+003, 5.651243e+002
1.079296e+003, 5.637758e+002
1.079779e+003, 5.616098e+002
1.080261e+003, 5.572825e+002
1.080743e+003, 5.536269e+002
1.081225e+003, 5.541375e+002
1.081707e+003, 5.563810e+002
1.082189e+003, 5.559001e+002
1.082671e+003, 5.524756e+002
1.083153e+003, 5.503992e+002
1.083635e+003, 5.525311e+002
1.084118e+003, 5.540107e+002
1.084600e+003, 5.514001e+002
1.085082e+003, 5.486301e+002
1.085564e+003, 5.492247e+002
1.086046e+003, 5.510740e+002
1.086528e+003, 5.508138e+002
1.087010e+003, 5.485417e+002
1.087492e+003, 5.472025e+002
1.087974e+003, 5.482914e+002
1.088457e+003, 5.489686e+002
1.088939e+003, 5.475299e+002
1.089421e+003, 5.459003e+002
1.089903e+003, 5.454845e+002
1.090385e+003, 5.454038e+002
1.090867e+003, 5.444495e+002
1.091349e+003, 5.428014e+002
1.091831e+003, 5.414689e+002
1.092314e+003, 5.406675e+002
1.092796e+003, 5.404135e+002
1.093278e+003, 5.411918e+002
1.093760e+003, 5.419340e+002
1.094242e+003, 5.418726e+002
1.094724e+003, 5.416853e+002
1.095206e+003, 5.422950e+002
1.095688e+003, 5.432938e+002
1.096171e+003, 5.433734e+002
1.096653e+003, 5.420918e+002
1.097135e+003, 5.413791e+002
1.097617e+003, 5.428962e+002
1.098099e+003, 5.436530e+002
1.098581e+003, 5.412004e+002
1.099063e+003, 5.387377e+002
1.099545e+003, 5.396991e+002
1.100027e+003, 5.422107e+002
1.100510e+003, 5.421857e+002
1.100992e+003, 5.390094e+002
1.101474e+003, 5.367758e+002
1.101956e+003, 5.372967e+002
1.102438e+003, 5.376212e+002
1.102920e+003, 5.363840e+002
1.103402e+003, 5.353719e+002
1.103884e+003, 5.359045e+002
1.104366e+003, 5.372335e+002
1.104849e+003, 5.382032e+002
1.105331e+003, 5.387809e+002
1.105813e+003, 5.398412e+002
1.106295e+003, 5.436755e+002
1.106777e+003, 5.445720e+002
1.107259e+003, 5.381436e+002
1.107741e+003, 5.329411e+002
1.108223e+003, 5.344953e+002
1.108706e+003, 5.379331e+002
1.109188e+003, 5.373964e+002
1.109670e+003, 5.337668e+002
1.110152e+003, 5.327147e+002
1.110634e+003, 5.366022e+002
1.111116e+003, 5.384606e+002
1.111598e+003, 5.367899e+002
1.112080e+003, 5.345966e+002
1.112563e+003, 5.314720e+002
1.113045e+003, 5.293159e+002
1.113527e+003, 5.303796e+002
1.114009e+003, 5.333988e+002
1.114491e+003, 5.349791e+002
1.114973e+003, 5.348163e+002
1.115455e+003, 5.345310e+002
1.115937e+003, 5.338925e+002
1.116419e+003, 5.335809e+002
1.116901e+003, 5.343527e+002
1.117384e+003, 5.345266e+002
1.117866e+003, 5.324252e+002
1.118348e+003, 5.296648e+002
1.118830e+003, 5.291498e+002
1.119312e+003, 5.309565e+002
1.119794e+003, 5.318594e+002
1.120276e+003, 5.313095e+002
1.120758e+003, 5.313075e+002
1.121241e+003, 5.324528e+002
1.121723e+003, 5.332305e+002
1.122205e+003, 5.328773e+002
1.122687e+003, 5.319456e+002
1.123169e+003, 5.309310e+002
1.123651e+003, 5.299693e+002
1.124133e+003, 5.299365e+002
1.124615e+003, 5.310665e+002
1.125098e+003, 5.321960e+002
1.125580e+003, 5.335599e+002
1.126062e+003, 5.336042e+002
1.126544e+003, 5.314113e+002
1.127026e+003, 5.294913e+002
1.127508e+003, 5.303893e+002
1.127990e+003, 5.321790e+002
1.128472e+003, 5.292181e+002
1.128954e+003, 5.212682e+002
1.129437e+003, 5.181029e+002
1.129919e+003, 5.199691e+002
1.130401e+003, 5.229516e+002
1.130883e+003, 5.264034e+002
1.131365e+003, 5.289066e+002
1.131847e+003, 5.295236e+002
1.132329e+003, 5.293011e+002
1.132811e+003, 5.296447e+002
1.133293e+003, 5.305671e+002
1.133776e+003, 5.328308e+002
1.134258e+003, 5.360501e+002
1.134740e+003, 5.363110e+002
1.135222e+003, 5.333649e+002
1.135704e+003, 5.301024e+002
1.136186e+003, 5.277245e+002
1.136668e+003, 5.264956e+002
1.137150e+003, 5.268359e+002
1.137633e+003, 5.281068e+002
1.138115e+003, 5.292857e+002
1.138597e+003, 5.302729e+002
1.139079e+003, 5.307094e+002
1.139561e+003, 5.306708e+002
1.140043e+003, 5.303862e+002
1.140525e+003, 5.300070e+002
1.141007e+003, 5.300653e+002
1.141490e+003, 5.309510e+002
1.141972e+003, 5.320336e+002
1.142454e+003, 5.328240e+002
1.142936e+003, 5.331328e+002
1.143418e+003, 5.322883e+002
1.143900e+003, 5.308685e+002
1.144382e+003, 5.300308e+002
1.144864e+003, 5.298372e+002
1.145346e+003, 5.299147e+002
1.145828e+003, 5.300982e+002
1.146311e+003, 5.299124e+002
1.146793e+003, 5.283036e+002
1.147275e+003, 5.269482e+002
1.147757e+003, 5.275376e+002
1.148239e+003, 5.291437e+002
1.148721e+003, 5.314496e+002
1.149203e+003, 5.335783e+002
1.149685e+003, 5.336959e+002
1.150168e+003, 5.318087e+002
1.150650e+003, 5.306997e+002
1.151132e+003, 5.321571e+002
1.151614e+003, 5.332712e+002
1.152096e+003, 5.318872e+002
1.152578e+003, 5.303642e+002
1.153060e+003, 5.308973e+002
1.153542e+003, 5.317701e+002
1.154025e+003, 5.304235e+002
1.154507e+003, 5.275319e+002
1.154989e+003, 5.260317e+002
1.155471e+003, 5.268029e+002
1.155953e+003, 5.274712e+002
1.156435e+003, 5.275325e+002
1.156917e+003, 5.273431e+002
1.157399e+003, 5.265974e+002
1.157881e+003, 5.260764e+002
1.158364e+003, 5.267869e+002
1.158846e+003, 5.278525e+002
1.159328e+003, 5.273177e+002
1.159810e+003, 5.250660e+002
1.160292e+003, 5.250556e+002
1.160774e+003, 5.302734e+002
1.161256e+003, 5.322676e+002
1.161738e+003, 5.284332e+002
1.162220e+003, 5.250483e+002
1.162703e+003, 5.246144e+002
1.163185e+003, 5.252326e+002
1.163667e+003, 5.251697e+002
1.164149e+003, 5.246952e+002
1.164631e+003, 5.246911e+002
1.165113e+003, 5.251818e+002
1.165595e+003, 5.261319e+002
1.166077e+003, 5.278294e+002
1.166560e+003, 5.286494e+002
1.167042e+003, 5.281105e+002
1.167524e+003, 5.272267e+002
1.168006e+003, 5.264713e+002
1.168488e+003, 5.262122e+002
1.168970e+003, 5.271769e+002
1.169452e+003, 5.290123e+002
1.169934e+003, 5.299225e+002
1.170417e+003, 5.299464e+002
1.170899e+003, 5.296434e+002
1.171381e+003, 5.290640e+002
1.171863e+003, 5.277709e+002
1.172345e+003, 5.256913e+002
1.172827e+003, 5.249670e+002
1.173309e+003, 5.276485e+002
1.173791e+003, 5.312897e+002
1.174273e+003, 5.317645e+002
1.174755e+003, 5.301183e+002
1.175238e+003, 5.285145e+002
1.175720e+003, 5.270387e+002
1.176202e+003, 5.255482e+002
1.176684e+003, 5.241500e+002
1.177166e+003, 5.233241e+002
1.177648e+003, 5.232732e+002
1.178130e+003, 5.238810e+002
1.178612e+003, 5.260612e+002
1.179095e+003, 5.276613e+002
1.179577e+003, 5.251620e+002
1.180059e+003, 5.219246e+002
1.180541e+003, 5.228480e+002
1.181023e+003, 5.259808e+002
1.181505e+003, 5.267685e+002
1.181987e+003, 5.247457e+002
1.182469e+003, 5.229453e+002
1.182952e+003, 5.226118e+002
1.183434e+003, 5.224977e+002
1.183916e+003, 5.214907e+002
1.184398e+003, 5.212124e+002
1.184880e+003, 5.234444e+002
1.185362e+003, 5.260675e+002
1.185844e+003, 5.269276e+002
1.186326e+003, 5.265380e+002
1.186808e+003, 5.264484e+002
1.187291e+003, 5.268528e+002
1.187773e+003, 5.272183e+002
1.188255e+003, 5.279137e+002
1.188737e+003, 5.279142e+002
1.189219e+003, 5.270162e+002
1.189701e+003, 5.255138e+002
1.190183e+003, 5.227314e+002
1.190665e+003, 5.203831e+002
1.191147e+003, 5.206459e+002
1.191630e+003, 5.228151e+002
1.192112e+003, 5.238495e+002
1.192594e+003, 5.234762e+002
1.193076e+003, 5.233922e+002
1.193558e+003, 5.236990e+002
1.194040e+003, 5.237914e+002
1.194522e+003, 5.235427e+002
1.195004e+003, 5.230074e+002
1.195487e+003, 5.222152e+002
1.195969e+003, 5.210592e+002
1.196451e+003, 5.189203e+002
1.196933e+003, 5.167207e+002
1.197415e+003, 5.188715e+002
1.197897e+003, 5.243578e+002
1.198379e+003, 5.277415e+002
1.198861e+003, 5.285590e+002
1.199344e+003, 5.264073e+002
1.199826e+003, 5.216314e+002
1.200308e+003, 5.179874e+002
1.200790e+003, 5.180317e+002
1.201272e+003, 5.201882e+002
1.201754e+003, 5.239520e+002
1.202236e+003, 5.274989e+002
1.202718e+003, 5.276146e+002
1.203200e+003, 5.259907e+002
1.203682e+003, 5.258199e+002
1.204165e+003, 5.266525e+002
1.204647e+003, 5.257467e+002
1.205129e+003, 5.224997e+002
1.205611e+003, 5.199852e+002
1.206093e+003, 5.204011e+002
1.206575e+003, 5.209877e+002
1.207057e+003, 5.200751e+002
1.207539e+003, 5.191317e+002
1.208022e+003, 5.192604e+002
1.208504e+003, 5.198545e+002
1.208986e+003, 5.202439e+002
1.209468e+003, 5.203875e+002
1.209950e+003, 5.201882e+002
1.210432e+003, 5.191722e+002
1.210914e+003, 5.197712e+002
1.211396e+003, 5.246100e+002
1.211879e+003, 5.272174e+002
1.212361e+003, 5.257240e+002
1.212843e+003, 5.232957e+002
1.213325e+003, 5.209034e+002
1.213807e+003, 5.192161e+002
1.214289e+003, 5.191350e+002
1.214771e+003, 5.204019e+002
1.215253e+003, 5.220284e+002
1.215735e+003, 5.242004e+002
1.216218e+003, 5.246887e+002
1.216700e+003, 5.232975e+002
1.217182e+003, 5.223037e+002
1.217664e+003, 5.222598e+002
1.218146e+003, 5.216469e+002
1.218628e+003, 5.194251e+002
1.219110e+003, 5.179794e+002
1.219592e+003, 5.211329e+002
1.220074e+003, 5.264817e+002
1.220557e+003, 5.280077e+002
1.221039e+003, 5.271646e+002
1.221521e+003, 5.284530e+002
1.222003e+003, 5.309453e+002
1.222485e+003, 5.300682e+002
1.222967e+003, 5.253289e+002
1.223449e+003, 5.205641e+002
1.223931e+003, 5.176219e+002
1.224414e+003, 5.165343e+002
1.224896e+003, 5.184641e+002
1.225378e+003, 5.210106e+002
1.225860e+003, 5.227604e+002
1.226342e+003, 5.236386e+002
1.226824e+003, 5.229952e+002
1.227306e+003, 5.217396e+002
1.227788e+003, 5.221829e+002
1.228271e+003, 5.243447e+002
1.228753e+003, 5.239796e+002
1.229235e+003, 5.175875e+002
1.229717e+003, 5.133834e+002
1.230199e+003, 5.137819e+002
1.230681e+003, 5.147356e+002
1.231163e+003, 5.143054e+002
1.231645e+003, 5.149563e+002
1.232127e+003, 5.198434e+002
1.232609e+003, 5.257078e+002
1.233092e+003, 5.256535e+002
1.233574e+003, 5.198757e+002
1.234056e+003, 5.178873e+002
1.234538e+003, 5.202152e+002
1.235020e+003, 5.219569e+002
1.235502e+003, 5.226843e+002
1.235984e+003, 5.220217e+002
1.236466e+003, 5.197768e+002
1.236949e+003, 5.179273e+002
1.237431e+003, 5.180613e+002
1.237913e+003, 5.191940e+002
1.238395e+003, 5.196273e+002
1.238877e+003, 5.199201e+002
1.239359e+003, 5.226280e+002
1.239841e+003, 5.258428e+002
1.240323e+003, 5.239693e+002
1.240806e+003, 5.182714e+002
1.241288e+003, 5.144193e+002
1.241770e+003, 5.140190e+002
1.242252e+003, 5.150907e+002
1.242734e+003, 5.170892e+002
1.243216e+003, 5.187942e+002
1.243698e+003, 5.189914e+002
1.244180e+003, 5.191075e+002
1.244662e+003, 5.203487e+002
1.245145e+003, 5.218206e+002
1.245627e+003, 5.228036e+002
1.246109e+003, 5.231740e+002
1.246591e+003, 5.225604e+002
1.247073e+003, 5.208302e+002
1.247555e+003, 5.202459e+002
1.248037e+003, 5.224386e+002
1.248519e+003, 5.227723e+002
1.249001e+003, 5.195168e+002
1.249484e+003, 5.176420e+002
1.249966e+003, 5.191915e+002
1.250448e+003, 5.216583e+002
1.250930e+003, 5.233719e+002
1.251412e+003, 5.240168e+002
1.251894e+003, 5.225352e+002
1.252376e+003, 5.194540e+002
1.252858e+003, 5.194789e+002
1.253341e+003, 5.220392e+002
1.253823e+003, 5.213146e+002
1.254305e+003, 5.173968e+002
1.254787e+003, 5.158158e+002
1.255269e+003, 5.179648e+002
1.255751e+003, 5.194171e+002
1.256233e+003, 5.169810e+002
1.256715e+003, 5.144664e+002
1.257198e+003, 5.171262e+002
1.257680e+003, 5.207274e+002
1.258162e+003, 5.203802e+002
1.258644e+003, 5.181516e+002
1.259126e+003, 5.159598e+002
1.259608e+003, 5.145050e+002
1.260090e+003, 5.150510e+002
1.260572e+003, 5.174116e+002
1.261054e+003, 5.183405e+002
1.261536e+003, 5.161705e+002
1.262019e+003, 5.143071e+002
1.262501e+003, 5.129901e+002
1.262983e+003, 5.126503e+002
1.263465e+003, 5.140717e+002
1.263947e+003, 5.155978e+002
1.264429e+003, 5.158870e+002
1.264911e+003, 5.160838e+002
1.265393e+003, 5.181747e+002
1.265876e+003, 5.217042e+002
1.266358e+003, 5.235200e+002
1.266840e+003, 5.235199e+002
1.267322e+003, 5.234591e+002
1.267804e+003, 5.234255e+002
1.268286e+003, 5.238751e+002
1.268768e+003, 5.248455e+002
1.269250e+003, 5.247933e+002
1.269733e+003, 5.228536e+002
1.270215e+003, 5.206979e+002
1.270697e+003, 5.204538e+002
1.271179e+003, 5.205554e+002
1.271661e+003, 5.174662e+002
1.272143e+003, 5.142709e+002
1.272625e+003, 5.169563e+002
1.273107e+003, 5.221080e+002
1.273589e+003, 5.224104e+002
1.274072e+003, 5.184479e+002
1.274554e+003, 5.168702e+002
1.275036e+003, 5.198841e+002
1.275518e+003, 5.221518e+002
1.276000e+003, 5.211761e+002
1.276482e+003, 5.204277e+002
1.276964e+003, 5.217520e+002
1.277446e+003, 5.224144e+002
1.277929e+003, 5.202997e+002
1.278411e+003, 5.176887e+002
1.278893e+003, 5.165536e+002
1.279375e+003, 5.167765e+002
1.279857e+003, 5.181539e+002
1.280339e+003, 5.207120e+002
1.280821e+003, 5.236604e+002
1.281303e+003, 5.271244e+002
1.281786e+003, 5.275612e+002
1.282268e+003, 5.244595e+002
##END=



