##NAMES=Wendwilsonite
##RRUFFID=R180011
##IDEAL CHEMISTRY=Ca_2_Mg(As^5+^O_4_)_2_&#183;2H_2_O
##LOCALITY=Bou Azzer, Morrocco
##OWNER=RRUFF
##SOURCE=Wendell Wilson
##DESCRIPTION=Red vitreous crystals. Photo from Wendell Wilson
##STATUS=The identification of this mineral is confirmed by single-crystal X-ray diffraction and chemical analysis.
##URL=rruff.info/R180011
##MEASURED CHEMISTRY=Ca_2.00_(Mg_0.50_Co_0.42_Zn_0.03_Ni_0.03_)_Σ=0.98_(AsO_4_)_2_·2H_2_O
8.813672e+001, 1.206559e+003
8.861884e+001, 1.210201e+003
8.910095e+001, 1.222718e+003
8.958307e+001, 1.254720e+003
9.006519e+001, 1.291744e+003
9.054730e+001, 1.317125e+003
9.102942e+001, 1.331900e+003
9.151154e+001, 1.341270e+003
9.199365e+001, 1.349345e+003
9.247577e+001, 1.356095e+003
9.295789e+001, 1.360702e+003
9.344000e+001, 1.360153e+003
9.392212e+001, 1.356743e+003
9.440424e+001, 1.358424e+003
9.488635e+001, 1.367397e+003
9.536847e+001, 1.379876e+003
9.585059e+001, 1.389945e+003
9.633270e+001, 1.397694e+003
9.681482e+001, 1.406315e+003
9.729694e+001, 1.417664e+003
9.777905e+001, 1.431589e+003
9.826117e+001, 1.445798e+003
9.874329e+001, 1.459970e+003
9.922540e+001, 1.474183e+003
9.970752e+001, 1.489221e+003
1.001896e+002, 1.505196e+003
1.006718e+002, 1.520659e+003
1.011539e+002, 1.533712e+003
1.016360e+002, 1.543281e+003
1.021181e+002, 1.555802e+003
1.026002e+002, 1.572264e+003
1.030823e+002, 1.592303e+003
1.035645e+002, 1.613705e+003
1.040466e+002, 1.637805e+003
1.045287e+002, 1.661867e+003
1.050108e+002, 1.684228e+003
1.054929e+002, 1.705562e+003
1.059750e+002, 1.724128e+003
1.064572e+002, 1.739367e+003
1.069393e+002, 1.751207e+003
1.074214e+002, 1.762054e+003
1.079035e+002, 1.770683e+003
1.083856e+002, 1.779229e+003
1.088677e+002, 1.789844e+003
1.093499e+002, 1.804056e+003
1.098320e+002, 1.819225e+003
1.103141e+002, 1.834552e+003
1.107962e+002, 1.849572e+003
1.112783e+002, 1.867082e+003
1.117604e+002, 1.888470e+003
1.122426e+002, 1.912464e+003
1.127247e+002, 1.936725e+003
1.132068e+002, 1.961337e+003
1.136889e+002, 1.985884e+003
1.141710e+002, 2.009760e+003
1.146531e+002, 2.031893e+003
1.151353e+002, 2.055272e+003
1.156174e+002, 2.082314e+003
1.160995e+002, 2.111556e+003
1.165816e+002, 2.139607e+003
1.170637e+002, 2.165121e+003
1.175458e+002, 2.188905e+003
1.180280e+002, 2.211610e+003
1.185101e+002, 2.232049e+003
1.189922e+002, 2.252918e+003
1.194743e+002, 2.274689e+003
1.199564e+002, 2.297686e+003
1.204385e+002, 2.322989e+003
1.209207e+002, 2.349371e+003
1.214028e+002, 2.379011e+003
1.218849e+002, 2.414314e+003
1.223670e+002, 2.459102e+003
1.228491e+002, 2.508334e+003
1.233312e+002, 2.560885e+003
1.238134e+002, 2.616377e+003
1.242955e+002, 2.664970e+003
1.247776e+002, 2.704096e+003
1.252597e+002, 2.730344e+003
1.257418e+002, 2.737175e+003
1.262239e+002, 2.708649e+003
1.267061e+002, 2.661901e+003
1.271882e+002, 2.623324e+003
1.276703e+002, 2.592602e+003
1.281524e+002, 2.570430e+003
1.286345e+002, 2.559866e+003
1.291166e+002, 2.559594e+003
1.295988e+002, 2.563388e+003
1.300809e+002, 2.569180e+003
1.305630e+002, 2.576933e+003
1.310451e+002, 2.586873e+003
1.315272e+002, 2.599378e+003
1.320093e+002, 2.612884e+003
1.324915e+002, 2.624799e+003
1.329736e+002, 2.635125e+003
1.334557e+002, 2.646461e+003
1.339378e+002, 2.659980e+003
1.344199e+002, 2.675644e+003
1.349020e+002, 2.692974e+003
1.353842e+002, 2.712608e+003
1.358663e+002, 2.732808e+003
1.363484e+002, 2.750625e+003
1.368305e+002, 2.765562e+003
1.373126e+002, 2.779650e+003
1.377947e+002, 2.793983e+003
1.382769e+002, 2.808701e+003
1.387590e+002, 2.822509e+003
1.392411e+002, 2.835054e+003
1.397232e+002, 2.846569e+003
1.402053e+002, 2.857437e+003
1.406874e+002, 2.868155e+003
1.411696e+002, 2.877658e+003
1.416517e+002, 2.885331e+003
1.421338e+002, 2.891654e+003
1.426159e+002, 2.895415e+003
1.430980e+002, 2.896416e+003
1.435801e+002, 2.894864e+003
1.440623e+002, 2.891554e+003
1.445444e+002, 2.884271e+003
1.450265e+002, 2.877965e+003
1.455086e+002, 2.877100e+003
1.459907e+002, 2.886541e+003
1.464728e+002, 2.893800e+003
1.469550e+002, 2.896062e+003
1.474371e+002, 2.892844e+003
1.479192e+002, 2.892747e+003
1.484013e+002, 2.897899e+003
1.488834e+002, 2.904870e+003
1.493655e+002, 2.910561e+003
1.498477e+002, 2.913641e+003
1.503298e+002, 2.916700e+003
1.508119e+002, 2.919960e+003
1.512940e+002, 2.923288e+003
1.517761e+002, 2.927250e+003
1.522583e+002, 2.932860e+003
1.527404e+002, 2.938646e+003
1.532225e+002, 2.943115e+003
1.537046e+002, 2.942091e+003
1.541867e+002, 2.943487e+003
1.546688e+002, 2.951005e+003
1.551510e+002, 2.967584e+003
1.556331e+002, 2.979613e+003
1.561152e+002, 2.980677e+003
1.565973e+002, 2.976979e+003
1.570794e+002, 2.976796e+003
1.575615e+002, 2.984133e+003
1.580437e+002, 2.993528e+003
1.585258e+002, 3.003059e+003
1.590079e+002, 3.012617e+003
1.594900e+002, 3.022052e+003
1.599721e+002, 3.032778e+003
1.604542e+002, 3.043238e+003
1.609364e+002, 3.050696e+003
1.614185e+002, 3.051791e+003
1.619006e+002, 3.051214e+003
1.623827e+002, 3.051793e+003
1.628648e+002, 3.054904e+003
1.633469e+002, 3.056843e+003
1.638291e+002, 3.055245e+003
1.643112e+002, 3.051145e+003
1.647933e+002, 3.046964e+003
1.652754e+002, 3.043779e+003
1.657575e+002, 3.040954e+003
1.662396e+002, 3.037922e+003
1.667218e+002, 3.034215e+003
1.672039e+002, 3.031042e+003
1.676860e+002, 3.027983e+003
1.681681e+002, 3.025834e+003
1.686502e+002, 3.026951e+003
1.691323e+002, 3.034234e+003
1.696145e+002, 3.044802e+003
1.700966e+002, 3.055959e+003
1.705787e+002, 3.067626e+003
1.710608e+002, 3.078895e+003
1.715429e+002, 3.088304e+003
1.720250e+002, 3.096384e+003
1.725072e+002, 3.105167e+003
1.729893e+002, 3.115706e+003
1.734714e+002, 3.127886e+003
1.739535e+002, 3.141840e+003
1.744356e+002, 3.158964e+003
1.749177e+002, 3.176144e+003
1.753999e+002, 3.189663e+003
1.758820e+002, 3.200000e+003
1.763641e+002, 3.210142e+003
1.768462e+002, 3.222801e+003
1.773283e+002, 3.236992e+003
1.778104e+002, 3.250943e+003
1.782926e+002, 3.264129e+003
1.787747e+002, 3.276734e+003
1.792568e+002, 3.288972e+003
1.797389e+002, 3.300776e+003
1.802210e+002, 3.312298e+003
1.807031e+002, 3.321722e+003
1.811853e+002, 3.330607e+003
1.816674e+002, 3.343333e+003
1.821495e+002, 3.364099e+003
1.826316e+002, 3.387719e+003
1.831137e+002, 3.402342e+003
1.835958e+002, 3.407918e+003
1.840780e+002, 3.412709e+003
1.845601e+002, 3.427048e+003
1.850422e+002, 3.448012e+003
1.855243e+002, 3.464057e+003
1.860064e+002, 3.467940e+003
1.864885e+002, 3.465412e+003
1.869707e+002, 3.472850e+003
1.874528e+002, 3.491186e+003
1.879349e+002, 3.510757e+003
1.884170e+002, 3.521662e+003
1.888991e+002, 3.524662e+003
1.893812e+002, 3.525706e+003
1.898634e+002, 3.527588e+003
1.903455e+002, 3.529007e+003
1.908276e+002, 3.525022e+003
1.913097e+002, 3.515407e+003
1.917918e+002, 3.501437e+003
1.922739e+002, 3.483656e+003
1.927561e+002, 3.461844e+003
1.932382e+002, 3.438821e+003
1.937203e+002, 3.413679e+003
1.942024e+002, 3.387548e+003
1.946845e+002, 3.367623e+003
1.951666e+002, 3.355239e+003
1.956488e+002, 3.344516e+003
1.961309e+002, 3.327524e+003
1.966130e+002, 3.303510e+003
1.970951e+002, 3.281188e+003
1.975772e+002, 3.262895e+003
1.980593e+002, 3.248559e+003
1.985415e+002, 3.237928e+003
1.990236e+002, 3.231784e+003
1.995057e+002, 3.227554e+003
1.999878e+002, 3.221730e+003
2.004699e+002, 3.213991e+003
2.009520e+002, 3.207982e+003
2.014342e+002, 3.206134e+003
2.019163e+002, 3.208334e+003
2.023984e+002, 3.206664e+003
2.028805e+002, 3.199830e+003
2.033626e+002, 3.191953e+003
2.038447e+002, 3.189365e+003
2.043269e+002, 3.193456e+003
2.048090e+002, 3.196101e+003
2.052911e+002, 3.193792e+003
2.057732e+002, 3.186313e+003
2.062553e+002, 3.181577e+003
2.067374e+002, 3.180206e+003
2.072196e+002, 3.180385e+003
2.077017e+002, 3.179676e+003
2.081838e+002, 3.177796e+003
2.086659e+002, 3.175641e+003
2.091480e+002, 3.173525e+003
2.096301e+002, 3.171415e+003
2.101123e+002, 3.168797e+003
2.105944e+002, 3.165824e+003
2.110765e+002, 3.162017e+003
2.115586e+002, 3.156463e+003
2.120407e+002, 3.148535e+003
2.125228e+002, 3.140503e+003
2.130050e+002, 3.132999e+003
2.134871e+002, 3.126031e+003
2.139692e+002, 3.119897e+003
2.144513e+002, 3.115278e+003
2.149334e+002, 3.110740e+003
2.154155e+002, 3.103537e+003
2.158977e+002, 3.091676e+003
2.163798e+002, 3.082134e+003
2.168619e+002, 3.078221e+003
2.173440e+002, 3.081142e+003
2.178261e+002, 3.079474e+003
2.183082e+002, 3.070379e+003
2.187904e+002, 3.059646e+003
2.192725e+002, 3.056009e+003
2.197546e+002, 3.062782e+003
2.202367e+002, 3.069580e+003
2.207188e+002, 3.073256e+003
2.212009e+002, 3.073355e+003
2.216831e+002, 3.074140e+003
2.221652e+002, 3.076241e+003
2.226473e+002, 3.078527e+003
2.231294e+002, 3.079100e+003
2.236115e+002, 3.076514e+003
2.240936e+002, 3.075198e+003
2.245758e+002, 3.076616e+003
2.250579e+002, 3.081190e+003
2.255400e+002, 3.085564e+003
2.260221e+002, 3.089757e+003
2.265042e+002, 3.093728e+003
2.269863e+002, 3.097610e+003
2.274685e+002, 3.102583e+003
2.279506e+002, 3.105067e+003
2.284327e+002, 3.102644e+003
2.289148e+002, 3.093801e+003
2.293969e+002, 3.091576e+003
2.298790e+002, 3.099521e+003
2.303612e+002, 3.110927e+003
2.308433e+002, 3.117339e+003
2.313254e+002, 3.115681e+003
2.318075e+002, 3.114597e+003
2.322896e+002, 3.116378e+003
2.327717e+002, 3.121360e+003
2.332539e+002, 3.125938e+003
2.337360e+002, 3.130887e+003
2.342181e+002, 3.134666e+003
2.347002e+002, 3.134719e+003
2.351823e+002, 3.126460e+003
2.356644e+002, 3.123089e+003
2.361466e+002, 3.129726e+003
2.366287e+002, 3.147778e+003
2.371108e+002, 3.158648e+003
2.375929e+002, 3.159057e+003
2.380750e+002, 3.155262e+003
2.385571e+002, 3.153620e+003
2.390393e+002, 3.155015e+003
2.395214e+002, 3.157156e+003
2.400035e+002, 3.160223e+003
2.404856e+002, 3.164430e+003
2.409677e+002, 3.165766e+003
2.414498e+002, 3.161373e+003
2.419320e+002, 3.156794e+003
2.424141e+002, 3.157830e+003
2.428962e+002, 3.168608e+003
2.433783e+002, 3.176961e+003
2.438604e+002, 3.180016e+003
2.443425e+002, 3.177708e+003
2.448247e+002, 3.176543e+003
2.453068e+002, 3.178764e+003
2.457889e+002, 3.179564e+003
2.462710e+002, 3.173968e+003
2.467531e+002, 3.156694e+003
2.472352e+002, 3.143499e+003
2.477174e+002, 3.138051e+003
2.481995e+002, 3.139915e+003
2.486816e+002, 3.139525e+003
2.491637e+002, 3.136117e+003
2.496458e+002, 3.131521e+003
2.501279e+002, 3.127208e+003
2.506101e+002, 3.123335e+003
2.510922e+002, 3.119699e+003
2.515743e+002, 3.116634e+003
2.520564e+002, 3.114036e+003
2.525385e+002, 3.110500e+003
2.530206e+002, 3.105023e+003
2.535028e+002, 3.099992e+003
2.539849e+002, 3.097079e+003
2.544670e+002, 3.096360e+003
2.549491e+002, 3.097424e+003
2.554312e+002, 3.101001e+003
2.559133e+002, 3.106320e+003
2.563955e+002, 3.109668e+003
2.568776e+002, 3.110266e+003
2.573597e+002, 3.109783e+003
2.578418e+002, 3.108691e+003
2.583239e+002, 3.105464e+003
2.588061e+002, 3.105685e+003
2.592882e+002, 3.111110e+003
2.597703e+002, 3.120066e+003
2.602524e+002, 3.126220e+003
2.607345e+002, 3.129142e+003
2.612166e+002, 3.130281e+003
2.616988e+002, 3.130188e+003
2.621809e+002, 3.128409e+003
2.626630e+002, 3.127312e+003
2.631451e+002, 3.127448e+003
2.636272e+002, 3.128291e+003
2.641093e+002, 3.128134e+003
2.645915e+002, 3.126432e+003
2.650736e+002, 3.125189e+003
2.655557e+002, 3.125292e+003
2.660378e+002, 3.126789e+003
2.665199e+002, 3.129929e+003
2.670020e+002, 3.135601e+003
2.674842e+002, 3.142229e+003
2.679663e+002, 3.145641e+003
2.684484e+002, 3.144104e+003
2.689305e+002, 3.144284e+003
2.694126e+002, 3.150132e+003
2.698947e+002, 3.163361e+003
2.703769e+002, 3.171914e+003
2.708590e+002, 3.174561e+003
2.713411e+002, 3.174043e+003
2.718232e+002, 3.174422e+003
2.723053e+002, 3.175447e+003
2.727874e+002, 3.178008e+003
2.732696e+002, 3.182711e+003
2.737517e+002, 3.189624e+003
2.742338e+002, 3.196564e+003
2.747159e+002, 3.203414e+003
2.751980e+002, 3.210457e+003
2.756801e+002, 3.218624e+003
2.761623e+002, 3.228467e+003
2.766444e+002, 3.236167e+003
2.771265e+002, 3.239896e+003
2.776086e+002, 3.240035e+003
2.780907e+002, 3.241197e+003
2.785728e+002, 3.243354e+003
2.790550e+002, 3.246845e+003
2.795371e+002, 3.252988e+003
2.800192e+002, 3.262169e+003
2.805013e+002, 3.269493e+003
2.809834e+002, 3.273235e+003
2.814655e+002, 3.274116e+003
2.819477e+002, 3.275309e+003
2.824298e+002, 3.276615e+003
2.829119e+002, 3.279150e+003
2.833940e+002, 3.284843e+003
2.838761e+002, 3.293603e+003
2.843582e+002, 3.301138e+003
2.848404e+002, 3.307218e+003
2.853225e+002, 3.310988e+003
2.858046e+002, 3.308264e+003
2.862867e+002, 3.298434e+003
2.867688e+002, 3.288591e+003
2.872509e+002, 3.285123e+003
2.877331e+002, 3.287288e+003
2.882152e+002, 3.288351e+003
2.886973e+002, 3.286548e+003
2.891794e+002, 3.283893e+003
2.896615e+002, 3.285048e+003
2.901436e+002, 3.289992e+003
2.906258e+002, 3.295704e+003
2.911079e+002, 3.300768e+003
2.915900e+002, 3.305104e+003
2.920721e+002, 3.308022e+003
2.925542e+002, 3.309027e+003
2.930363e+002, 3.309593e+003
2.935185e+002, 3.311370e+003
2.940006e+002, 3.314492e+003
2.944827e+002, 3.319694e+003
2.949648e+002, 3.328410e+003
2.954469e+002, 3.339602e+003
2.959290e+002, 3.350915e+003
2.964112e+002, 3.362605e+003
2.968933e+002, 3.372750e+003
2.973754e+002, 3.376057e+003
2.978575e+002, 3.374818e+003
2.983396e+002, 3.377681e+003
2.988217e+002, 3.391680e+003
2.993039e+002, 3.411743e+003
2.997860e+002, 3.429197e+003
3.002681e+002, 3.443884e+003
3.007502e+002, 3.456340e+003
3.012323e+002, 3.466396e+003
3.017144e+002, 3.474572e+003
3.021966e+002, 3.481665e+003
3.026787e+002, 3.487582e+003
3.031608e+002, 3.492986e+003
3.036429e+002, 3.499825e+003
3.041250e+002, 3.507865e+003
3.046071e+002, 3.513563e+003
3.050893e+002, 3.513447e+003
3.055714e+002, 3.509205e+003
3.060535e+002, 3.503418e+003
3.065356e+002, 3.495689e+003
3.070177e+002, 3.487928e+003
3.074998e+002, 3.481975e+003
3.079820e+002, 3.477607e+003
3.084641e+002, 3.473959e+003
3.089462e+002, 3.470556e+003
3.094283e+002, 3.467529e+003
3.099104e+002, 3.465043e+003
3.103925e+002, 3.463126e+003
3.108747e+002, 3.461833e+003
3.113568e+002, 3.462702e+003
3.118389e+002, 3.464507e+003
3.123210e+002, 3.463805e+003
3.128031e+002, 3.454668e+003
3.132852e+002, 3.444917e+003
3.137674e+002, 3.440960e+003
3.142495e+002, 3.445212e+003
3.147316e+002, 3.451116e+003
3.152137e+002, 3.455873e+003
3.156958e+002, 3.460064e+003
3.161779e+002, 3.464670e+003
3.166601e+002, 3.471282e+003
3.171422e+002, 3.477462e+003
3.176243e+002, 3.480535e+003
3.181064e+002, 3.479208e+003
3.185885e+002, 3.481999e+003
3.190706e+002, 3.494920e+003
3.195528e+002, 3.512470e+003
3.200349e+002, 3.528394e+003
3.205170e+002, 3.539586e+003
3.209991e+002, 3.550324e+003
3.214812e+002, 3.561335e+003
3.219633e+002, 3.572710e+003
3.224455e+002, 3.585968e+003
3.229276e+002, 3.602245e+003
3.234097e+002, 3.620131e+003
3.238918e+002, 3.638569e+003
3.243739e+002, 3.656042e+003
3.248560e+002, 3.675518e+003
3.253382e+002, 3.698539e+003
3.258203e+002, 3.724570e+003
3.263024e+002, 3.749276e+003
3.267845e+002, 3.769318e+003
3.272666e+002, 3.790334e+003
3.277487e+002, 3.815300e+003
3.282309e+002, 3.851341e+003
3.287130e+002, 3.881122e+003
3.291951e+002, 3.899242e+003
3.296772e+002, 3.911244e+003
3.301593e+002, 3.931200e+003
3.306414e+002, 3.962977e+003
3.311236e+002, 3.998035e+003
3.316057e+002, 4.034011e+003
3.320878e+002, 4.071173e+003
3.325699e+002, 4.108769e+003
3.330520e+002, 4.147009e+003
3.335341e+002, 4.185256e+003
3.340163e+002, 4.222735e+003
3.344984e+002, 4.260156e+003
3.349805e+002, 4.295023e+003
3.354626e+002, 4.327432e+003
3.359447e+002, 4.357637e+003
3.364268e+002, 4.382302e+003
3.369090e+002, 4.400428e+003
3.373911e+002, 4.415002e+003
3.378732e+002, 4.429782e+003
3.383553e+002, 4.446587e+003
3.388374e+002, 4.456014e+003
3.393195e+002, 4.456041e+003
3.398017e+002, 4.447422e+003
3.402838e+002, 4.432368e+003
3.407659e+002, 4.409281e+003
3.412480e+002, 4.384838e+003
3.417301e+002, 4.364082e+003
3.422122e+002, 4.347283e+003
3.426944e+002, 4.326868e+003
3.431765e+002, 4.300446e+003
3.436586e+002, 4.272384e+003
3.441407e+002, 4.252607e+003
3.446228e+002, 4.241305e+003
3.451049e+002, 4.232933e+003
3.455871e+002, 4.222947e+003
3.460692e+002, 4.212810e+003
3.465513e+002, 4.212255e+003
3.470334e+002, 4.222716e+003
3.475155e+002, 4.237874e+003
3.479977e+002, 4.250279e+003
3.484798e+002, 4.260495e+003
3.489619e+002, 4.270538e+003
3.494440e+002, 4.279558e+003
3.499261e+002, 4.289543e+003
3.504082e+002, 4.305190e+003
3.508904e+002, 4.326453e+003
3.513725e+002, 4.349505e+003
3.518546e+002, 4.372936e+003
3.523367e+002, 4.395693e+003
3.528188e+002, 4.415845e+003
3.533009e+002, 4.432522e+003
3.537831e+002, 4.446591e+003
3.542652e+002, 4.459684e+003
3.547473e+002, 4.471276e+003
3.552294e+002, 4.479072e+003
3.557115e+002, 4.480904e+003
3.561936e+002, 4.478566e+003
3.566758e+002, 4.474602e+003
3.571579e+002, 4.470636e+003
3.576400e+002, 4.461981e+003
3.581221e+002, 4.441329e+003
3.586042e+002, 4.413968e+003
3.590863e+002, 4.389906e+003
3.595685e+002, 4.382733e+003
3.600506e+002, 4.373625e+003
3.605327e+002, 4.348341e+003
3.610148e+002, 4.303985e+003
3.614969e+002, 4.260717e+003
3.619790e+002, 4.226992e+003
3.624612e+002, 4.198737e+003
3.629433e+002, 4.171116e+003
3.634254e+002, 4.144313e+003
3.639075e+002, 4.116338e+003
3.643896e+002, 4.084553e+003
3.648717e+002, 4.049542e+003
3.653539e+002, 4.018769e+003
3.658360e+002, 3.996317e+003
3.663181e+002, 3.976795e+003
3.668002e+002, 3.956481e+003
3.672823e+002, 3.931992e+003
3.677644e+002, 3.910434e+003
3.682466e+002, 3.893620e+003
3.687287e+002, 3.880100e+003
3.692108e+002, 3.865974e+003
3.696929e+002, 3.848404e+003
3.701750e+002, 3.833131e+003
3.706571e+002, 3.823365e+003
3.711393e+002, 3.822507e+003
3.716214e+002, 3.815348e+003
3.721035e+002, 3.798161e+003
3.725856e+002, 3.777433e+003
3.730677e+002, 3.761648e+003
3.735498e+002, 3.752027e+003
3.740320e+002, 3.744772e+003
3.745141e+002, 3.740090e+003
3.749962e+002, 3.737736e+003
3.754783e+002, 3.732648e+003
3.759604e+002, 3.724040e+003
3.764425e+002, 3.714698e+003
3.769247e+002, 3.706798e+003
3.774068e+002, 3.700548e+003
3.778889e+002, 3.694936e+003
3.783710e+002, 3.690164e+003
3.788531e+002, 3.685720e+003
3.793352e+002, 3.680052e+003
3.798174e+002, 3.673081e+003
3.802995e+002, 3.666102e+003
3.807816e+002, 3.659807e+003
3.812637e+002, 3.654061e+003
3.817458e+002, 3.648461e+003
3.822279e+002, 3.642691e+003
3.827101e+002, 3.637667e+003
3.831922e+002, 3.634912e+003
3.836743e+002, 3.633938e+003
3.841564e+002, 3.632707e+003
3.846385e+002, 3.629648e+003
3.851206e+002, 3.626148e+003
3.856028e+002, 3.624881e+003
3.860849e+002, 3.625776e+003
3.865670e+002, 3.627385e+003
3.870491e+002, 3.630372e+003
3.875312e+002, 3.632995e+003
3.880133e+002, 3.631922e+003
3.884955e+002, 3.624514e+003
3.889776e+002, 3.616636e+003
3.894597e+002, 3.612827e+003
3.899418e+002, 3.612756e+003
3.904239e+002, 3.615403e+003
3.909060e+002, 3.623944e+003
3.913882e+002, 3.632655e+003
3.918703e+002, 3.636073e+003
3.923524e+002, 3.632427e+003
3.928345e+002, 3.630088e+003
3.933166e+002, 3.634352e+003
3.937987e+002, 3.641887e+003
3.942809e+002, 3.648410e+003
3.947630e+002, 3.651751e+003
3.952451e+002, 3.654749e+003
3.957272e+002, 3.658559e+003
3.962093e+002, 3.663098e+003
3.966914e+002, 3.666913e+003
3.971736e+002, 3.668863e+003
3.976557e+002, 3.670513e+003
3.981378e+002, 3.672813e+003
3.986199e+002, 3.674843e+003
3.991020e+002, 3.678761e+003
3.995841e+002, 3.686235e+003
4.000663e+002, 3.695542e+003
4.005484e+002, 3.702412e+003
4.010305e+002, 3.704002e+003
4.015126e+002, 3.706741e+003
4.019947e+002, 3.713407e+003
4.024768e+002, 3.725196e+003
4.029590e+002, 3.734229e+003
4.034411e+002, 3.740339e+003
4.039232e+002, 3.743918e+003
4.044053e+002, 3.745350e+003
4.048874e+002, 3.744590e+003
4.053695e+002, 3.741649e+003
4.058517e+002, 3.735315e+003
4.063338e+002, 3.727067e+003
4.068159e+002, 3.723595e+003
4.072980e+002, 3.725657e+003
4.077801e+002, 3.728976e+003
4.082622e+002, 3.730596e+003
4.087444e+002, 3.730671e+003
4.092265e+002, 3.731115e+003
4.097086e+002, 3.732021e+003
4.101907e+002, 3.733496e+003
4.106728e+002, 3.735133e+003
4.111549e+002, 3.737150e+003
4.116371e+002, 3.741191e+003
4.121192e+002, 3.749929e+003
4.126013e+002, 3.760613e+003
4.130834e+002, 3.767012e+003
4.135655e+002, 3.769057e+003
4.140476e+002, 3.770905e+003
4.145298e+002, 3.777254e+003
4.150119e+002, 3.785458e+003
4.154940e+002, 3.791159e+003
4.159761e+002, 3.792158e+003
4.164582e+002, 3.791775e+003
4.169403e+002, 3.791116e+003
4.174225e+002, 3.791090e+003
4.179046e+002, 3.794316e+003
4.183867e+002, 3.807675e+003
4.188688e+002, 3.821060e+003
4.193509e+002, 3.826363e+003
4.198330e+002, 3.821253e+003
4.203152e+002, 3.816196e+003
4.207973e+002, 3.815524e+003
4.212794e+002, 3.817056e+003
4.217615e+002, 3.818246e+003
4.222436e+002, 3.816351e+003
4.227257e+002, 3.816321e+003
4.232079e+002, 3.819822e+003
4.236900e+002, 3.826656e+003
4.241721e+002, 3.833984e+003
4.246542e+002, 3.844311e+003
4.251363e+002, 3.852902e+003
4.256184e+002, 3.857328e+003
4.261006e+002, 3.854568e+003
4.265827e+002, 3.852980e+003
4.270648e+002, 3.853732e+003
4.275469e+002, 3.855000e+003
4.280290e+002, 3.853132e+003
4.285111e+002, 3.846167e+003
4.289933e+002, 3.840325e+003
4.294754e+002, 3.837031e+003
4.299575e+002, 3.836307e+003
4.304396e+002, 3.840406e+003
4.309217e+002, 3.851283e+003
4.314038e+002, 3.861303e+003
4.318860e+002, 3.860770e+003
4.323681e+002, 3.849532e+003
4.328502e+002, 3.846484e+003
4.333323e+002, 3.856563e+003
4.338144e+002, 3.873047e+003
4.342965e+002, 3.882411e+003
4.347787e+002, 3.885206e+003
4.352608e+002, 3.888417e+003
4.357429e+002, 3.897244e+003
4.362250e+002, 3.909023e+003
4.367071e+002, 3.917229e+003
4.371892e+002, 3.921409e+003
4.376714e+002, 3.925340e+003
4.381535e+002, 3.930258e+003
4.386356e+002, 3.937689e+003
4.391177e+002, 3.950833e+003
4.395998e+002, 3.975909e+003
4.400819e+002, 4.001057e+003
4.405641e+002, 4.014309e+003
4.410462e+002, 4.018884e+003
4.415283e+002, 4.026312e+003
4.420104e+002, 4.042033e+003
4.424925e+002, 4.062936e+003
4.429746e+002, 4.087617e+003
4.434568e+002, 4.117136e+003
4.439389e+002, 4.145937e+003
4.444210e+002, 4.170970e+003
4.449031e+002, 4.194673e+003
4.453852e+002, 4.220053e+003
4.458673e+002, 4.248048e+003
4.463495e+002, 4.276786e+003
4.468316e+002, 4.307028e+003
4.473137e+002, 4.338421e+003
4.477958e+002, 4.366918e+003
4.482779e+002, 4.391524e+003
4.487600e+002, 4.413825e+003
4.492422e+002, 4.435113e+003
4.497243e+002, 4.458458e+003
4.502064e+002, 4.473505e+003
4.506885e+002, 4.479034e+003
4.511706e+002, 4.477951e+003
4.516527e+002, 4.475966e+003
4.521349e+002, 4.474974e+003
4.526170e+002, 4.465468e+003
4.530991e+002, 4.442892e+003
4.535812e+002, 4.409245e+003
4.540633e+002, 4.377937e+003
4.545454e+002, 4.349030e+003
4.550276e+002, 4.319880e+003
4.555097e+002, 4.288076e+003
4.559918e+002, 4.254015e+003
4.564739e+002, 4.220327e+003
4.569560e+002, 4.185871e+003
4.574381e+002, 4.154947e+003
4.579203e+002, 4.135724e+003
4.584024e+002, 4.125236e+003
4.588845e+002, 4.113856e+003
4.593666e+002, 4.095028e+003
4.598488e+002, 4.073926e+003
4.603309e+002, 4.055722e+003
4.608130e+002, 4.040561e+003
4.612951e+002, 4.028521e+003
4.617772e+002, 4.020770e+003
4.622593e+002, 4.015900e+003
4.627415e+002, 4.013032e+003
4.632236e+002, 4.013397e+003
4.637057e+002, 4.013212e+003
4.641878e+002, 4.010363e+003
4.646699e+002, 4.006075e+003
4.651520e+002, 4.002614e+003
4.656342e+002, 3.999164e+003
4.661163e+002, 3.998164e+003
4.665984e+002, 4.001389e+003
4.670805e+002, 4.009573e+003
4.675626e+002, 4.016123e+003
4.680447e+002, 4.020107e+003
4.685269e+002, 4.023005e+003
4.690090e+002, 4.025576e+003
4.694911e+002, 4.026367e+003
4.699732e+002, 4.029975e+003
4.704553e+002, 4.038130e+003
4.709374e+002, 4.048313e+003
4.714196e+002, 4.055129e+003
4.719017e+002, 4.058253e+003
4.723838e+002, 4.058847e+003
4.728659e+002, 4.056068e+003
4.733480e+002, 4.050523e+003
4.738301e+002, 4.049677e+003
4.743123e+002, 4.054224e+003
4.747944e+002, 4.058975e+003
4.752765e+002, 4.059020e+003
4.757586e+002, 4.055118e+003
4.762407e+002, 4.050328e+003
4.767228e+002, 4.045213e+003
4.772050e+002, 4.039544e+003
4.776871e+002, 4.031140e+003
4.781692e+002, 4.021530e+003
4.786513e+002, 4.015727e+003
4.791334e+002, 4.021349e+003
4.796155e+002, 4.028879e+003
4.800977e+002, 4.027649e+003
4.805798e+002, 4.017430e+003
4.810619e+002, 4.008012e+003
4.815440e+002, 4.006445e+003
4.820261e+002, 4.007634e+003
4.825082e+002, 4.006910e+003
4.829904e+002, 4.001552e+003
4.834725e+002, 3.996698e+003
4.839546e+002, 3.995192e+003
4.844367e+002, 3.995137e+003
4.849188e+002, 3.992521e+003
4.854009e+002, 3.984922e+003
4.858831e+002, 3.976579e+003
4.863652e+002, 3.967438e+003
4.868473e+002, 3.957237e+003
4.873294e+002, 3.952414e+003
4.878115e+002, 3.957498e+003
4.882936e+002, 3.962670e+003
4.887758e+002, 3.959683e+003
4.892579e+002, 3.944609e+003
4.897400e+002, 3.935328e+003
4.902221e+002, 3.934051e+003
4.907042e+002, 3.938010e+003
4.911863e+002, 3.943429e+003
4.916685e+002, 3.950605e+003
4.921506e+002, 3.954342e+003
4.926327e+002, 3.951358e+003
4.931148e+002, 3.943417e+003
4.935969e+002, 3.935598e+003
4.940790e+002, 3.927792e+003
4.945612e+002, 3.922679e+003
4.950433e+002, 3.924363e+003
4.955254e+002, 3.929848e+003
4.960075e+002, 3.933345e+003
4.964896e+002, 3.933344e+003
4.969717e+002, 3.932547e+003
4.974539e+002, 3.932194e+003
4.979360e+002, 3.932822e+003
4.984181e+002, 3.935450e+003
4.989002e+002, 3.945640e+003
4.993823e+002, 3.953425e+003
4.998644e+002, 3.951653e+003
5.003466e+002, 3.941199e+003
5.008287e+002, 3.932068e+003
5.013108e+002, 3.926598e+003
5.017929e+002, 3.923887e+003
5.022750e+002, 3.923653e+003
5.027571e+002, 3.927258e+003
5.032393e+002, 3.930777e+003
5.037214e+002, 3.935752e+003
5.042035e+002, 3.939799e+003
5.046856e+002, 3.939285e+003
5.051677e+002, 3.930881e+003
5.056498e+002, 3.924733e+003
5.061320e+002, 3.923223e+003
5.066141e+002, 3.925539e+003
5.070962e+002, 3.927273e+003
5.075783e+002, 3.928132e+003
5.080604e+002, 3.929518e+003
5.085425e+002, 3.933137e+003
5.090247e+002, 3.938514e+003
5.095068e+002, 3.940852e+003
5.099889e+002, 3.939595e+003
5.104710e+002, 3.937193e+003
5.109531e+002, 3.936794e+003
5.114352e+002, 3.937598e+003
5.119174e+002, 3.937077e+003
5.123995e+002, 3.933715e+003
5.128816e+002, 3.929809e+003
5.133637e+002, 3.928071e+003
5.138458e+002, 3.927951e+003
5.143279e+002, 3.927571e+003
5.148101e+002, 3.923481e+003
5.152922e+002, 3.920673e+003
5.157743e+002, 3.924325e+003
5.162564e+002, 3.935692e+003
5.167385e+002, 3.944011e+003
5.172206e+002, 3.941647e+003
5.177028e+002, 3.936789e+003
5.181849e+002, 3.936024e+003
5.186670e+002, 3.943972e+003
5.191491e+002, 3.951447e+003
5.196312e+002, 3.958345e+003
5.201133e+002, 3.964246e+003
5.205955e+002, 3.968248e+003
5.210776e+002, 3.969284e+003
5.215597e+002, 3.970207e+003
5.220418e+002, 3.971914e+003
5.225239e+002, 3.974303e+003
5.230060e+002, 3.975526e+003
5.234882e+002, 3.974948e+003
5.239703e+002, 3.975221e+003
5.244524e+002, 3.979673e+003
5.249345e+002, 3.987646e+003
5.254166e+002, 3.992210e+003
5.258987e+002, 3.992079e+003
5.263809e+002, 3.990508e+003
5.268630e+002, 3.991747e+003
5.273451e+002, 3.995077e+003
5.278272e+002, 3.998221e+003
5.283093e+002, 4.000511e+003
5.287914e+002, 4.002112e+003
5.292736e+002, 4.003270e+003
5.297557e+002, 4.004000e+003
5.302378e+002, 4.004109e+003
5.307199e+002, 4.002357e+003
5.312020e+002, 4.000909e+003
5.316841e+002, 4.001337e+003
5.321663e+002, 4.004089e+003
5.326484e+002, 4.007767e+003
5.331305e+002, 4.014122e+003
5.336126e+002, 4.020220e+003
5.340947e+002, 4.023299e+003
5.345768e+002, 4.018558e+003
5.350590e+002, 4.016796e+003
5.355411e+002, 4.019615e+003
5.360232e+002, 4.025671e+003
5.365053e+002, 4.031552e+003
5.369874e+002, 4.037441e+003
5.374695e+002, 4.042218e+003
5.379517e+002, 4.045019e+003
5.384338e+002, 4.045997e+003
5.389159e+002, 4.048052e+003
5.393980e+002, 4.051538e+003
5.398801e+002, 4.053773e+003
5.403622e+002, 4.050979e+003
5.408444e+002, 4.044700e+003
5.413265e+002, 4.041135e+003
5.418086e+002, 4.041342e+003
5.422907e+002, 4.043604e+003
5.427728e+002, 4.045937e+003
5.432549e+002, 4.048876e+003
5.437371e+002, 4.053508e+003
5.442192e+002, 4.064230e+003
5.447013e+002, 4.073508e+003
5.451834e+002, 4.074672e+003
5.456655e+002, 4.069581e+003
5.461476e+002, 4.065545e+003
5.466298e+002, 4.067018e+003
5.471119e+002, 4.069146e+003
5.475940e+002, 4.069177e+003
5.480761e+002, 4.066148e+003
5.485582e+002, 4.063803e+003
5.490403e+002, 4.061295e+003
5.495225e+002, 4.060296e+003
5.500046e+002, 4.062307e+003
5.504867e+002, 4.068376e+003
5.509688e+002, 4.075303e+003
5.514509e+002, 4.083854e+003
5.519330e+002, 4.092246e+003
5.524152e+002, 4.095546e+003
5.528973e+002, 4.092905e+003
5.533794e+002, 4.091688e+003
5.538615e+002, 4.095681e+003
5.543436e+002, 4.102911e+003
5.548257e+002, 4.105836e+003
5.553079e+002, 4.104552e+003
5.557900e+002, 4.103846e+003
5.562721e+002, 4.109995e+003
5.567542e+002, 4.118305e+003
5.572363e+002, 4.120003e+003
5.577184e+002, 4.113149e+003
5.582006e+002, 4.105946e+003
5.586827e+002, 4.104523e+003
5.591648e+002, 4.106418e+003
5.596469e+002, 4.108481e+003
5.601290e+002, 4.108844e+003
5.606111e+002, 4.110191e+003
5.610933e+002, 4.113666e+003
5.615754e+002, 4.118771e+003
5.620575e+002, 4.124120e+003
5.625396e+002, 4.130216e+003
5.630217e+002, 4.135797e+003
5.635038e+002, 4.140659e+003
5.639860e+002, 4.144816e+003
5.644681e+002, 4.147691e+003
5.649502e+002, 4.148481e+003
5.654323e+002, 4.149456e+003
5.659144e+002, 4.152659e+003
5.663965e+002, 4.158342e+003
5.668787e+002, 4.162482e+003
5.673608e+002, 4.164676e+003
5.678429e+002, 4.165665e+003
5.683250e+002, 4.166765e+003
5.688071e+002, 4.167636e+003
5.692892e+002, 4.166168e+003
5.697714e+002, 4.159219e+003
5.702535e+002, 4.152919e+003
5.707356e+002, 4.156935e+003
5.712177e+002, 4.168640e+003
5.716998e+002, 4.179056e+003
5.721819e+002, 4.182627e+003
5.726641e+002, 4.184138e+003
5.731462e+002, 4.188002e+003
5.736283e+002, 4.194564e+003
5.741104e+002, 4.196553e+003
5.745925e+002, 4.184683e+003
5.750746e+002, 4.172346e+003
5.755568e+002, 4.168749e+003
5.760389e+002, 4.181836e+003
5.765210e+002, 4.190558e+003
5.770031e+002, 4.193056e+003
5.774852e+002, 4.192669e+003
5.779673e+002, 4.194238e+003
5.784495e+002, 4.199121e+003
5.789316e+002, 4.201075e+003
5.794137e+002, 4.197642e+003
5.798958e+002, 4.191537e+003
5.803779e+002, 4.189763e+003
5.808600e+002, 4.192340e+003
5.813422e+002, 4.197138e+003
5.818243e+002, 4.203753e+003
5.823064e+002, 4.211574e+003
5.827885e+002, 4.219844e+003
5.832706e+002, 4.228458e+003
5.837527e+002, 4.235390e+003
5.842349e+002, 4.238326e+003
5.847170e+002, 4.239202e+003
5.851991e+002, 4.240182e+003
5.856812e+002, 4.242010e+003
5.861633e+002, 4.242556e+003
5.866454e+002, 4.239237e+003
5.871276e+002, 4.234653e+003
5.876097e+002, 4.232035e+003
5.880918e+002, 4.232693e+003
5.885739e+002, 4.234553e+003
5.890560e+002, 4.238637e+003
5.895381e+002, 4.243733e+003
5.900203e+002, 4.245712e+003
5.905024e+002, 4.242730e+003
5.909845e+002, 4.241142e+003
5.914666e+002, 4.243858e+003
5.919487e+002, 4.250327e+003
5.924308e+002, 4.255497e+003
5.929130e+002, 4.259499e+003
5.933951e+002, 4.261474e+003
5.938772e+002, 4.258635e+003
5.943593e+002, 4.253198e+003
5.948414e+002, 4.251948e+003
5.953235e+002, 4.255786e+003
5.958057e+002, 4.261688e+003
5.962878e+002, 4.268716e+003
5.967699e+002, 4.275449e+003
5.972520e+002, 4.279509e+003
5.977341e+002, 4.278157e+003
5.982162e+002, 4.276956e+003
5.986984e+002, 4.279714e+003
5.991805e+002, 4.284420e+003
5.996626e+002, 4.286928e+003
6.001447e+002, 4.283301e+003
6.006268e+002, 4.280676e+003
6.011089e+002, 4.281390e+003
6.015911e+002, 4.285119e+003
6.020732e+002, 4.288413e+003
6.025553e+002, 4.291805e+003
6.030374e+002, 4.293825e+003
6.035195e+002, 4.292761e+003
6.040016e+002, 4.288407e+003
6.044838e+002, 4.287417e+003
6.049659e+002, 4.289921e+003
6.054480e+002, 4.295277e+003
6.059301e+002, 4.306070e+003
6.064122e+002, 4.319585e+003
6.068943e+002, 4.325532e+003
6.073765e+002, 4.320196e+003
6.078586e+002, 4.312572e+003
6.083407e+002, 4.311309e+003
6.088228e+002, 4.314388e+003
6.093049e+002, 4.318162e+003
6.097870e+002, 4.320000e+003
6.102692e+002, 4.323350e+003
6.107513e+002, 4.331528e+003
6.112334e+002, 4.342873e+003
6.117155e+002, 4.351403e+003
6.121976e+002, 4.353937e+003
6.126797e+002, 4.355437e+003
6.131619e+002, 4.357163e+003
6.136440e+002, 4.359071e+003
6.141261e+002, 4.362277e+003
6.146082e+002, 4.367926e+003
6.150903e+002, 4.372763e+003
6.155724e+002, 4.374377e+003
6.160546e+002, 4.372720e+003
6.165367e+002, 4.369796e+003
6.170188e+002, 4.364913e+003
6.175009e+002, 4.362189e+003
6.179830e+002, 4.370126e+003
6.184651e+002, 4.384371e+003
6.189473e+002, 4.391447e+003
6.194294e+002, 4.385113e+003
6.199115e+002, 4.376638e+003
6.203936e+002, 4.376503e+003
6.208757e+002, 4.381879e+003
6.213578e+002, 4.386932e+003
6.218400e+002, 4.388987e+003
6.223221e+002, 4.390624e+003
6.228042e+002, 4.393992e+003
6.232863e+002, 4.398424e+003
6.237684e+002, 4.399174e+003
6.242505e+002, 4.391533e+003
6.247327e+002, 4.384784e+003
6.252148e+002, 4.382031e+003
6.256969e+002, 4.383401e+003
6.261790e+002, 4.387669e+003
6.266611e+002, 4.396273e+003
6.271432e+002, 4.403817e+003
6.276254e+002, 4.404380e+003
6.281075e+002, 4.398796e+003
6.285896e+002, 4.397355e+003
6.290717e+002, 4.401487e+003
6.295538e+002, 4.407153e+003
6.300359e+002, 4.410234e+003
6.305181e+002, 4.411486e+003
6.310002e+002, 4.412375e+003
6.314823e+002, 4.412907e+003
6.319644e+002, 4.414127e+003
6.324465e+002, 4.417421e+003
6.329286e+002, 4.421935e+003
6.334108e+002, 4.425870e+003
6.338929e+002, 4.427425e+003
6.343750e+002, 4.429610e+003
6.348571e+002, 4.433878e+003
6.353392e+002, 4.439790e+003
6.358214e+002, 4.443961e+003
6.363035e+002, 4.443455e+003
6.367856e+002, 4.445735e+003
6.372677e+002, 4.455750e+003
6.377498e+002, 4.473329e+003
6.382319e+002, 4.482046e+003
6.387141e+002, 4.480787e+003
6.391962e+002, 4.476543e+003
6.396783e+002, 4.473591e+003
6.401604e+002, 4.472341e+003
6.406425e+002, 4.475079e+003
6.411246e+002, 4.482720e+003
6.416068e+002, 4.490378e+003
6.420889e+002, 4.494868e+003
6.425710e+002, 4.496335e+003
6.430531e+002, 4.494396e+003
6.435352e+002, 4.485719e+003
6.440173e+002, 4.479276e+003
6.444995e+002, 4.479622e+003
6.449816e+002, 4.484436e+003
6.454637e+002, 4.489641e+003
6.459458e+002, 4.495462e+003
6.464279e+002, 4.500349e+003
6.469100e+002, 4.503777e+003
6.473922e+002, 4.505893e+003
6.478743e+002, 4.506931e+003
6.483564e+002, 4.505979e+003
6.488385e+002, 4.506691e+003
6.493206e+002, 4.511573e+003
6.498027e+002, 4.519429e+003
6.502849e+002, 4.524205e+003
6.507670e+002, 4.525970e+003
6.512491e+002, 4.526384e+003
6.517312e+002, 4.526445e+003
6.522133e+002, 4.526132e+003
6.526954e+002, 4.524868e+003
6.531776e+002, 4.522505e+003
6.536597e+002, 4.521648e+003
6.541418e+002, 4.525224e+003
6.546239e+002, 4.530292e+003
6.551060e+002, 4.534197e+003
6.555881e+002, 4.535972e+003
6.560703e+002, 4.537376e+003
6.565524e+002, 4.537259e+003
6.570345e+002, 4.537446e+003
6.575166e+002, 4.540657e+003
6.579987e+002, 4.549172e+003
6.584808e+002, 4.553868e+003
6.589630e+002, 4.552444e+003
6.594451e+002, 4.547347e+003
6.599272e+002, 4.542888e+003
6.604093e+002, 4.539169e+003
6.608914e+002, 4.539298e+003
6.613735e+002, 4.547774e+003
6.618557e+002, 4.558264e+003
6.623378e+002, 4.559090e+003
6.628199e+002, 4.552353e+003
6.633020e+002, 4.546874e+003
6.637841e+002, 4.549947e+003
6.642662e+002, 4.554503e+003
6.647484e+002, 4.554500e+003
6.652305e+002, 4.549687e+003
6.657126e+002, 4.548377e+003
6.661947e+002, 4.554548e+003
6.666768e+002, 4.563226e+003
6.671589e+002, 4.572306e+003
6.676411e+002, 4.582747e+003
6.681232e+002, 4.588569e+003
6.686053e+002, 4.587816e+003
6.690874e+002, 4.585221e+003
6.695695e+002, 4.584520e+003
6.700516e+002, 4.585561e+003
6.705338e+002, 4.589528e+003
6.710159e+002, 4.597398e+003
6.714980e+002, 4.604373e+003
6.719801e+002, 4.604308e+003
6.724622e+002, 4.598722e+003
6.729443e+002, 4.590866e+003
6.734265e+002, 4.580544e+003
6.739086e+002, 4.570442e+003
6.743907e+002, 4.561118e+003
6.748728e+002, 4.553582e+003
6.753549e+002, 4.549735e+003
6.758370e+002, 4.555388e+003
6.763192e+002, 4.559354e+003
6.768013e+002, 4.557695e+003
6.772834e+002, 4.552215e+003
6.777655e+002, 4.548495e+003
6.782476e+002, 4.545691e+003
6.787297e+002, 4.547272e+003
6.792119e+002, 4.557101e+003
6.796940e+002, 4.572629e+003
6.801761e+002, 4.577004e+003
6.806582e+002, 4.569786e+003
6.811403e+002, 4.561583e+003
6.816224e+002, 4.559112e+003
6.821046e+002, 4.560501e+003
6.825867e+002, 4.562630e+003
6.830688e+002, 4.565219e+003
6.835509e+002, 4.569434e+003
6.840330e+002, 4.577981e+003
6.845151e+002, 4.587173e+003
6.849973e+002, 4.594031e+003
6.854794e+002, 4.597796e+003
6.859615e+002, 4.600344e+003
6.864436e+002, 4.602924e+003
6.869257e+002, 4.603885e+003
6.874078e+002, 4.601355e+003
6.878900e+002, 4.593222e+003
6.883721e+002, 4.588028e+003
6.888542e+002, 4.586815e+003
6.893363e+002, 4.588216e+003
6.898184e+002, 4.590931e+003
6.903005e+002, 4.594791e+003
6.907827e+002, 4.597802e+003
6.912648e+002, 4.598644e+003
6.917469e+002, 4.599923e+003
6.922290e+002, 4.606499e+003
6.927111e+002, 4.616015e+003
6.931932e+002, 4.623028e+003
6.936754e+002, 4.623549e+003
6.941575e+002, 4.622480e+003
6.946396e+002, 4.620411e+003
6.951217e+002, 4.618319e+003
6.956038e+002, 4.619812e+003
6.960859e+002, 4.630081e+003
6.965681e+002, 4.638541e+003
6.970502e+002, 4.642456e+003
6.975323e+002, 4.642132e+003
6.980144e+002, 4.639024e+003
6.984965e+002, 4.631698e+003
6.989786e+002, 4.628241e+003
6.994608e+002, 4.637942e+003
6.999429e+002, 4.655935e+003
7.004250e+002, 4.659956e+003
7.009071e+002, 4.650537e+003
7.013892e+002, 4.641018e+003
7.018713e+002, 4.642677e+003
7.023535e+002, 4.648981e+003
7.028356e+002, 4.652436e+003
7.033177e+002, 4.651534e+003
7.037998e+002, 4.652404e+003
7.042819e+002, 4.658930e+003
7.047640e+002, 4.667130e+003
7.052462e+002, 4.673748e+003
7.057283e+002, 4.676652e+003
7.062104e+002, 4.682187e+003
7.066925e+002, 4.692376e+003
7.071746e+002, 4.702371e+003
7.076567e+002, 4.705981e+003
7.081389e+002, 4.702825e+003
7.086210e+002, 4.700478e+003
7.091031e+002, 4.700007e+003
7.095852e+002, 4.700450e+003
7.100673e+002, 4.699400e+003
7.105494e+002, 4.698276e+003
7.110316e+002, 4.700997e+003
7.115137e+002, 4.711940e+003
7.119958e+002, 4.722368e+003
7.124779e+002, 4.728273e+003
7.129600e+002, 4.729597e+003
7.134421e+002, 4.726147e+003
7.139243e+002, 4.711984e+003
7.144064e+002, 4.700155e+003
7.148885e+002, 4.693978e+003
7.153706e+002, 4.692122e+003
7.158527e+002, 4.690533e+003
7.163348e+002, 4.688944e+003
7.168170e+002, 4.688731e+003
7.172991e+002, 4.691035e+003
7.177812e+002, 4.694673e+003
7.182633e+002, 4.695339e+003
7.187454e+002, 4.693273e+003
7.192275e+002, 4.691444e+003
7.197097e+002, 4.693502e+003
7.201918e+002, 4.695345e+003
7.206739e+002, 4.689906e+003
7.211560e+002, 4.678392e+003
7.216381e+002, 4.671763e+003
7.221202e+002, 4.679868e+003
7.226024e+002, 4.690190e+003
7.230845e+002, 4.695938e+003
7.235666e+002, 4.696196e+003
7.240487e+002, 4.696755e+003
7.245308e+002, 4.698909e+003
7.250129e+002, 4.699550e+003
7.254951e+002, 4.696282e+003
7.259772e+002, 4.688958e+003
7.264593e+002, 4.681956e+003
7.269414e+002, 4.675062e+003
7.274235e+002, 4.670491e+003
7.279056e+002, 4.671928e+003
7.283878e+002, 4.676748e+003
7.288699e+002, 4.679834e+003
7.293520e+002, 4.680258e+003
7.298341e+002, 4.680526e+003
7.303162e+002, 4.682926e+003
7.307983e+002, 4.685597e+003
7.312805e+002, 4.686678e+003
7.317626e+002, 4.684377e+003
7.322447e+002, 4.682936e+003
7.327268e+002, 4.681454e+003
7.332089e+002, 4.681763e+003
7.336910e+002, 4.686816e+003
7.341732e+002, 4.698110e+003
7.346553e+002, 4.706443e+003
7.351374e+002, 4.710593e+003
7.356195e+002, 4.711328e+003
7.361016e+002, 4.707261e+003
7.365837e+002, 4.700284e+003
7.370659e+002, 4.697493e+003
7.375480e+002, 4.702837e+003
7.380301e+002, 4.709462e+003
7.385122e+002, 4.712128e+003
7.389943e+002, 4.711788e+003
7.394764e+002, 4.710051e+003
7.399586e+002, 4.707444e+003
7.404407e+002, 4.703552e+003
7.409228e+002, 4.696088e+003
7.414049e+002, 4.687730e+003
7.418870e+002, 4.685389e+003
7.423691e+002, 4.692459e+003
7.428513e+002, 4.695458e+003
7.433334e+002, 4.689327e+003
7.438155e+002, 4.678337e+003
7.442976e+002, 4.673644e+003
7.447797e+002, 4.674831e+003
7.452618e+002, 4.678002e+003
7.457440e+002, 4.682605e+003
7.462261e+002, 4.687228e+003
7.467082e+002, 4.690264e+003
7.471903e+002, 4.691945e+003
7.476724e+002, 4.693298e+003
7.481545e+002, 4.691882e+003
7.486367e+002, 4.692866e+003
7.491188e+002, 4.701515e+003
7.496009e+002, 4.716667e+003
7.500830e+002, 4.721885e+003
7.505651e+002, 4.711445e+003
7.510472e+002, 4.703205e+003
7.515294e+002, 4.706660e+003
7.520115e+002, 4.719474e+003
7.524936e+002, 4.724412e+003
7.529757e+002, 4.721574e+003
7.534578e+002, 4.718851e+003
7.539399e+002, 4.722656e+003
7.544221e+002, 4.729462e+003
7.549042e+002, 4.734782e+003
7.553863e+002, 4.738463e+003
7.558684e+002, 4.741331e+003
7.563505e+002, 4.740976e+003
7.568326e+002, 4.742191e+003
7.573148e+002, 4.748868e+003
7.577969e+002, 4.762628e+003
7.582790e+002, 4.772942e+003
7.587611e+002, 4.777817e+003
7.592432e+002, 4.782383e+003
7.597253e+002, 4.790525e+003
7.602075e+002, 4.802292e+003
7.606896e+002, 4.811392e+003
7.611717e+002, 4.817833e+003
7.616538e+002, 4.821923e+003
7.621359e+002, 4.820315e+003
7.626180e+002, 4.818056e+003
7.631002e+002, 4.825173e+003
7.635823e+002, 4.844040e+003
7.640644e+002, 4.860458e+003
7.645465e+002, 4.865987e+003
7.650286e+002, 4.866853e+003
7.655107e+002, 4.867724e+003
7.659929e+002, 4.868202e+003
7.664750e+002, 4.871128e+003
7.669571e+002, 4.876346e+003
7.674392e+002, 4.884302e+003
7.679213e+002, 4.896232e+003
7.684034e+002, 4.912192e+003
7.688856e+002, 4.927518e+003
7.693677e+002, 4.941860e+003
7.698498e+002, 4.954302e+003
7.703319e+002, 4.961988e+003
7.708140e+002, 4.967578e+003
7.712961e+002, 4.976246e+003
7.717783e+002, 4.989930e+003
7.722604e+002, 5.003624e+003
7.727425e+002, 5.015491e+003
7.732246e+002, 5.025610e+003
7.737067e+002, 5.034083e+003
7.741888e+002, 5.037199e+003
7.746710e+002, 5.045222e+003
7.751531e+002, 5.060720e+003
7.756352e+002, 5.078216e+003
7.761173e+002, 5.091340e+003
7.765994e+002, 5.100067e+003
7.770815e+002, 5.106460e+003
7.775637e+002, 5.110661e+003
7.780458e+002, 5.113645e+003
7.785279e+002, 5.114681e+003
7.790100e+002, 5.115753e+003
7.794921e+002, 5.120959e+003
7.799742e+002, 5.134099e+003
7.804564e+002, 5.146034e+003
7.809385e+002, 5.150830e+003
7.814206e+002, 5.152733e+003
7.819027e+002, 5.157712e+003
7.823848e+002, 5.169097e+003
7.828669e+002, 5.177513e+003
7.833491e+002, 5.180924e+003
7.838312e+002, 5.182532e+003
7.843133e+002, 5.188946e+003
7.847954e+002, 5.199620e+003
7.852775e+002, 5.204215e+003
7.857596e+002, 5.198242e+003
7.862418e+002, 5.190910e+003
7.867239e+002, 5.195024e+003
7.872060e+002, 5.205644e+003
7.876881e+002, 5.213936e+003
7.881702e+002, 5.216464e+003
7.886523e+002, 5.216608e+003
7.891345e+002, 5.212587e+003
7.896166e+002, 5.207895e+003
7.900987e+002, 5.208404e+003
7.905808e+002, 5.216141e+003
7.910629e+002, 5.225380e+003
7.915450e+002, 5.236477e+003
7.920272e+002, 5.247421e+003
7.925093e+002, 5.252433e+003
7.929914e+002, 5.252630e+003
7.934735e+002, 5.256457e+003
7.939556e+002, 5.267712e+003
7.944377e+002, 5.280770e+003
7.949199e+002, 5.288594e+003
7.954020e+002, 5.293907e+003
7.958841e+002, 5.301424e+003
7.963662e+002, 5.314115e+003
7.968483e+002, 5.327376e+003
7.973304e+002, 5.339868e+003
7.978126e+002, 5.351964e+003
7.982947e+002, 5.364108e+003
7.987768e+002, 5.376132e+003
7.992589e+002, 5.388376e+003
7.997410e+002, 5.400968e+003
8.002231e+002, 5.413700e+003
8.007053e+002, 5.425266e+003
8.011874e+002, 5.436456e+003
8.016695e+002, 5.451017e+003
8.021516e+002, 5.472278e+003
8.026337e+002, 5.494216e+003
8.031158e+002, 5.509657e+003
8.035980e+002, 5.522714e+003
8.040801e+002, 5.540941e+003
8.045622e+002, 5.567324e+003
8.050443e+002, 5.598236e+003
8.055264e+002, 5.632607e+003
8.060085e+002, 5.671146e+003
8.064907e+002, 5.715856e+003
8.069728e+002, 5.767695e+003
8.074549e+002, 5.819842e+003
8.079370e+002, 5.869718e+003
8.084191e+002, 5.921842e+003
8.089012e+002, 5.983572e+003
8.093834e+002, 6.053521e+003
8.098655e+002, 6.128355e+003
8.103476e+002, 6.208496e+003
8.108297e+002, 6.290895e+003
8.113118e+002, 6.369482e+003
8.117939e+002, 6.449426e+003
8.122761e+002, 6.539286e+003
8.127582e+002, 6.646878e+003
8.132403e+002, 6.754513e+003
8.137224e+002, 6.859645e+003
8.142045e+002, 6.964882e+003
8.146866e+002, 7.076149e+003
8.151688e+002, 7.191673e+003
8.156509e+002, 7.308396e+003
8.161330e+002, 7.424531e+003
8.166151e+002, 7.543703e+003
8.170972e+002, 7.673619e+003
8.175793e+002, 7.808952e+003
8.180615e+002, 7.942707e+003
8.185436e+002, 8.069542e+003
8.190257e+002, 8.196357e+003
8.195078e+002, 8.326463e+003
8.199899e+002, 8.456140e+003
8.204720e+002, 8.579973e+003
8.209542e+002, 8.697755e+003
8.214363e+002, 8.806932e+003
8.219184e+002, 8.907571e+003
8.224005e+002, 8.999025e+003
8.228826e+002, 9.083743e+003
8.233647e+002, 9.160131e+003
8.238469e+002, 9.217877e+003
8.243290e+002, 9.255175e+003
8.248111e+002, 9.273301e+003
8.252932e+002, 9.274896e+003
8.257753e+002, 9.258053e+003
8.262574e+002, 9.220477e+003
8.267396e+002, 9.156513e+003
8.272217e+002, 9.077972e+003
8.277038e+002, 8.979877e+003
8.281859e+002, 8.873590e+003
8.286681e+002, 8.768322e+003
8.291502e+002, 8.663811e+003
8.296323e+002, 8.570183e+003
8.301144e+002, 8.489701e+003
8.305966e+002, 8.417950e+003
8.310787e+002, 8.344723e+003
8.315608e+002, 8.275363e+003
8.320429e+002, 8.220317e+003
8.325250e+002, 8.185833e+003
8.330071e+002, 8.154460e+003
8.334893e+002, 8.112944e+003
8.339714e+002, 8.071924e+003
8.344535e+002, 8.042630e+003
8.349356e+002, 8.030293e+003
8.354177e+002, 8.019343e+003
8.358998e+002, 8.011351e+003
8.363820e+002, 8.002616e+003
8.368641e+002, 7.988061e+003
8.373462e+002, 7.968944e+003
8.378283e+002, 7.953499e+003
8.383104e+002, 7.943652e+003
8.387925e+002, 7.931258e+003
8.392747e+002, 7.908126e+003
8.397568e+002, 7.879060e+003
8.402389e+002, 7.849920e+003
8.407210e+002, 7.823553e+003
8.412031e+002, 7.789626e+003
8.416852e+002, 7.744684e+003
8.421674e+002, 7.692563e+003
8.426495e+002, 7.635199e+003
8.431316e+002, 7.572354e+003
8.436137e+002, 7.504497e+003
8.440958e+002, 7.430972e+003
8.445779e+002, 7.352035e+003
8.450601e+002, 7.262770e+003
8.455422e+002, 7.170087e+003
8.460243e+002, 7.086327e+003
8.465064e+002, 7.012448e+003
8.469885e+002, 6.938716e+003
8.474706e+002, 6.857509e+003
8.479528e+002, 6.776163e+003
8.484349e+002, 6.698788e+003
8.489170e+002, 6.625135e+003
8.493991e+002, 6.558666e+003
8.498812e+002, 6.500442e+003
8.503633e+002, 6.446138e+003
8.508455e+002, 6.391288e+003
8.513276e+002, 6.337506e+003
8.518097e+002, 6.297700e+003
8.522918e+002, 6.270522e+003
8.527739e+002, 6.244196e+003
8.532560e+002, 6.204641e+003
8.537382e+002, 6.166692e+003
8.542203e+002, 6.143847e+003
8.547024e+002, 6.135474e+003
8.551845e+002, 6.127073e+003
8.556666e+002, 6.116282e+003
8.561487e+002, 6.104349e+003
8.566309e+002, 6.090700e+003
8.571130e+002, 6.076314e+003
8.575951e+002, 6.065255e+003
8.580772e+002, 6.057606e+003
8.585593e+002, 6.052571e+003
8.590414e+002, 6.050019e+003
8.595236e+002, 6.049805e+003
8.600057e+002, 6.053517e+003
8.604878e+002, 6.059708e+003
8.609699e+002, 6.063557e+003
8.614520e+002, 6.058000e+003
8.619341e+002, 6.055401e+003
8.624163e+002, 6.064030e+003
8.628984e+002, 6.078470e+003
8.633805e+002, 6.083644e+003
8.638626e+002, 6.076159e+003
8.643447e+002, 6.073134e+003
8.648268e+002, 6.080889e+003
8.653090e+002, 6.092097e+003
8.657911e+002, 6.093073e+003
8.662732e+002, 6.085892e+003
8.667553e+002, 6.076663e+003
8.672374e+002, 6.066964e+003
8.677195e+002, 6.056508e+003
8.682017e+002, 6.049712e+003
8.686838e+002, 6.040787e+003
8.691659e+002, 6.019446e+003
8.696480e+002, 5.977384e+003
8.701301e+002, 5.939680e+003
8.706122e+002, 5.910123e+003
8.710944e+002, 5.883407e+003
8.715765e+002, 5.852494e+003
8.720586e+002, 5.817846e+003
8.725407e+002, 5.781436e+003
8.730228e+002, 5.743300e+003
8.735049e+002, 5.705505e+003
8.739871e+002, 5.668781e+003
8.744692e+002, 5.633560e+003
8.749513e+002, 5.600548e+003
8.754334e+002, 5.571715e+003
8.759155e+002, 5.540011e+003
8.763976e+002, 5.500771e+003
8.768798e+002, 5.463263e+003
8.773619e+002, 5.434731e+003
8.778440e+002, 5.415533e+003
8.783261e+002, 5.398586e+003
8.788082e+002, 5.383863e+003
8.792903e+002, 5.368034e+003
8.797725e+002, 5.346150e+003
8.802546e+002, 5.322384e+003
8.807367e+002, 5.301956e+003
8.812188e+002, 5.285394e+003
8.817009e+002, 5.269954e+003
8.821830e+002, 5.252352e+003
8.826652e+002, 5.238151e+003
8.831473e+002, 5.231426e+003
8.836294e+002, 5.231755e+003
8.841115e+002, 5.225983e+003
8.845936e+002, 5.212920e+003
8.850757e+002, 5.201897e+003
8.855579e+002, 5.200951e+003
8.860400e+002, 5.204149e+003
8.865221e+002, 5.201188e+003
8.870042e+002, 5.192657e+003
8.874863e+002, 5.181078e+003
8.879684e+002, 5.162717e+003
8.884506e+002, 5.146560e+003
8.889327e+002, 5.138377e+003
8.894148e+002, 5.135454e+003
8.898969e+002, 5.129104e+003
8.903790e+002, 5.119136e+003
8.908611e+002, 5.106140e+003
8.913433e+002, 5.089046e+003
8.918254e+002, 5.070800e+003
8.923075e+002, 5.057813e+003
8.927896e+002, 5.048144e+003
8.932717e+002, 5.035800e+003
8.937538e+002, 5.014979e+003
8.942360e+002, 4.996646e+003
8.947181e+002, 4.989481e+003
8.952002e+002, 4.987885e+003
8.956823e+002, 4.983722e+003
8.961644e+002, 4.974946e+003
8.966465e+002, 4.967490e+003
8.971287e+002, 4.961901e+003
8.976108e+002, 4.957525e+003
8.980929e+002, 4.953529e+003
8.985750e+002, 4.950092e+003
8.990571e+002, 4.948470e+003
8.995392e+002, 4.949147e+003
9.000214e+002, 4.948691e+003
9.005035e+002, 4.942366e+003
9.009856e+002, 4.935080e+003
9.014677e+002, 4.931466e+003
9.019498e+002, 4.933769e+003
9.024319e+002, 4.933441e+003
9.029141e+002, 4.929023e+003
9.033962e+002, 4.924270e+003
9.038783e+002, 4.921795e+003
9.043604e+002, 4.921181e+003
9.048425e+002, 4.918896e+003
9.053246e+002, 4.915025e+003
9.058068e+002, 4.911816e+003
9.062889e+002, 4.912071e+003
9.067710e+002, 4.912546e+003
9.072531e+002, 4.909506e+003
9.077352e+002, 4.903675e+003
9.082173e+002, 4.901614e+003
9.086995e+002, 4.908488e+003
9.091816e+002, 4.912511e+003
9.096637e+002, 4.909901e+003
9.101458e+002, 4.902606e+003
9.106279e+002, 4.895132e+003
9.111100e+002, 4.887845e+003
9.115922e+002, 4.884319e+003
9.120743e+002, 4.888388e+003
9.125564e+002, 4.892997e+003
9.130385e+002, 4.890461e+003
9.135206e+002, 4.883997e+003
9.140027e+002, 4.879088e+003
9.144849e+002, 4.877305e+003
9.149670e+002, 4.876997e+003
9.154491e+002, 4.878438e+003
9.159312e+002, 4.880715e+003
9.164133e+002, 4.882171e+003
9.168954e+002, 4.882953e+003
9.173776e+002, 4.887200e+003
9.178597e+002, 4.896110e+003
9.183418e+002, 4.903184e+003
9.188239e+002, 4.901784e+003
9.193060e+002, 4.895479e+003
9.197881e+002, 4.886754e+003
9.202703e+002, 4.874362e+003
9.207524e+002, 4.868008e+003
9.212345e+002, 4.871977e+003
9.217166e+002, 4.878218e+003
9.221987e+002, 4.883273e+003
9.226808e+002, 4.887091e+003
9.231630e+002, 4.887164e+003
9.236451e+002, 4.883584e+003
9.241272e+002, 4.880702e+003
9.246093e+002, 4.883221e+003
9.250914e+002, 4.886624e+003
9.255735e+002, 4.886161e+003
9.260557e+002, 4.882442e+003
9.265378e+002, 4.878714e+003
9.270199e+002, 4.873489e+003
9.275020e+002, 4.871642e+003
9.279841e+002, 4.876168e+003
9.284662e+002, 4.883487e+003
9.289484e+002, 4.882679e+003
9.294305e+002, 4.874351e+003
9.299126e+002, 4.870361e+003
9.303947e+002, 4.875356e+003
9.308768e+002, 4.883453e+003
9.313589e+002, 4.890329e+003
9.318411e+002, 4.895500e+003
9.323232e+002, 4.898160e+003
9.328053e+002, 4.897144e+003
9.332874e+002, 4.895002e+003
9.337695e+002, 4.891037e+003
9.342516e+002, 4.887360e+003
9.347338e+002, 4.886194e+003
9.352159e+002, 4.887517e+003
9.356980e+002, 4.889310e+003
9.361801e+002, 4.891496e+003
9.366622e+002, 4.894179e+003
9.371443e+002, 4.898602e+003
9.376265e+002, 4.902786e+003
9.381086e+002, 4.904232e+003
9.385907e+002, 4.902671e+003
9.390728e+002, 4.901805e+003
9.395549e+002, 4.904053e+003
9.400370e+002, 4.903938e+003
9.405192e+002, 4.897214e+003
9.410013e+002, 4.886737e+003
9.414834e+002, 4.887983e+003
9.419655e+002, 4.899784e+003
9.424476e+002, 4.909849e+003
9.429297e+002, 4.911353e+003
9.434119e+002, 4.909616e+003
9.438940e+002, 4.909370e+003
9.443761e+002, 4.909389e+003
9.448582e+002, 4.907048e+003
9.453403e+002, 4.898686e+003
9.458224e+002, 4.892903e+003
9.463046e+002, 4.890953e+003
9.467867e+002, 4.891355e+003
9.472688e+002, 4.891760e+003
9.477509e+002, 4.892497e+003
9.482330e+002, 4.896153e+003
9.487151e+002, 4.903500e+003
9.491973e+002, 4.910535e+003
9.496794e+002, 4.913824e+003
9.501615e+002, 4.915290e+003
9.506436e+002, 4.916927e+003
9.511257e+002, 4.919405e+003
9.516078e+002, 4.918654e+003
9.520900e+002, 4.912722e+003
9.525721e+002, 4.907454e+003
9.530542e+002, 4.906835e+003
9.535363e+002, 4.909562e+003
9.540184e+002, 4.910917e+003
9.545005e+002, 4.910771e+003
9.549827e+002, 4.908054e+003
9.554648e+002, 4.897771e+003
9.559469e+002, 4.889164e+003
9.564290e+002, 4.888991e+003
9.569111e+002, 4.895070e+003
9.573932e+002, 4.900100e+003
9.578754e+002, 4.903319e+003
9.583575e+002, 4.906813e+003
9.588396e+002, 4.911104e+003
9.593217e+002, 4.915253e+003
9.598038e+002, 4.916933e+003
9.602859e+002, 4.917208e+003
9.607681e+002, 4.919175e+003
9.612502e+002, 4.923916e+003
9.617323e+002, 4.928664e+003
9.622144e+002, 4.932414e+003
9.626965e+002, 4.935109e+003
9.631786e+002, 4.936950e+003
9.636608e+002, 4.938328e+003
9.641429e+002, 4.935751e+003
9.646250e+002, 4.927815e+003
9.651071e+002, 4.922742e+003
9.655892e+002, 4.929589e+003
9.660714e+002, 4.941974e+003
9.665535e+002, 4.948776e+003
9.670356e+002, 4.950040e+003
9.675177e+002, 4.947417e+003
9.679998e+002, 4.934738e+003
9.684819e+002, 4.926029e+003
9.689641e+002, 4.929968e+003
9.694462e+002, 4.940469e+003
9.699283e+002, 4.941458e+003
9.704104e+002, 4.931554e+003
9.708925e+002, 4.928297e+003
9.713746e+002, 4.937421e+003
9.718568e+002, 4.949507e+003
9.723389e+002, 4.953882e+003
9.728210e+002, 4.953183e+003
9.733031e+002, 4.950826e+003
9.737852e+002, 4.945823e+003
9.742673e+002, 4.944407e+003
9.747495e+002, 4.951155e+003
9.752316e+002, 4.957999e+003
9.757137e+002, 4.959214e+003
9.761958e+002, 4.954785e+003
9.766779e+002, 4.951116e+003
9.771600e+002, 4.948162e+003
9.776422e+002, 4.946296e+003
9.781243e+002, 4.945747e+003
9.786064e+002, 4.946291e+003
9.790885e+002, 4.949439e+003
9.795706e+002, 4.953939e+003
9.800527e+002, 4.953776e+003
9.805349e+002, 4.942132e+003
9.810170e+002, 4.936532e+003
9.814991e+002, 4.942556e+003
9.819812e+002, 4.953700e+003
9.824633e+002, 4.957428e+003
9.829454e+002, 4.954992e+003
9.834276e+002, 4.951034e+003
9.839097e+002, 4.946066e+003
9.843918e+002, 4.942029e+003
9.848739e+002, 4.939845e+003
9.853560e+002, 4.939414e+003
9.858381e+002, 4.941776e+003
9.863203e+002, 4.949232e+003
9.868024e+002, 4.948202e+003
9.872845e+002, 4.936146e+003
9.877666e+002, 4.924256e+003
9.882487e+002, 4.919867e+003
9.887308e+002, 4.921538e+003
9.892130e+002, 4.928851e+003
9.896951e+002, 4.940024e+003
9.901772e+002, 4.946901e+003
9.906593e+002, 4.941247e+003
9.911414e+002, 4.935361e+003
9.916235e+002, 4.933835e+003
9.921057e+002, 4.935252e+003
9.925878e+002, 4.937054e+003
9.930699e+002, 4.939296e+003
9.935520e+002, 4.940698e+003
9.940341e+002, 4.940615e+003
9.945162e+002, 4.940970e+003
9.949984e+002, 4.946240e+003
9.954805e+002, 4.952290e+003
9.959626e+002, 4.952157e+003
9.964447e+002, 4.941493e+003
9.969268e+002, 4.937849e+003
9.974089e+002, 4.948903e+003
9.978911e+002, 4.960370e+003
9.983732e+002, 4.964947e+003
9.988553e+002, 4.963051e+003
9.993374e+002, 4.954954e+003
9.998195e+002, 4.941710e+003
1.000302e+003, 4.933244e+003
1.000784e+003, 4.941809e+003
1.001266e+003, 4.950899e+003
1.001748e+003, 4.945991e+003
1.002230e+003, 4.933111e+003
1.002712e+003, 4.928726e+003
1.003194e+003, 4.937229e+003
1.003676e+003, 4.945330e+003
1.004159e+003, 4.951883e+003
1.004641e+003, 4.956421e+003
1.005123e+003, 4.958421e+003
1.005605e+003, 4.957927e+003
1.006087e+003, 4.953528e+003
1.006569e+003, 4.944107e+003
1.007051e+003, 4.939317e+003
1.007533e+003, 4.950283e+003
1.008016e+003, 4.960896e+003
1.008498e+003, 4.960704e+003
1.008980e+003, 4.950585e+003
1.009462e+003, 4.946968e+003
1.009944e+003, 4.950263e+003
1.010426e+003, 4.952891e+003
1.010908e+003, 4.951210e+003
1.011390e+003, 4.947022e+003
1.011872e+003, 4.940017e+003
1.012355e+003, 4.932556e+003
1.012837e+003, 4.929285e+003
1.013319e+003, 4.937203e+003
1.013801e+003, 4.941096e+003
1.014283e+003, 4.938286e+003
1.014765e+003, 4.933499e+003
1.015247e+003, 4.932496e+003
1.015729e+003, 4.934322e+003
1.016211e+003, 4.932564e+003
1.016694e+003, 4.926767e+003
1.017176e+003, 4.922942e+003
1.017658e+003, 4.926923e+003
1.018140e+003, 4.932896e+003
1.018622e+003, 4.938639e+003
1.019104e+003, 4.943311e+003
1.019586e+003, 4.940834e+003
1.020068e+003, 4.928502e+003
1.020551e+003, 4.920375e+003
1.021033e+003, 4.921650e+003
1.021515e+003, 4.927941e+003
1.021997e+003, 4.934170e+003
1.022479e+003, 4.939603e+003
1.022961e+003, 4.942604e+003
1.023443e+003, 4.941530e+003
1.023925e+003, 4.940472e+003
1.024407e+003, 4.939628e+003
1.024890e+003, 4.939884e+003
1.025372e+003, 4.942481e+003
1.025854e+003, 4.947378e+003
1.026336e+003, 4.950270e+003
1.026818e+003, 4.951191e+003
1.027300e+003, 4.952093e+003
1.027782e+003, 4.954491e+003
1.028264e+003, 4.957280e+003
1.028746e+003, 4.961088e+003
1.029229e+003, 4.964699e+003
1.029711e+003, 4.962972e+003
1.030193e+003, 4.950850e+003
1.030675e+003, 4.946465e+003
1.031157e+003, 4.954767e+003
1.031639e+003, 4.967651e+003
1.032121e+003, 4.974879e+003
1.032603e+003, 4.977486e+003
1.033086e+003, 4.976752e+003
1.033568e+003, 4.972283e+003
1.034050e+003, 4.969522e+003
1.034532e+003, 4.973263e+003
1.035014e+003, 4.977003e+003
1.035496e+003, 4.976581e+003
1.035978e+003, 4.972585e+003
1.036460e+003, 4.972444e+003
1.036943e+003, 4.976068e+003
1.037425e+003, 4.978099e+003
1.037907e+003, 4.974866e+003
1.038389e+003, 4.970337e+003
1.038871e+003, 4.967837e+003
1.039353e+003, 4.966899e+003
1.039835e+003, 4.966798e+003
1.040317e+003, 4.968089e+003
1.040799e+003, 4.969102e+003
1.041281e+003, 4.969998e+003
1.041764e+003, 4.970182e+003
1.042246e+003, 4.968664e+003
1.042728e+003, 4.966030e+003
1.043210e+003, 4.963457e+003
1.043692e+003, 4.961085e+003
1.044174e+003, 4.960092e+003
1.044656e+003, 4.961667e+003
1.045138e+003, 4.964104e+003
1.045621e+003, 4.967665e+003
1.046103e+003, 4.971204e+003
1.046585e+003, 4.971347e+003
1.047067e+003, 4.968078e+003
1.047549e+003, 4.963557e+003
1.048031e+003, 4.957715e+003
1.048513e+003, 4.953456e+003
1.048995e+003, 4.955582e+003
1.049478e+003, 4.960089e+003
1.049960e+003, 4.962331e+003
1.050442e+003, 4.960759e+003
1.050924e+003, 4.959969e+003
1.051406e+003, 4.959295e+003
1.051888e+003, 4.961208e+003
1.052370e+003, 4.967984e+003
1.052852e+003, 4.977778e+003
1.053334e+003, 4.987313e+003
1.053817e+003, 4.995808e+003
1.054299e+003, 5.000824e+003
1.054781e+003, 4.999740e+003
1.055263e+003, 4.996563e+003
1.055745e+003, 4.989346e+003
1.056227e+003, 4.982728e+003
1.056709e+003, 4.983238e+003
1.057191e+003, 4.990995e+003
1.057673e+003, 4.995419e+003
1.058156e+003, 4.995684e+003
1.058638e+003, 4.994272e+003
1.059120e+003, 4.994038e+003
1.059602e+003, 4.992440e+003
1.060084e+003, 4.985208e+003
1.060566e+003, 4.973469e+003
1.061048e+003, 4.968306e+003
1.061530e+003, 4.971063e+003
1.062013e+003, 4.978427e+003
1.062495e+003, 4.992265e+003
1.062977e+003, 5.005042e+003
1.063459e+003, 5.001349e+003
1.063941e+003, 4.988473e+003
1.064423e+003, 4.979950e+003
1.064905e+003, 4.978654e+003
1.065387e+003, 4.982607e+003
1.065870e+003, 4.997502e+003
1.066352e+003, 5.010735e+003
1.066834e+003, 5.015083e+003
1.067316e+003, 5.011770e+003
1.067798e+003, 5.010937e+003
1.068280e+003, 5.012185e+003
1.068762e+003, 5.012462e+003
1.069244e+003, 5.007636e+003
1.069726e+003, 5.003974e+003
1.070208e+003, 5.006897e+003
1.070691e+003, 5.013148e+003
1.071173e+003, 5.017502e+003
1.071655e+003, 5.019683e+003
1.072137e+003, 5.020325e+003
1.072619e+003, 5.019103e+003
1.073101e+003, 5.018573e+003
1.073583e+003, 5.022901e+003
1.074065e+003, 5.028271e+003
1.074548e+003, 5.029615e+003
1.075030e+003, 5.027008e+003
1.075512e+003, 5.023350e+003
1.075994e+003, 5.017999e+003
1.076476e+003, 5.013541e+003
1.076958e+003, 5.009952e+003
1.077440e+003, 5.008349e+003
1.077922e+003, 5.013246e+003
1.078405e+003, 5.021908e+003
1.078887e+003, 5.024862e+003
1.079369e+003, 5.019421e+003
1.079851e+003, 5.013496e+003
1.080333e+003, 5.012005e+003
1.080815e+003, 5.010658e+003
1.081297e+003, 5.005556e+003
1.081779e+003, 4.997577e+003
1.082261e+003, 4.997560e+003
1.082744e+003, 5.005412e+003
1.083226e+003, 5.013546e+003
1.083708e+003, 5.020614e+003
1.084190e+003, 5.023428e+003
1.084672e+003, 5.013570e+003
1.085154e+003, 4.999593e+003
1.085636e+003, 4.994928e+003
1.086118e+003, 5.006840e+003
1.086601e+003, 5.013263e+003
1.087083e+003, 5.013309e+003
1.087565e+003, 5.011119e+003
1.088047e+003, 5.010458e+003
1.088529e+003, 5.009608e+003
1.089011e+003, 5.003896e+003
1.089493e+003, 4.994916e+003
1.089975e+003, 4.989103e+003
1.090458e+003, 4.991299e+003
1.090940e+003, 4.994138e+003
1.091422e+003, 4.997148e+003
1.091904e+003, 4.999094e+003
1.092386e+003, 4.996903e+003
1.092868e+003, 4.991819e+003
1.093350e+003, 4.989772e+003
1.093832e+003, 4.991564e+003
1.094314e+003, 4.993019e+003
1.094797e+003, 4.988503e+003
1.095279e+003, 4.985806e+003
1.095761e+003, 4.990899e+003
1.096243e+003, 5.001502e+003
1.096725e+003, 5.009084e+003
1.097207e+003, 5.013575e+003
1.097689e+003, 5.016277e+003
1.098171e+003, 5.017163e+003
1.098653e+003, 5.017436e+003
1.099136e+003, 5.018021e+003
1.099618e+003, 5.018813e+003
1.100100e+003, 5.019796e+003
1.100582e+003, 5.021077e+003
1.101064e+003, 5.021544e+003
1.101546e+003, 5.020835e+003
1.102028e+003, 5.020457e+003
1.102510e+003, 5.021850e+003
1.102993e+003, 5.023491e+003
1.103475e+003, 5.021739e+003
1.103957e+003, 5.018219e+003
1.104439e+003, 5.016638e+003
1.104921e+003, 5.022558e+003
1.105403e+003, 5.023947e+003
1.105885e+003, 5.018188e+003
1.106367e+003, 5.010612e+003
1.106849e+003, 5.005847e+003
1.107332e+003, 5.003616e+003
1.107814e+003, 5.003149e+003
1.108296e+003, 5.004265e+003
1.108778e+003, 5.005558e+003
1.109260e+003, 5.007831e+003
1.109742e+003, 5.008482e+003
1.110224e+003, 5.005780e+003
1.110706e+003, 5.001394e+003
1.111188e+003, 4.997638e+003
1.111671e+003, 4.994541e+003
1.112153e+003, 4.993342e+003
1.112635e+003, 4.994562e+003
1.113117e+003, 4.993827e+003
1.113599e+003, 4.981064e+003
1.114081e+003, 4.970247e+003
1.114563e+003, 4.977073e+003
1.115045e+003, 4.998707e+003
1.115528e+003, 5.006416e+003
1.116010e+003, 4.996620e+003
1.116492e+003, 4.995937e+003
1.116974e+003, 5.015043e+003
1.117456e+003, 5.038228e+003
1.117938e+003, 5.046329e+003
1.118420e+003, 5.046061e+003
1.118902e+003, 5.045784e+003
1.119385e+003, 5.046800e+003
1.119867e+003, 5.047204e+003
1.120349e+003, 5.045787e+003
1.120831e+003, 5.046468e+003
1.121313e+003, 5.053420e+003
1.121795e+003, 5.061798e+003
1.122277e+003, 5.060856e+003
1.122759e+003, 5.053177e+003
1.123241e+003, 5.044643e+003
1.123724e+003, 5.032563e+003
1.124206e+003, 5.028967e+003
1.124688e+003, 5.041754e+003
1.125170e+003, 5.054506e+003
1.125652e+003, 5.051241e+003
1.126134e+003, 5.036166e+003
1.126616e+003, 5.031361e+003
1.127098e+003, 5.035413e+003
1.127580e+003, 5.037620e+003
1.128063e+003, 5.028916e+003
1.128545e+003, 5.021241e+003
1.129027e+003, 5.020258e+003
1.129509e+003, 5.022568e+003
1.129991e+003, 5.023842e+003
1.130473e+003, 5.024077e+003
1.130955e+003, 5.026381e+003
1.131437e+003, 5.030977e+003
1.131920e+003, 5.035317e+003
1.132402e+003, 5.036564e+003
1.132884e+003, 5.037626e+003
1.133366e+003, 5.040951e+003
1.133848e+003, 5.045734e+003
1.134330e+003, 5.049040e+003
1.134812e+003, 5.050644e+003
1.135294e+003, 5.052771e+003
1.135776e+003, 5.056178e+003
1.136259e+003, 5.058659e+003
1.136741e+003, 5.053993e+003
1.137223e+003, 5.049888e+003
1.137705e+003, 5.056708e+003
1.138187e+003, 5.076199e+003
1.138669e+003, 5.087050e+003
1.139151e+003, 5.087791e+003
1.139633e+003, 5.083964e+003
1.140115e+003, 5.075718e+003
1.140598e+003, 5.067339e+003
1.141080e+003, 5.066857e+003
1.141562e+003, 5.069878e+003
1.142044e+003, 5.068645e+003
1.142526e+003, 5.058673e+003
1.143008e+003, 5.055470e+003
1.143490e+003, 5.063040e+003
1.143972e+003, 5.070808e+003
1.144455e+003, 5.072967e+003
1.144937e+003, 5.071563e+003
1.145419e+003, 5.070298e+003
1.145901e+003, 5.069552e+003
1.146383e+003, 5.070314e+003
1.146865e+003, 5.074849e+003
1.147347e+003, 5.077690e+003
1.147829e+003, 5.077446e+003
1.148312e+003, 5.076358e+003
1.148794e+003, 5.076421e+003
1.149276e+003, 5.077201e+003
1.149758e+003, 5.075838e+003
1.150240e+003, 5.072917e+003
1.150722e+003, 5.071612e+003
1.151204e+003, 5.075205e+003
1.151686e+003, 5.078625e+003
1.152168e+003, 5.080987e+003
1.152651e+003, 5.081698e+003
1.153133e+003, 5.078694e+003
1.153615e+003, 5.072649e+003
1.154097e+003, 5.070685e+003
1.154579e+003, 5.073210e+003
1.155061e+003, 5.077749e+003
1.155543e+003, 5.085405e+003
1.156025e+003, 5.091774e+003
1.156507e+003, 5.094028e+003
1.156990e+003, 5.093348e+003
1.157472e+003, 5.090042e+003
1.157954e+003, 5.084041e+003
1.158436e+003, 5.085695e+003
1.158918e+003, 5.097019e+003
1.159400e+003, 5.108427e+003
1.159882e+003, 5.111738e+003
1.160364e+003, 5.112465e+003
1.160847e+003, 5.116375e+003
1.161329e+003, 5.121752e+003
1.161811e+003, 5.117092e+003
1.162293e+003, 5.101000e+003
1.162775e+003, 5.092287e+003
1.163257e+003, 5.097274e+003
1.163739e+003, 5.103935e+003
1.164221e+003, 5.099671e+003
1.164703e+003, 5.091285e+003
1.165186e+003, 5.084407e+003
1.165668e+003, 5.079714e+003
1.166150e+003, 5.081792e+003
1.166632e+003, 5.092228e+003
1.167114e+003, 5.100250e+003
1.167596e+003, 5.101044e+003
1.168078e+003, 5.099664e+003
1.168560e+003, 5.101556e+003
1.169042e+003, 5.105825e+003
1.169525e+003, 5.112118e+003
1.170007e+003, 5.122239e+003
1.170489e+003, 5.125264e+003
1.170971e+003, 5.119021e+003
1.171453e+003, 5.113607e+003
1.171935e+003, 5.115326e+003
1.172417e+003, 5.119381e+003
1.172899e+003, 5.115301e+003
1.173382e+003, 5.108707e+003
1.173864e+003, 5.110419e+003
1.174346e+003, 5.130845e+003
1.174828e+003, 5.143222e+003
1.175310e+003, 5.145077e+003
1.175792e+003, 5.144672e+003
1.176274e+003, 5.148194e+003
1.176756e+003, 5.153253e+003
1.177239e+003, 5.155312e+003
1.177721e+003, 5.155170e+003
1.178203e+003, 5.154963e+003
1.178685e+003, 5.155834e+003
1.179167e+003, 5.156514e+003
1.179649e+003, 5.157990e+003
1.180131e+003, 5.157482e+003
1.180613e+003, 5.151655e+003
1.181095e+003, 5.142415e+003
1.181578e+003, 5.132031e+003
1.182060e+003, 5.121720e+003
1.182542e+003, 5.116209e+003
1.183024e+003, 5.120556e+003
1.183506e+003, 5.125584e+003
1.183988e+003, 5.130366e+003
1.184470e+003, 5.134626e+003
1.184952e+003, 5.138025e+003
1.185434e+003, 5.140601e+003
1.185917e+003, 5.141382e+003
1.186399e+003, 5.140799e+003
1.186881e+003, 5.143216e+003
1.187363e+003, 5.154472e+003
1.187845e+003, 5.163153e+003
1.188327e+003, 5.165904e+003
1.188809e+003, 5.166079e+003
1.189291e+003, 5.169933e+003
1.189774e+003, 5.175304e+003
1.190256e+003, 5.173969e+003
1.190738e+003, 5.165151e+003
1.191220e+003, 5.160220e+003
1.191702e+003, 5.169005e+003
1.192184e+003, 5.176316e+003
1.192666e+003, 5.176826e+003
1.193148e+003, 5.174031e+003
1.193630e+003, 5.176003e+003
1.194113e+003, 5.180717e+003
1.194595e+003, 5.180757e+003
1.195077e+003, 5.174644e+003
1.195559e+003, 5.167705e+003
1.196041e+003, 5.158716e+003
1.196523e+003, 5.154380e+003
1.197005e+003, 5.158559e+003
1.197487e+003, 5.167890e+003
1.197969e+003, 5.173752e+003
1.198452e+003, 5.176778e+003
1.198934e+003, 5.179854e+003
1.199416e+003, 5.183947e+003
1.199898e+003, 5.185843e+003
1.200380e+003, 5.182668e+003
1.200862e+003, 5.178005e+003
1.201344e+003, 5.173105e+003
1.201826e+003, 5.168233e+003
1.202309e+003, 5.163625e+003
1.202791e+003, 5.159979e+003
1.203273e+003, 5.161003e+003
1.203755e+003, 5.169917e+003
1.204237e+003, 5.177038e+003
1.204719e+003, 5.177522e+003
1.205201e+003, 5.175368e+003
1.205683e+003, 5.172876e+003
1.206166e+003, 5.169681e+003
1.206648e+003, 5.161794e+003
1.207130e+003, 5.150893e+003
1.207612e+003, 5.143731e+003
1.208094e+003, 5.143854e+003
1.208576e+003, 5.145917e+003
1.209058e+003, 5.148300e+003
1.209540e+003, 5.151289e+003
1.210022e+003, 5.154502e+003
1.210505e+003, 5.158396e+003
1.210987e+003, 5.168918e+003
1.211469e+003, 5.183647e+003
1.211951e+003, 5.190507e+003
1.212433e+003, 5.176394e+003
1.212915e+003, 5.166339e+003
1.213397e+003, 5.174778e+003
1.213879e+003, 5.185945e+003
1.214361e+003, 5.187921e+003
1.214844e+003, 5.182219e+003
1.215326e+003, 5.179185e+003
1.215808e+003, 5.178837e+003
1.216290e+003, 5.181229e+003
1.216772e+003, 5.190207e+003
1.217254e+003, 5.196747e+003
1.217736e+003, 5.195905e+003
1.218218e+003, 5.193910e+003
1.218701e+003, 5.197028e+003
1.219183e+003, 5.203974e+003
1.219665e+003, 5.205481e+003
1.220147e+003, 5.202379e+003
1.220629e+003, 5.199790e+003
1.221111e+003, 5.202478e+003
1.221593e+003, 5.202900e+003
1.222075e+003, 5.196713e+003
1.222557e+003, 5.190341e+003
1.223040e+003, 5.192036e+003
1.223522e+003, 5.199465e+003
1.224004e+003, 5.199813e+003
1.224486e+003, 5.194018e+003
1.224968e+003, 5.189683e+003
1.225450e+003, 5.193031e+003
1.225932e+003, 5.194737e+003
1.226414e+003, 5.191268e+003
1.226896e+003, 5.187107e+003
1.227379e+003, 5.188623e+003
1.227861e+003, 5.193674e+003
1.228343e+003, 5.194236e+003
1.228825e+003, 5.190470e+003
1.229307e+003, 5.186519e+003
1.229789e+003, 5.184587e+003
1.230271e+003, 5.181948e+003
1.230753e+003, 5.177045e+003
1.231236e+003, 5.172657e+003
1.231718e+003, 5.174074e+003
1.232200e+003, 5.178606e+003
1.232682e+003, 5.177112e+003
1.233164e+003, 5.170178e+003
1.233646e+003, 5.167208e+003
1.234128e+003, 5.175780e+003
1.234610e+003, 5.184116e+003
1.235093e+003, 5.190580e+003
1.235575e+003, 5.194820e+003
1.236057e+003, 5.194515e+003
1.236539e+003, 5.192110e+003
1.237021e+003, 5.192491e+003
1.237503e+003, 5.196114e+003
1.237985e+003, 5.203159e+003
1.238467e+003, 5.219646e+003
1.238949e+003, 5.229812e+003
1.239432e+003, 5.229620e+003
1.239914e+003, 5.225243e+003
1.240396e+003, 5.225243e+003
1.240878e+003, 5.227050e+003
1.241360e+003, 5.224739e+003
1.241842e+003, 5.218308e+003
1.242324e+003, 5.216077e+003
1.242806e+003, 5.221397e+003
1.243288e+003, 5.227414e+003
1.243771e+003, 5.233569e+003
1.244253e+003, 5.238134e+003
1.244735e+003, 5.236625e+003
1.245217e+003, 5.233287e+003
1.245699e+003, 5.235590e+003
1.246181e+003, 5.243741e+003
1.246663e+003, 5.248630e+003
1.247145e+003, 5.249392e+003
1.247628e+003, 5.247026e+003
1.248110e+003, 5.241014e+003
1.248592e+003, 5.234665e+003
1.249074e+003, 5.230996e+003
1.249556e+003, 5.230270e+003
1.250038e+003, 5.235529e+003
1.250520e+003, 5.245938e+003
1.251002e+003, 5.245577e+003
1.251484e+003, 5.230510e+003
1.251967e+003, 5.220546e+003
1.252449e+003, 5.220373e+003
1.252931e+003, 5.225835e+003
1.253413e+003, 5.238468e+003
1.253895e+003, 5.249917e+003
1.254377e+003, 5.248783e+003
1.254859e+003, 5.235976e+003
1.255341e+003, 5.231193e+003
1.255823e+003, 5.235284e+003
1.256306e+003, 5.240175e+003
1.256788e+003, 5.244313e+003
1.257270e+003, 5.246815e+003
1.257752e+003, 5.244954e+003
1.258234e+003, 5.242581e+003
1.258716e+003, 5.243357e+003
1.259198e+003, 5.246719e+003
1.259680e+003, 5.250257e+003
1.260163e+003, 5.254007e+003
1.260645e+003, 5.254714e+003
1.261127e+003, 5.251218e+003
1.261609e+003, 5.247669e+003
1.262091e+003, 5.247188e+003
1.262573e+003, 5.247980e+003
1.263055e+003, 5.249456e+003
1.263537e+003, 5.251058e+003
1.264020e+003, 5.250646e+003
1.264502e+003, 5.248439e+003
1.264984e+003, 5.245712e+003
1.265466e+003, 5.242645e+003
1.265948e+003, 5.240101e+003
1.266430e+003, 5.238679e+003
1.266912e+003, 5.237872e+003
1.267394e+003, 5.237601e+003
1.267876e+003, 5.237482e+003
1.268359e+003, 5.236025e+003
1.268841e+003, 5.233759e+003
1.269323e+003, 5.232967e+003
1.269805e+003, 5.234341e+003
1.270287e+003, 5.235231e+003
1.270769e+003, 5.232919e+003
1.271251e+003, 5.232253e+003
1.271733e+003, 5.235979e+003
1.272215e+003, 5.240974e+003
1.272698e+003, 5.239224e+003
1.273180e+003, 5.233721e+003
1.273662e+003, 5.230921e+003
1.274144e+003, 5.232060e+003
1.274626e+003, 5.236357e+003
1.275108e+003, 5.248104e+003
1.275590e+003, 5.253107e+003
1.276072e+003, 5.244633e+003
1.276555e+003, 5.231438e+003
1.277037e+003, 5.227429e+003
1.277519e+003, 5.228757e+003
1.278001e+003, 5.229309e+003
1.278483e+003, 5.227927e+003
1.278965e+003, 5.229650e+003
1.279447e+003, 5.235228e+003
1.279929e+003, 5.241389e+003
1.280411e+003, 5.247356e+003
1.280894e+003, 5.252373e+003
1.281376e+003, 5.256339e+003
1.281858e+003, 5.258286e+003
1.282340e+003, 5.255336e+003
1.282822e+003, 5.247813e+003
1.283304e+003, 5.248133e+003
1.283786e+003, 5.257318e+003
1.284268e+003, 5.263403e+003
1.284750e+003, 5.262729e+003
1.285233e+003, 5.260364e+003
1.285715e+003, 5.261396e+003
1.286197e+003, 5.262522e+003
1.286679e+003, 5.260168e+003
1.287161e+003, 5.255609e+003
1.287643e+003, 5.255221e+003
1.288125e+003, 5.258570e+003
1.288607e+003, 5.259354e+003
1.289090e+003, 5.255983e+003
1.289572e+003, 5.250911e+003
1.290054e+003, 5.241376e+003
1.290536e+003, 5.235713e+003
1.291018e+003, 5.239627e+003
1.291500e+003, 5.248870e+003
1.291982e+003, 5.251070e+003
1.292464e+003, 5.248242e+003
1.292947e+003, 5.248184e+003
1.293429e+003, 5.252704e+003
1.293911e+003, 5.256262e+003
1.294393e+003, 5.253279e+003
1.294875e+003, 5.253505e+003
1.295357e+003, 5.260896e+003
1.295839e+003, 5.270825e+003
1.296321e+003, 5.275679e+003
1.296803e+003, 5.277309e+003
1.297286e+003, 5.279050e+003
1.297768e+003, 5.281401e+003
1.298250e+003, 5.280661e+003
1.298732e+003, 5.275534e+003
1.299214e+003, 5.269524e+003
1.299696e+003, 5.262895e+003
1.300178e+003, 5.258481e+003
1.300660e+003, 5.260688e+003
##END=



