##NAMES=Wendwilsonite
##RRUFFID=R180010
##IDEAL CHEMISTRY=Ca_2_Mg(As^5+^O_4_)_2_&#183;2H_2_O
##LOCALITY=Bou Azzer, Morrocco
##OWNER=RRUFF
##SOURCE=Wendell Wilson
##DESCRIPTION=Red fragments. Photo from Wendell Wilson
##STATUS=The identification of this mineral is confirmed by single-crystal X-ray diffraction and chemical analysis.
##URL=rruff.info/R180010
##MEASURED CHEMISTRY=Ca_1.99_(Mg_0.52_Co_0.38_Zn_0.07_Ni_0.01_)_Σ=0.98_(AsO_4_)_2_·2H_2_O
8.758203e+001, 6.078794e+003
8.806415e+001, 6.009262e+003
8.854626e+001, 5.997235e+003
8.902838e+001, 6.060330e+003
8.951050e+001, 6.148169e+003
8.999261e+001, 6.250238e+003
9.047473e+001, 6.362487e+003
9.095685e+001, 6.473011e+003
9.143896e+001, 6.571991e+003
9.192108e+001, 6.658576e+003
9.240320e+001, 6.736121e+003
9.288531e+001, 6.713045e+003
9.336743e+001, 6.565433e+003
9.384955e+001, 6.350292e+003
9.433167e+001, 6.170370e+003
9.481378e+001, 5.996933e+003
9.529590e+001, 5.850816e+003
9.577802e+001, 5.729472e+003
9.626013e+001, 5.627250e+003
9.674225e+001, 5.538493e+003
9.722437e+001, 5.461187e+003
9.770648e+001, 5.400010e+003
9.818860e+001, 5.357354e+003
9.867072e+001, 5.327108e+003
9.915283e+001, 5.304996e+003
9.963495e+001, 5.290195e+003
1.001171e+002, 5.285307e+003
1.005992e+002, 5.291597e+003
1.010813e+002, 5.300684e+003
1.015634e+002, 5.341152e+003
1.020455e+002, 5.423378e+003
1.025277e+002, 5.521883e+003
1.030098e+002, 5.630167e+003
1.034919e+002, 5.744579e+003
1.039740e+002, 5.846980e+003
1.044561e+002, 5.876430e+003
1.049382e+002, 5.797073e+003
1.054204e+002, 5.681475e+003
1.059025e+002, 5.516281e+003
1.063846e+002, 5.320398e+003
1.068667e+002, 5.121025e+003
1.073488e+002, 4.930053e+003
1.078309e+002, 4.752100e+003
1.083131e+002, 4.613403e+003
1.087952e+002, 4.524626e+003
1.092773e+002, 4.457405e+003
1.097594e+002, 4.400755e+003
1.102415e+002, 4.353597e+003
1.107236e+002, 4.312382e+003
1.112058e+002, 4.274612e+003
1.116879e+002, 4.240926e+003
1.121700e+002, 4.213678e+003
1.126521e+002, 4.196493e+003
1.131342e+002, 4.185349e+003
1.136163e+002, 4.174378e+003
1.140985e+002, 4.164299e+003
1.145806e+002, 4.152410e+003
1.150627e+002, 4.135515e+003
1.155448e+002, 4.115515e+003
1.160269e+002, 4.096726e+003
1.165090e+002, 4.082378e+003
1.169912e+002, 4.072411e+003
1.174733e+002, 4.062680e+003
1.179554e+002, 4.050596e+003
1.184375e+002, 4.041037e+003
1.189196e+002, 4.036217e+003
1.194017e+002, 4.035968e+003
1.198839e+002, 4.038639e+003
1.203660e+002, 4.042212e+003
1.208481e+002, 4.045633e+003
1.213302e+002, 4.052741e+003
1.218123e+002, 4.062743e+003
1.222944e+002, 4.075759e+003
1.227766e+002, 4.094282e+003
1.232587e+002, 4.118134e+003
1.237408e+002, 4.142626e+003
1.242229e+002, 4.158952e+003
1.247050e+002, 4.168905e+003
1.251871e+002, 4.165958e+003
1.256693e+002, 4.142447e+003
1.261514e+002, 4.107839e+003
1.266335e+002, 4.073282e+003
1.271156e+002, 4.042977e+003
1.275977e+002, 4.016712e+003
1.280798e+002, 3.993966e+003
1.285620e+002, 3.973858e+003
1.290441e+002, 3.957027e+003
1.295262e+002, 3.944680e+003
1.300083e+002, 3.936188e+003
1.304904e+002, 3.928979e+003
1.309725e+002, 3.921531e+003
1.314547e+002, 3.914985e+003
1.319368e+002, 3.911391e+003
1.324189e+002, 3.912600e+003
1.329010e+002, 3.914749e+003
1.333831e+002, 3.912728e+003
1.338652e+002, 3.905221e+003
1.343474e+002, 3.900778e+003
1.348295e+002, 3.906531e+003
1.353116e+002, 3.917001e+003
1.357937e+002, 3.926358e+003
1.362758e+002, 3.931140e+003
1.367579e+002, 3.934284e+003
1.372401e+002, 3.943804e+003
1.377222e+002, 3.962866e+003
1.382043e+002, 3.984098e+003
1.386864e+002, 4.007173e+003
1.391685e+002, 4.030200e+003
1.396507e+002, 4.051159e+003
1.401328e+002, 4.069582e+003
1.406149e+002, 4.085276e+003
1.410970e+002, 4.089934e+003
1.415791e+002, 4.077104e+003
1.420612e+002, 4.058479e+003
1.425434e+002, 4.032503e+003
1.430255e+002, 4.002406e+003
1.435076e+002, 3.974299e+003
1.439897e+002, 3.953974e+003
1.444718e+002, 3.942913e+003
1.449539e+002, 3.932096e+003
1.454361e+002, 3.917785e+003
1.459182e+002, 3.906454e+003
1.464003e+002, 3.903501e+003
1.468824e+002, 3.908665e+003
1.473645e+002, 3.915889e+003
1.478466e+002, 3.918344e+003
1.483288e+002, 3.914391e+003
1.488109e+002, 3.910310e+003
1.492930e+002, 3.902920e+003
1.497751e+002, 3.896864e+003
1.502572e+002, 3.898053e+003
1.507393e+002, 3.908331e+003
1.512215e+002, 3.922311e+003
1.517036e+002, 3.932979e+003
1.521857e+002, 3.940600e+003
1.526678e+002, 3.947348e+003
1.531499e+002, 3.953372e+003
1.536320e+002, 3.958988e+003
1.541142e+002, 3.964795e+003
1.545963e+002, 3.970500e+003
1.550784e+002, 3.977163e+003
1.555605e+002, 3.985622e+003
1.560426e+002, 3.995807e+003
1.565247e+002, 4.007340e+003
1.570069e+002, 4.020884e+003
1.574890e+002, 4.036379e+003
1.579711e+002, 4.050074e+003
1.584532e+002, 4.058489e+003
1.589353e+002, 4.066873e+003
1.594174e+002, 4.078443e+003
1.598996e+002, 4.093670e+003
1.603817e+002, 4.111144e+003
1.608638e+002, 4.128943e+003
1.613459e+002, 4.146126e+003
1.618280e+002, 4.166970e+003
1.623102e+002, 4.196102e+003
1.627923e+002, 4.226122e+003
1.632744e+002, 4.251352e+003
1.637565e+002, 4.270415e+003
1.642386e+002, 4.286583e+003
1.647207e+002, 4.306277e+003
1.652029e+002, 4.330415e+003
1.656850e+002, 4.356966e+003
1.661671e+002, 4.385354e+003
1.666492e+002, 4.415678e+003
1.671313e+002, 4.449046e+003
1.676134e+002, 4.485678e+003
1.680956e+002, 4.524191e+003
1.685777e+002, 4.560547e+003
1.690598e+002, 4.590470e+003
1.695419e+002, 4.623087e+003
1.700240e+002, 4.660388e+003
1.705061e+002, 4.700626e+003
1.709883e+002, 4.741112e+003
1.714704e+002, 4.780309e+003
1.719525e+002, 4.819306e+003
1.724346e+002, 4.863020e+003
1.729167e+002, 4.911947e+003
1.733988e+002, 4.964134e+003
1.738810e+002, 5.020905e+003
1.743631e+002, 5.080743e+003
1.748452e+002, 5.139040e+003
1.753273e+002, 5.191827e+003
1.758094e+002, 5.242089e+003
1.762915e+002, 5.298134e+003
1.767737e+002, 5.360455e+003
1.772558e+002, 5.427499e+003
1.777379e+002, 5.500422e+003
1.782200e+002, 5.578519e+003
1.787021e+002, 5.656932e+003
1.791842e+002, 5.731175e+003
1.796664e+002, 5.804854e+003
1.801485e+002, 5.885405e+003
1.806306e+002, 5.978611e+003
1.811127e+002, 6.073476e+003
1.815948e+002, 6.158152e+003
1.820769e+002, 6.232352e+003
1.825591e+002, 6.297638e+003
1.830412e+002, 6.352899e+003
1.835233e+002, 6.399889e+003
1.840054e+002, 6.439759e+003
1.844875e+002, 6.473489e+003
1.849696e+002, 6.498869e+003
1.854518e+002, 6.511063e+003
1.859339e+002, 6.507696e+003
1.864160e+002, 6.495206e+003
1.868981e+002, 6.477698e+003
1.873802e+002, 6.453521e+003
1.878623e+002, 6.419749e+003
1.883445e+002, 6.374383e+003
1.888266e+002, 6.319397e+003
1.893087e+002, 6.262612e+003
1.897908e+002, 6.207225e+003
1.902729e+002, 6.143636e+003
1.907550e+002, 6.072326e+003
1.912372e+002, 5.991863e+003
1.917193e+002, 5.899586e+003
1.922014e+002, 5.792960e+003
1.926835e+002, 5.674284e+003
1.931656e+002, 5.560138e+003
1.936477e+002, 5.453155e+003
1.941299e+002, 5.349290e+003
1.946120e+002, 5.244880e+003
1.950941e+002, 5.143329e+003
1.955762e+002, 5.050915e+003
1.960583e+002, 4.971850e+003
1.965404e+002, 4.905724e+003
1.970226e+002, 4.846101e+003
1.975047e+002, 4.793255e+003
1.979868e+002, 4.746123e+003
1.984689e+002, 4.704780e+003
1.989510e+002, 4.669114e+003
1.994331e+002, 4.639483e+003
1.999153e+002, 4.616255e+003
2.003974e+002, 4.599389e+003
2.008795e+002, 4.585181e+003
2.013616e+002, 4.576127e+003
2.018437e+002, 4.566674e+003
2.023258e+002, 4.554376e+003
2.028080e+002, 4.539496e+003
2.032901e+002, 4.523690e+003
2.037722e+002, 4.508247e+003
2.042543e+002, 4.492806e+003
2.047364e+002, 4.474029e+003
2.052185e+002, 4.452097e+003
2.057007e+002, 4.427083e+003
2.061828e+002, 4.397542e+003
2.066649e+002, 4.364043e+003
2.071470e+002, 4.331483e+003
2.076291e+002, 4.304165e+003
2.081112e+002, 4.280856e+003
2.085934e+002, 4.254649e+003
2.090755e+002, 4.220940e+003
2.095576e+002, 4.187168e+003
2.100397e+002, 4.161496e+003
2.105218e+002, 4.144271e+003
2.110039e+002, 4.126436e+003
2.114861e+002, 4.099101e+003
2.119682e+002, 4.067314e+003
2.124503e+002, 4.041304e+003
2.129324e+002, 4.027034e+003
2.134145e+002, 4.016634e+003
2.138967e+002, 3.999007e+003
2.143788e+002, 3.971939e+003
2.148609e+002, 3.947895e+003
2.153430e+002, 3.936671e+003
2.158251e+002, 3.932205e+003
2.163072e+002, 3.927872e+003
2.167894e+002, 3.921771e+003
2.172715e+002, 3.914494e+003
2.177536e+002, 3.906658e+003
2.182357e+002, 3.897632e+003
2.187178e+002, 3.889824e+003
2.191999e+002, 3.882369e+003
2.196821e+002, 3.877098e+003
2.201642e+002, 3.877102e+003
2.206463e+002, 3.884895e+003
2.211284e+002, 3.896945e+003
2.216105e+002, 3.904594e+003
2.220926e+002, 3.903729e+003
2.225748e+002, 3.907033e+003
2.230569e+002, 3.921178e+003
2.235390e+002, 3.939896e+003
2.240211e+002, 3.956646e+003
2.245032e+002, 3.968515e+003
2.249853e+002, 3.976448e+003
2.254675e+002, 3.983068e+003
2.259496e+002, 3.987551e+003
2.264317e+002, 3.991920e+003
2.269138e+002, 3.997116e+003
2.273959e+002, 4.002262e+003
2.278780e+002, 4.005652e+003
2.283602e+002, 4.006219e+003
2.288423e+002, 4.005881e+003
2.293244e+002, 4.010999e+003
2.298065e+002, 4.025286e+003
2.302886e+002, 4.040371e+003
2.307707e+002, 4.053313e+003
2.312529e+002, 4.067013e+003
2.317350e+002, 4.085205e+003
2.322171e+002, 4.109712e+003
2.326992e+002, 4.138830e+003
2.331813e+002, 4.167141e+003
2.336634e+002, 4.195448e+003
2.341456e+002, 4.221828e+003
2.346277e+002, 4.245437e+003
2.351098e+002, 4.267375e+003
2.355919e+002, 4.289653e+003
2.360740e+002, 4.313231e+003
2.365561e+002, 4.336226e+003
2.370383e+002, 4.353010e+003
2.375204e+002, 4.363001e+003
2.380025e+002, 4.366635e+003
2.384846e+002, 4.363712e+003
2.389667e+002, 4.354536e+003
2.394488e+002, 4.339217e+003
2.399310e+002, 4.317709e+003
2.404131e+002, 4.290693e+003
2.408952e+002, 4.259435e+003
2.413773e+002, 4.217288e+003
2.418594e+002, 4.179868e+003
2.423415e+002, 4.149632e+003
2.428237e+002, 4.124700e+003
2.433058e+002, 4.104022e+003
2.437879e+002, 4.087415e+003
2.442700e+002, 4.072103e+003
2.447521e+002, 4.051430e+003
2.452342e+002, 4.021541e+003
2.457164e+002, 3.994306e+003
2.461985e+002, 3.972915e+003
2.466806e+002, 3.954632e+003
2.471627e+002, 3.936045e+003
2.476448e+002, 3.915966e+003
2.481269e+002, 3.894858e+003
2.486091e+002, 3.872840e+003
2.490912e+002, 3.849061e+003
2.495733e+002, 3.827162e+003
2.500554e+002, 3.809051e+003
2.505375e+002, 3.792767e+003
2.510196e+002, 3.774925e+003
2.515018e+002, 3.754302e+003
2.519839e+002, 3.733727e+003
2.524660e+002, 3.717864e+003
2.529481e+002, 3.706656e+003
2.534302e+002, 3.696458e+003
2.539123e+002, 3.686531e+003
2.543945e+002, 3.677093e+003
2.548766e+002, 3.668557e+003
2.553587e+002, 3.661127e+003
2.558408e+002, 3.654168e+003
2.563229e+002, 3.646110e+003
2.568051e+002, 3.637133e+003
2.572872e+002, 3.630854e+003
2.577693e+002, 3.629727e+003
2.582514e+002, 3.631473e+003
2.587335e+002, 3.632099e+003
2.592156e+002, 3.630576e+003
2.596978e+002, 3.629591e+003
2.601799e+002, 3.633748e+003
2.606620e+002, 3.641209e+003
2.611441e+002, 3.645278e+003
2.616262e+002, 3.639891e+003
2.621083e+002, 3.631052e+003
2.625905e+002, 3.629315e+003
2.630726e+002, 3.636909e+003
2.635547e+002, 3.645750e+003
2.640368e+002, 3.649184e+003
2.645189e+002, 3.649212e+003
2.650010e+002, 3.649449e+003
2.654832e+002, 3.651241e+003
2.659653e+002, 3.653866e+003
2.664474e+002, 3.656200e+003
2.669295e+002, 3.658183e+003
2.674116e+002, 3.660202e+003
2.678937e+002, 3.662048e+003
2.683759e+002, 3.664206e+003
2.688580e+002, 3.667547e+003
2.693401e+002, 3.672711e+003
2.698222e+002, 3.678874e+003
2.703043e+002, 3.684428e+003
2.707864e+002, 3.688861e+003
2.712686e+002, 3.694944e+003
2.717507e+002, 3.707445e+003
2.722328e+002, 3.721214e+003
2.727149e+002, 3.729731e+003
2.731970e+002, 3.729266e+003
2.736791e+002, 3.727237e+003
2.741613e+002, 3.734612e+003
2.746434e+002, 3.753428e+003
2.751255e+002, 3.771355e+003
2.756076e+002, 3.781905e+003
2.760897e+002, 3.790537e+003
2.765718e+002, 3.801345e+003
2.770540e+002, 3.815281e+003
2.775361e+002, 3.831352e+003
2.780182e+002, 3.848083e+003
2.785003e+002, 3.865058e+003
2.789824e+002, 3.885522e+003
2.794645e+002, 3.914301e+003
2.799467e+002, 3.944506e+003
2.804288e+002, 3.971205e+003
2.809109e+002, 3.993710e+003
2.813930e+002, 4.015216e+003
2.818751e+002, 4.039803e+003
2.823572e+002, 4.067945e+003
2.828394e+002, 4.093141e+003
2.833215e+002, 4.117698e+003
2.838036e+002, 4.135567e+003
2.842857e+002, 4.142059e+003
2.847678e+002, 4.137599e+003
2.852499e+002, 4.127374e+003
2.857321e+002, 4.115177e+003
2.862142e+002, 4.101036e+003
2.866963e+002, 4.084781e+003
2.871784e+002, 4.064990e+003
2.876605e+002, 4.044322e+003
2.881426e+002, 4.022901e+003
2.886248e+002, 4.001420e+003
2.891069e+002, 3.981689e+003
2.895890e+002, 3.963911e+003
2.900711e+002, 3.948353e+003
2.905532e+002, 3.939769e+003
2.910353e+002, 3.940686e+003
2.915175e+002, 3.946259e+003
2.919996e+002, 3.954866e+003
2.924817e+002, 3.966258e+003
2.929638e+002, 3.979895e+003
2.934459e+002, 3.994868e+003
2.939280e+002, 4.012120e+003
2.944102e+002, 4.035809e+003
2.948923e+002, 4.070048e+003
2.953744e+002, 4.104849e+003
2.958565e+002, 4.135859e+003
2.963386e+002, 4.165966e+003
2.968207e+002, 4.198459e+003
2.973029e+002, 4.234626e+003
2.977850e+002, 4.274509e+003
2.982671e+002, 4.317552e+003
2.987492e+002, 4.361814e+003
2.992313e+002, 4.414161e+003
2.997134e+002, 4.479344e+003
3.001956e+002, 4.550304e+003
3.006777e+002, 4.622898e+003
3.011598e+002, 4.696110e+003
3.016419e+002, 4.764438e+003
3.021240e+002, 4.817624e+003
3.026061e+002, 4.852495e+003
3.030883e+002, 4.880329e+003
3.035704e+002, 4.907353e+003
3.040525e+002, 4.925624e+003
3.045346e+002, 4.928128e+003
3.050167e+002, 4.913971e+003
3.054988e+002, 4.888968e+003
3.059810e+002, 4.857767e+003
3.064631e+002, 4.818158e+003
3.069452e+002, 4.782604e+003
3.074273e+002, 4.753198e+003
3.079094e+002, 4.727133e+003
3.083915e+002, 4.702356e+003
3.088737e+002, 4.679421e+003
3.093558e+002, 4.660796e+003
3.098379e+002, 4.650080e+003
3.103200e+002, 4.647647e+003
3.108021e+002, 4.644196e+003
3.112842e+002, 4.634490e+003
3.117664e+002, 4.629343e+003
3.122485e+002, 4.632777e+003
3.127306e+002, 4.643710e+003
3.132127e+002, 4.659251e+003
3.136948e+002, 4.677280e+003
3.141769e+002, 4.698192e+003
3.146591e+002, 4.724881e+003
3.151412e+002, 4.759303e+003
3.156233e+002, 4.797670e+003
3.161054e+002, 4.835401e+003
3.165875e+002, 4.876853e+003
3.170696e+002, 4.928360e+003
3.175518e+002, 4.993392e+003
3.180339e+002, 5.068599e+003
3.185160e+002, 5.144919e+003
3.189981e+002, 5.221399e+003
3.194802e+002, 5.301366e+003
3.199623e+002, 5.383952e+003
3.204445e+002, 5.470913e+003
3.209266e+002, 5.563188e+003
3.214087e+002, 5.661383e+003
3.218908e+002, 5.764719e+003
3.223729e+002, 5.871894e+003
3.228550e+002, 5.983963e+003
3.233372e+002, 6.097165e+003
3.238193e+002, 6.209120e+003
3.243014e+002, 6.323492e+003
3.247835e+002, 6.440947e+003
3.252656e+002, 6.562151e+003
3.257477e+002, 6.691863e+003
3.262299e+002, 6.835068e+003
3.267120e+002, 6.991835e+003
3.271941e+002, 7.157288e+003
3.276762e+002, 7.327766e+003
3.281583e+002, 7.512407e+003
3.286404e+002, 7.717280e+003
3.291226e+002, 7.940029e+003
3.296047e+002, 8.174351e+003
3.300868e+002, 8.414106e+003
3.305689e+002, 8.661102e+003
3.310510e+002, 8.927860e+003
3.315331e+002, 9.215641e+003
3.320153e+002, 9.524047e+003
3.324974e+002, 9.857389e+003
3.329795e+002, 1.020654e+004
3.334616e+002, 1.056016e+004
3.339437e+002, 1.091524e+004
3.344258e+002, 1.126861e+004
3.349080e+002, 1.161344e+004
3.353901e+002, 1.195827e+004
3.358722e+002, 1.227518e+004
3.363543e+002, 1.257639e+004
3.368365e+002, 1.283974e+004
3.373186e+002, 1.304796e+004
3.378007e+002, 1.319639e+004
3.382828e+002, 1.327826e+004
3.387649e+002, 1.328519e+004
3.392470e+002, 1.321636e+004
3.397292e+002, 1.307774e+004
3.402113e+002, 1.283888e+004
3.406934e+002, 1.254822e+004
3.411755e+002, 1.222518e+004
3.416576e+002, 1.187488e+004
3.421397e+002, 1.151004e+004
3.426219e+002, 1.113290e+004
3.431040e+002, 1.074617e+004
3.435861e+002, 1.037929e+004
3.440682e+002, 1.003079e+004
3.445503e+002, 9.710074e+003
3.450324e+002, 9.417686e+003
3.455146e+002, 9.152458e+003
3.459967e+002, 8.911111e+003
3.464788e+002, 8.693904e+003
3.469609e+002, 8.499813e+003
3.474430e+002, 8.328857e+003
3.479251e+002, 8.183277e+003
3.484073e+002, 8.055016e+003
3.488894e+002, 7.943565e+003
3.493715e+002, 7.845251e+003
3.498536e+002, 7.756666e+003
3.503357e+002, 7.677337e+003
3.508178e+002, 7.606603e+003
3.513000e+002, 7.545910e+003
3.517821e+002, 7.495831e+003
3.522642e+002, 7.445637e+003
3.527463e+002, 7.390191e+003
3.532284e+002, 7.334177e+003
3.537105e+002, 7.284450e+003
3.541927e+002, 7.242440e+003
3.546748e+002, 7.196142e+003
3.551569e+002, 7.137291e+003
3.556390e+002, 7.067122e+003
3.561211e+002, 6.990563e+003
3.566032e+002, 6.908190e+003
3.570854e+002, 6.819563e+003
3.575675e+002, 6.723160e+003
3.580496e+002, 6.619500e+003
3.585317e+002, 6.512769e+003
3.590138e+002, 6.405617e+003
3.594959e+002, 6.295635e+003
3.599781e+002, 6.176991e+003
3.604602e+002, 6.049362e+003
3.609423e+002, 5.917233e+003
3.614244e+002, 5.780160e+003
3.619065e+002, 5.642530e+003
3.623886e+002, 5.514551e+003
3.628708e+002, 5.400934e+003
3.633529e+002, 5.294500e+003
3.638350e+002, 5.189867e+003
3.643171e+002, 5.087743e+003
3.647992e+002, 4.991458e+003
3.652813e+002, 4.903030e+003
3.657635e+002, 4.821975e+003
3.662456e+002, 4.745686e+003
3.667277e+002, 4.674782e+003
3.672098e+002, 4.607489e+003
3.676919e+002, 4.543243e+003
3.681740e+002, 4.482134e+003
3.686562e+002, 4.423782e+003
3.691383e+002, 4.367737e+003
3.696204e+002, 4.316237e+003
3.701025e+002, 4.272466e+003
3.705846e+002, 4.236653e+003
3.710667e+002, 4.205938e+003
3.715489e+002, 4.184995e+003
3.720310e+002, 4.165755e+003
3.725131e+002, 4.140442e+003
3.729952e+002, 4.108871e+003
3.734773e+002, 4.076221e+003
3.739594e+002, 4.044993e+003
3.744416e+002, 4.015913e+003
3.749237e+002, 3.995612e+003
3.754058e+002, 3.990111e+003
3.758879e+002, 3.985911e+003
3.763700e+002, 3.980067e+003
3.768521e+002, 3.971443e+003
3.773343e+002, 3.957361e+003
3.778164e+002, 3.936218e+003
3.782985e+002, 3.910752e+003
3.787806e+002, 3.887211e+003
3.792627e+002, 3.865303e+003
3.797448e+002, 3.845884e+003
3.802270e+002, 3.830566e+003
3.807091e+002, 3.816979e+003
3.811912e+002, 3.802852e+003
3.816733e+002, 3.787712e+003
3.821554e+002, 3.772382e+003
3.826375e+002, 3.757349e+003
3.831197e+002, 3.742117e+003
3.836018e+002, 3.730205e+003
3.840839e+002, 3.723058e+003
3.845660e+002, 3.717182e+003
3.850481e+002, 3.711404e+003
3.855302e+002, 3.705592e+003
3.860124e+002, 3.700199e+003
3.864945e+002, 3.695704e+003
3.869766e+002, 3.691533e+003
3.874587e+002, 3.684445e+003
3.879408e+002, 3.668007e+003
3.884229e+002, 3.656545e+003
3.889051e+002, 3.654205e+003
3.893872e+002, 3.656206e+003
3.898693e+002, 3.657912e+003
3.903514e+002, 3.657726e+003
3.908335e+002, 3.656647e+003
3.913156e+002, 3.656293e+003
3.917978e+002, 3.657072e+003
3.922799e+002, 3.657473e+003
3.927620e+002, 3.656389e+003
3.932441e+002, 3.655889e+003
3.937262e+002, 3.656666e+003
3.942083e+002, 3.658956e+003
3.946905e+002, 3.663049e+003
3.951726e+002, 3.669579e+003
3.956547e+002, 3.678262e+003
3.961368e+002, 3.685943e+003
3.966189e+002, 3.690307e+003
3.971010e+002, 3.697121e+003
3.975832e+002, 3.709200e+003
3.980653e+002, 3.724133e+003
3.985474e+002, 3.738991e+003
3.990295e+002, 3.752813e+003
3.995116e+002, 3.765598e+003
3.999937e+002, 3.776487e+003
4.004759e+002, 3.784501e+003
4.009580e+002, 3.795721e+003
4.014401e+002, 3.816426e+003
4.019222e+002, 3.837274e+003
4.024043e+002, 3.851362e+003
4.028864e+002, 3.858465e+003
4.033686e+002, 3.863695e+003
4.038507e+002, 3.871754e+003
4.043328e+002, 3.881296e+003
4.048149e+002, 3.886443e+003
4.052970e+002, 3.886530e+003
4.057791e+002, 3.882553e+003
4.062613e+002, 3.872928e+003
4.067434e+002, 3.859973e+003
4.072255e+002, 3.848284e+003
4.077076e+002, 3.841254e+003
4.081897e+002, 3.834197e+003
4.086718e+002, 3.820077e+003
4.091540e+002, 3.799218e+003
4.096361e+002, 3.781658e+003
4.101182e+002, 3.772441e+003
4.106003e+002, 3.768532e+003
4.110824e+002, 3.763734e+003
4.115645e+002, 3.757055e+003
4.120467e+002, 3.753138e+003
4.125288e+002, 3.755861e+003
4.130109e+002, 3.762225e+003
4.134930e+002, 3.766180e+003
4.139751e+002, 3.766171e+003
4.144572e+002, 3.767107e+003
4.149394e+002, 3.774872e+003
4.154215e+002, 3.789849e+003
4.159036e+002, 3.802025e+003
4.163857e+002, 3.808138e+003
4.168678e+002, 3.813785e+003
4.173499e+002, 3.821955e+003
4.178321e+002, 3.832673e+003
4.183142e+002, 3.846141e+003
4.187963e+002, 3.863139e+003
4.192784e+002, 3.881671e+003
4.197605e+002, 3.894542e+003
4.202426e+002, 3.897603e+003
4.207248e+002, 3.901079e+003
4.212069e+002, 3.907830e+003
4.216890e+002, 3.914630e+003
4.221711e+002, 3.917165e+003
4.226532e+002, 3.914882e+003
4.231353e+002, 3.912071e+003
4.236175e+002, 3.914320e+003
4.240996e+002, 3.923519e+003
4.245817e+002, 3.928046e+003
4.250638e+002, 3.926658e+003
4.255459e+002, 3.922581e+003
4.260280e+002, 3.917209e+003
4.265102e+002, 3.910091e+003
4.269923e+002, 3.900149e+003
4.274744e+002, 3.886781e+003
4.279565e+002, 3.870067e+003
4.284386e+002, 3.850355e+003
4.289207e+002, 3.825445e+003
4.294029e+002, 3.801257e+003
4.298850e+002, 3.778559e+003
4.303671e+002, 3.756818e+003
4.308492e+002, 3.736313e+003
4.313313e+002, 3.716784e+003
4.318134e+002, 3.697207e+003
4.322956e+002, 3.675318e+003
4.327777e+002, 3.650895e+003
4.332598e+002, 3.631545e+003
4.337419e+002, 3.621335e+003
4.342241e+002, 3.611347e+003
4.347062e+002, 3.595658e+003
4.351883e+002, 3.577286e+003
4.356704e+002, 3.562127e+003
4.361525e+002, 3.553048e+003
4.366346e+002, 3.547997e+003
4.371168e+002, 3.543990e+003
4.375989e+002, 3.541003e+003
4.380810e+002, 3.539552e+003
4.385631e+002, 3.541395e+003
4.390452e+002, 3.543671e+003
4.395273e+002, 3.542864e+003
4.400095e+002, 3.538622e+003
4.404916e+002, 3.534342e+003
4.409737e+002, 3.529509e+003
4.414558e+002, 3.526332e+003
4.419379e+002, 3.530446e+003
4.424200e+002, 3.543355e+003
4.429022e+002, 3.558548e+003
4.433843e+002, 3.571425e+003
4.438664e+002, 3.582171e+003
4.443485e+002, 3.592718e+003
4.448306e+002, 3.601612e+003
4.453127e+002, 3.611846e+003
4.457949e+002, 3.626077e+003
4.462770e+002, 3.643093e+003
4.467591e+002, 3.659501e+003
4.472412e+002, 3.673837e+003
4.477233e+002, 3.687666e+003
4.482054e+002, 3.704137e+003
4.486876e+002, 3.725315e+003
4.491697e+002, 3.744766e+003
4.496518e+002, 3.762346e+003
4.501339e+002, 3.777976e+003
4.506160e+002, 3.792716e+003
4.510981e+002, 3.805816e+003
4.515803e+002, 3.814703e+003
4.520624e+002, 3.817384e+003
4.525445e+002, 3.813861e+003
4.530266e+002, 3.803778e+003
4.535087e+002, 3.782904e+003
4.539908e+002, 3.759786e+003
4.544730e+002, 3.733816e+003
4.549551e+002, 3.707001e+003
4.554372e+002, 3.681683e+003
4.559193e+002, 3.658569e+003
4.564014e+002, 3.636387e+003
4.568835e+002, 3.613006e+003
4.573657e+002, 3.587687e+003
4.578478e+002, 3.564620e+003
4.583299e+002, 3.541626e+003
4.588120e+002, 3.523480e+003
4.592941e+002, 3.514629e+003
4.597762e+002, 3.512284e+003
4.602584e+002, 3.509856e+003
4.607405e+002, 3.503584e+003
4.612226e+002, 3.495202e+003
4.617047e+002, 3.487549e+003
4.621868e+002, 3.480005e+003
4.626689e+002, 3.476215e+003
4.631511e+002, 3.480643e+003
4.636332e+002, 3.487445e+003
4.641153e+002, 3.490555e+003
4.645974e+002, 3.489346e+003
4.650795e+002, 3.488353e+003
4.655616e+002, 3.489951e+003
4.660438e+002, 3.493796e+003
4.665259e+002, 3.499414e+003
4.670080e+002, 3.506912e+003
4.674901e+002, 3.515135e+003
4.679722e+002, 3.523232e+003
4.684543e+002, 3.531352e+003
4.689365e+002, 3.540111e+003
4.694186e+002, 3.550390e+003
4.699007e+002, 3.560453e+003
4.703828e+002, 3.570291e+003
4.708649e+002, 3.579110e+003
4.713470e+002, 3.584261e+003
4.718292e+002, 3.584485e+003
4.723113e+002, 3.583632e+003
4.727934e+002, 3.587955e+003
4.732755e+002, 3.600366e+003
4.737576e+002, 3.609370e+003
4.742397e+002, 3.611446e+003
4.747219e+002, 3.613293e+003
4.752040e+002, 3.620488e+003
4.756861e+002, 3.631102e+003
4.761682e+002, 3.638796e+003
4.766503e+002, 3.639241e+003
4.771324e+002, 3.634441e+003
4.776146e+002, 3.632321e+003
4.780967e+002, 3.635813e+003
4.785788e+002, 3.637241e+003
4.790609e+002, 3.634762e+003
4.795430e+002, 3.630984e+003
4.800251e+002, 3.628073e+003
4.805073e+002, 3.626234e+003
4.809894e+002, 3.624048e+003
4.814715e+002, 3.620536e+003
4.819536e+002, 3.615658e+003
4.824357e+002, 3.608404e+003
4.829178e+002, 3.597336e+003
4.834000e+002, 3.586316e+003
4.838821e+002, 3.577377e+003
4.843642e+002, 3.569341e+003
4.848463e+002, 3.560791e+003
4.853284e+002, 3.551356e+003
4.858105e+002, 3.541041e+003
4.862927e+002, 3.529694e+003
4.867748e+002, 3.517331e+003
4.872569e+002, 3.504473e+003
4.877390e+002, 3.491550e+003
4.882211e+002, 3.477370e+003
4.887032e+002, 3.458900e+003
4.891854e+002, 3.437142e+003
4.896675e+002, 3.419424e+003
4.901496e+002, 3.409460e+003
4.906317e+002, 3.402158e+003
4.911138e+002, 3.394512e+003
4.915959e+002, 3.386314e+003
4.920781e+002, 3.377746e+003
4.925602e+002, 3.369382e+003
4.930423e+002, 3.359439e+003
4.935244e+002, 3.343208e+003
4.940065e+002, 3.313006e+003
4.944886e+002, 3.291593e+003
4.949708e+002, 3.285912e+003
4.954529e+002, 3.284568e+003
4.959350e+002, 3.280014e+003
4.964171e+002, 3.271560e+003
4.968992e+002, 3.261363e+003
4.973813e+002, 3.250762e+003
4.978635e+002, 3.240040e+003
4.983456e+002, 3.230878e+003
4.988277e+002, 3.223476e+003
4.993098e+002, 3.217354e+003
4.997919e+002, 3.213395e+003
5.002740e+002, 3.209892e+003
5.007562e+002, 3.205320e+003
5.012383e+002, 3.199438e+003
5.017204e+002, 3.193082e+003
5.022025e+002, 3.186996e+003
5.026846e+002, 3.181208e+003
5.031667e+002, 3.175608e+003
5.036489e+002, 3.170198e+003
5.041310e+002, 3.165160e+003
5.046131e+002, 3.161189e+003
5.050952e+002, 3.157558e+003
5.055773e+002, 3.153119e+003
5.060594e+002, 3.147486e+003
5.065416e+002, 3.141408e+003
5.070237e+002, 3.134833e+003
5.075058e+002, 3.128240e+003
5.079879e+002, 3.123413e+003
5.084700e+002, 3.120909e+003
5.089521e+002, 3.119692e+003
5.094343e+002, 3.119047e+003
5.099164e+002, 3.118952e+003
5.103985e+002, 3.118106e+003
5.108806e+002, 3.117310e+003
5.113627e+002, 3.114913e+003
5.118448e+002, 3.107993e+003
5.123270e+002, 3.098886e+003
5.128091e+002, 3.093625e+003
5.132912e+002, 3.095017e+003
5.137733e+002, 3.098295e+003
5.142554e+002, 3.093910e+003
5.147375e+002, 3.074324e+003
5.152197e+002, 3.065213e+003
5.157018e+002, 3.075288e+003
5.161839e+002, 3.086159e+003
5.166660e+002, 3.087918e+003
5.171481e+002, 3.082508e+003
5.176302e+002, 3.076438e+003
5.181124e+002, 3.073342e+003
5.185945e+002, 3.072687e+003
5.190766e+002, 3.073594e+003
5.195587e+002, 3.076825e+003
5.200408e+002, 3.078912e+003
5.205229e+002, 3.079275e+003
5.210051e+002, 3.077902e+003
5.214872e+002, 3.073490e+003
5.219693e+002, 3.066658e+003
5.224514e+002, 3.061152e+003
5.229335e+002, 3.060030e+003
5.234156e+002, 3.061416e+003
5.238978e+002, 3.062387e+003
5.243799e+002, 3.063005e+003
5.248620e+002, 3.061897e+003
5.253441e+002, 3.057699e+003
5.258262e+002, 3.051951e+003
5.263083e+002, 3.048007e+003
5.267905e+002, 3.046544e+003
5.272726e+002, 3.044742e+003
5.277547e+002, 3.041173e+003
5.282368e+002, 3.037298e+003
5.287189e+002, 3.034985e+003
5.292010e+002, 3.034248e+003
5.296832e+002, 3.033461e+003
5.301653e+002, 3.031241e+003
5.306474e+002, 3.027969e+003
5.311295e+002, 3.026234e+003
5.316116e+002, 3.026699e+003
5.320938e+002, 3.027870e+003
5.325759e+002, 3.031688e+003
5.330580e+002, 3.034771e+003
5.335401e+002, 3.033087e+003
5.340222e+002, 3.026702e+003
5.345043e+002, 3.019885e+003
5.349865e+002, 3.016539e+003
5.354686e+002, 3.016445e+003
5.359507e+002, 3.017650e+003
5.364328e+002, 3.021820e+003
5.369149e+002, 3.024125e+003
5.373970e+002, 3.021258e+003
5.378792e+002, 3.016570e+003
5.383613e+002, 3.013781e+003
5.388434e+002, 3.013803e+003
5.393255e+002, 3.013807e+003
5.398076e+002, 3.011156e+003
5.402897e+002, 3.006948e+003
5.407719e+002, 3.004505e+003
5.412540e+002, 3.004617e+003
5.417361e+002, 3.003900e+003
5.422182e+002, 2.998836e+003
5.427003e+002, 2.990926e+003
5.431824e+002, 2.987289e+003
5.436646e+002, 2.992329e+003
5.441467e+002, 2.995813e+003
5.446288e+002, 2.992143e+003
5.451109e+002, 2.985757e+003
5.455930e+002, 2.983083e+003
5.460751e+002, 2.985229e+003
5.465573e+002, 2.987916e+003
5.470394e+002, 2.986424e+003
5.475215e+002, 2.980550e+003
5.480036e+002, 2.977853e+003
5.484857e+002, 2.981067e+003
5.489678e+002, 2.984442e+003
5.494500e+002, 2.987082e+003
5.499321e+002, 2.989283e+003
5.504142e+002, 2.992086e+003
5.508963e+002, 2.995547e+003
5.513784e+002, 2.997387e+003
5.518605e+002, 2.993455e+003
5.523427e+002, 2.984384e+003
5.528248e+002, 2.980193e+003
5.533069e+002, 2.983146e+003
5.537890e+002, 2.986968e+003
5.542711e+002, 2.988838e+003
5.547532e+002, 2.989119e+003
5.552354e+002, 2.987692e+003
5.557175e+002, 2.983501e+003
5.561996e+002, 2.980440e+003
5.566817e+002, 2.982222e+003
5.571638e+002, 2.986660e+003
5.576459e+002, 2.990140e+003
5.581281e+002, 2.992042e+003
5.586102e+002, 2.990098e+003
5.590923e+002, 2.980401e+003
5.595744e+002, 2.963777e+003
5.600565e+002, 2.957877e+003
5.605386e+002, 2.972479e+003
5.610208e+002, 2.983865e+003
5.615029e+002, 2.985864e+003
5.619850e+002, 2.982129e+003
5.624671e+002, 2.975163e+003
5.629492e+002, 2.966496e+003
5.634313e+002, 2.959787e+003
5.639135e+002, 2.959844e+003
5.643956e+002, 2.966458e+003
5.648777e+002, 2.967907e+003
5.653598e+002, 2.959627e+003
5.658419e+002, 2.953420e+003
5.663240e+002, 2.954689e+003
5.668062e+002, 2.958671e+003
5.672883e+002, 2.960570e+003
5.677704e+002, 2.959369e+003
5.682525e+002, 2.956655e+003
5.687346e+002, 2.952628e+003
5.692167e+002, 2.948109e+003
5.696989e+002, 2.945847e+003
5.701810e+002, 2.946387e+003
5.706631e+002, 2.946464e+003
5.711452e+002, 2.942918e+003
5.716273e+002, 2.937722e+003
5.721094e+002, 2.937828e+003
5.725916e+002, 2.947948e+003
5.730737e+002, 2.954521e+003
5.735558e+002, 2.950236e+003
5.740379e+002, 2.942733e+003
5.745200e+002, 2.940725e+003
5.750021e+002, 2.944678e+003
5.754843e+002, 2.949041e+003
5.759664e+002, 2.949236e+003
5.764485e+002, 2.946094e+003
5.769306e+002, 2.944898e+003
5.774127e+002, 2.947650e+003
5.778948e+002, 2.949076e+003
5.783770e+002, 2.947379e+003
5.788591e+002, 2.945004e+003
5.793412e+002, 2.943475e+003
5.798233e+002, 2.943066e+003
5.803054e+002, 2.943624e+003
5.807875e+002, 2.945444e+003
5.812697e+002, 2.947996e+003
5.817518e+002, 2.950387e+003
5.822339e+002, 2.952815e+003
5.827161e+002, 2.953138e+003
5.831982e+002, 2.949513e+003
5.836803e+002, 2.944242e+003
5.841624e+002, 2.941002e+003
5.846445e+002, 2.940039e+003
5.851266e+002, 2.938450e+003
5.856088e+002, 2.934046e+003
5.860909e+002, 2.929855e+003
5.865730e+002, 2.929178e+003
5.870551e+002, 2.931269e+003
5.875372e+002, 2.933172e+003
5.880193e+002, 2.933424e+003
5.885015e+002, 2.932225e+003
5.889836e+002, 2.929628e+003
5.894657e+002, 2.923222e+003
5.899478e+002, 2.920873e+003
5.904299e+002, 2.926595e+003
5.909120e+002, 2.932017e+003
5.913942e+002, 2.932902e+003
5.918763e+002, 2.930335e+003
5.923584e+002, 2.926481e+003
5.928405e+002, 2.921650e+003
5.933226e+002, 2.918704e+003
5.938047e+002, 2.924405e+003
5.942869e+002, 2.938501e+003
5.947690e+002, 2.945930e+003
5.952511e+002, 2.941697e+003
5.957332e+002, 2.934349e+003
5.962153e+002, 2.930515e+003
5.966974e+002, 2.929533e+003
5.971796e+002, 2.929688e+003
5.976617e+002, 2.932365e+003
5.981438e+002, 2.934326e+003
5.986259e+002, 2.933043e+003
5.991080e+002, 2.930076e+003
5.995901e+002, 2.927820e+003
6.000723e+002, 2.926956e+003
6.005544e+002, 2.927823e+003
6.010365e+002, 2.931536e+003
6.015186e+002, 2.938312e+003
6.020007e+002, 2.939116e+003
6.024828e+002, 2.925582e+003
6.029650e+002, 2.916285e+003
6.034471e+002, 2.917728e+003
6.039292e+002, 2.922896e+003
6.044113e+002, 2.924601e+003
6.048934e+002, 2.921684e+003
6.053755e+002, 2.918207e+003
6.058577e+002, 2.918532e+003
6.063398e+002, 2.921207e+003
6.068219e+002, 2.920274e+003
6.073040e+002, 2.914976e+003
6.077861e+002, 2.910317e+003
6.082682e+002, 2.908794e+003
6.087504e+002, 2.908991e+003
6.092325e+002, 2.908565e+003
6.097146e+002, 2.907536e+003
6.101967e+002, 2.905751e+003
6.106788e+002, 2.901404e+003
6.111609e+002, 2.897577e+003
6.116431e+002, 2.897822e+003
6.121252e+002, 2.901202e+003
6.126073e+002, 2.904187e+003
6.130894e+002, 2.904947e+003
6.135715e+002, 2.904129e+003
6.140536e+002, 2.903086e+003
6.145358e+002, 2.901858e+003
6.150179e+002, 2.900367e+003
6.155000e+002, 2.897656e+003
6.159821e+002, 2.895698e+003
6.164642e+002, 2.895987e+003
6.169464e+002, 2.897545e+003
6.174285e+002, 2.898529e+003
6.179106e+002, 2.898249e+003
6.183927e+002, 2.897130e+003
6.188748e+002, 2.894215e+003
6.193569e+002, 2.890442e+003
6.198391e+002, 2.891711e+003
6.203212e+002, 2.900116e+003
6.208033e+002, 2.908759e+003
6.212854e+002, 2.911929e+003
6.217675e+002, 2.910427e+003
6.222496e+002, 2.909856e+003
6.227318e+002, 2.912617e+003
6.232139e+002, 2.913114e+003
6.236960e+002, 2.906299e+003
6.241781e+002, 2.898497e+003
6.246602e+002, 2.898007e+003
6.251423e+002, 2.904552e+003
6.256245e+002, 2.910325e+003
6.261066e+002, 2.908681e+003
6.265887e+002, 2.901671e+003
6.270708e+002, 2.899222e+003
6.275529e+002, 2.904630e+003
6.280350e+002, 2.906591e+003
6.285172e+002, 2.897572e+003
6.289993e+002, 2.888413e+003
6.294814e+002, 2.886808e+003
6.299635e+002, 2.891905e+003
6.304456e+002, 2.897322e+003
6.309277e+002, 2.901019e+003
6.314099e+002, 2.903060e+003
6.318920e+002, 2.902751e+003
6.323741e+002, 2.900704e+003
6.328562e+002, 2.899510e+003
6.333383e+002, 2.900098e+003
6.338204e+002, 2.901065e+003
6.343026e+002, 2.900716e+003
6.347847e+002, 2.898894e+003
6.352668e+002, 2.897220e+003
6.357489e+002, 2.895794e+003
6.362310e+002, 2.894329e+003
6.367131e+002, 2.891592e+003
6.371953e+002, 2.889332e+003
6.376774e+002, 2.890723e+003
6.381595e+002, 2.895786e+003
6.386416e+002, 2.899829e+003
6.391237e+002, 2.897233e+003
6.396058e+002, 2.889644e+003
6.400880e+002, 2.885703e+003
6.405701e+002, 2.886044e+003
6.410522e+002, 2.887592e+003
6.415343e+002, 2.889914e+003
6.420164e+002, 2.892305e+003
6.424985e+002, 2.894170e+003
6.429807e+002, 2.895607e+003
6.434628e+002, 2.895457e+003
6.439449e+002, 2.891644e+003
6.444270e+002, 2.887646e+003
6.449091e+002, 2.886507e+003
6.453912e+002, 2.887556e+003
6.458734e+002, 2.888936e+003
6.463555e+002, 2.889891e+003
6.468376e+002, 2.890048e+003
6.473197e+002, 2.888494e+003
6.478018e+002, 2.884568e+003
6.482839e+002, 2.882654e+003
6.487661e+002, 2.884266e+003
6.492482e+002, 2.886078e+003
6.497303e+002, 2.887670e+003
6.502124e+002, 2.888603e+003
6.506945e+002, 2.887554e+003
6.511766e+002, 2.884167e+003
6.516588e+002, 2.882468e+003
6.521409e+002, 2.887537e+003
6.526230e+002, 2.895837e+003
6.531051e+002, 2.899962e+003
6.535872e+002, 2.899558e+003
6.540693e+002, 2.897739e+003
6.545515e+002, 2.895634e+003
6.550336e+002, 2.893866e+003
6.555157e+002, 2.893853e+003
6.559978e+002, 2.896850e+003
6.564799e+002, 2.898676e+003
6.569620e+002, 2.898329e+003
6.574442e+002, 2.897770e+003
6.579263e+002, 2.898493e+003
6.584084e+002, 2.899634e+003
6.588905e+002, 2.899102e+003
6.593726e+002, 2.896066e+003
6.598547e+002, 2.892960e+003
6.603369e+002, 2.893429e+003
6.608190e+002, 2.897190e+003
6.613011e+002, 2.899993e+003
6.617832e+002, 2.901206e+003
6.622653e+002, 2.902753e+003
6.627474e+002, 2.907433e+003
6.632296e+002, 2.912337e+003
6.637117e+002, 2.911385e+003
6.641938e+002, 2.902409e+003
6.646759e+002, 2.894508e+003
6.651580e+002, 2.888962e+003
6.656401e+002, 2.886853e+003
6.661223e+002, 2.891927e+003
6.666044e+002, 2.901587e+003
6.670865e+002, 2.907797e+003
6.675686e+002, 2.906351e+003
6.680507e+002, 2.900627e+003
6.685328e+002, 2.896671e+003
6.690150e+002, 2.894500e+003
6.694971e+002, 2.894138e+003
6.699792e+002, 2.897005e+003
6.704613e+002, 2.899914e+003
6.709434e+002, 2.901818e+003
6.714255e+002, 2.902784e+003
6.719077e+002, 2.902871e+003
6.723898e+002, 2.902037e+003
6.728719e+002, 2.900680e+003
6.733540e+002, 2.898095e+003
6.738361e+002, 2.895602e+003
6.743182e+002, 2.896280e+003
6.748004e+002, 2.899763e+003
6.752825e+002, 2.900912e+003
6.757646e+002, 2.896159e+003
6.762467e+002, 2.889329e+003
6.767288e+002, 2.889656e+003
6.772109e+002, 2.902316e+003
6.776931e+002, 2.910020e+003
6.781752e+002, 2.909084e+003
6.786573e+002, 2.907494e+003
6.791394e+002, 2.908149e+003
6.796215e+002, 2.910566e+003
6.801036e+002, 2.914261e+003
6.805858e+002, 2.919233e+003
6.810679e+002, 2.922694e+003
6.815500e+002, 2.920347e+003
6.820321e+002, 2.914462e+003
6.825142e+002, 2.911216e+003
6.829963e+002, 2.911104e+003
6.834785e+002, 2.914305e+003
6.839606e+002, 2.922364e+003
6.844427e+002, 2.932124e+003
6.849248e+002, 2.935873e+003
6.854069e+002, 2.929431e+003
6.858890e+002, 2.926810e+003
6.863712e+002, 2.932390e+003
6.868533e+002, 2.937850e+003
6.873354e+002, 2.936531e+003
6.878175e+002, 2.932491e+003
6.882996e+002, 2.934563e+003
6.887817e+002, 2.945985e+003
6.892639e+002, 2.958433e+003
6.897460e+002, 2.960283e+003
6.902281e+002, 2.953503e+003
6.907102e+002, 2.951717e+003
6.911923e+002, 2.956379e+003
6.916744e+002, 2.962053e+003
6.921566e+002, 2.966158e+003
6.926387e+002, 2.969552e+003
6.931208e+002, 2.973686e+003
6.936029e+002, 2.978428e+003
6.940850e+002, 2.984274e+003
6.945671e+002, 2.992712e+003
6.950493e+002, 3.000884e+003
6.955314e+002, 3.005895e+003
6.960135e+002, 3.009456e+003
6.964956e+002, 3.015919e+003
6.969777e+002, 3.026600e+003
6.974598e+002, 3.036953e+003
6.979420e+002, 3.039948e+003
6.984241e+002, 3.035992e+003
6.989062e+002, 3.035908e+003
6.993883e+002, 3.040187e+003
6.998704e+002, 3.047101e+003
7.003525e+002, 3.058094e+003
7.008347e+002, 3.069871e+003
7.013168e+002, 3.078267e+003
7.017989e+002, 3.083119e+003
7.022810e+002, 3.085818e+003
7.027631e+002, 3.083291e+003
7.032452e+002, 3.081915e+003
7.037274e+002, 3.089139e+003
7.042095e+002, 3.100329e+003
7.046916e+002, 3.104678e+003
7.051737e+002, 3.099244e+003
7.056558e+002, 3.092965e+003
7.061379e+002, 3.097465e+003
7.066201e+002, 3.111817e+003
7.071022e+002, 3.118442e+003
7.075843e+002, 3.114566e+003
7.080664e+002, 3.109504e+003
7.085485e+002, 3.106632e+003
7.090306e+002, 3.103359e+003
7.095128e+002, 3.096547e+003
7.099949e+002, 3.086444e+003
7.104770e+002, 3.077787e+003
7.109591e+002, 3.073461e+003
7.114412e+002, 3.069776e+003
7.119233e+002, 3.064886e+003
7.124055e+002, 3.058531e+003
7.128876e+002, 3.049960e+003
7.133697e+002, 3.039204e+003
7.138518e+002, 3.027731e+003
7.143339e+002, 3.017038e+003
7.148160e+002, 3.006975e+003
7.152982e+002, 2.996241e+003
7.157803e+002, 2.983860e+003
7.162624e+002, 2.973117e+003
7.167445e+002, 2.966242e+003
7.172266e+002, 2.959896e+003
7.177087e+002, 2.951596e+003
7.181909e+002, 2.941705e+003
7.186730e+002, 2.932060e+003
7.191551e+002, 2.922435e+003
7.196372e+002, 2.914217e+003
7.201193e+002, 2.909605e+003
7.206014e+002, 2.906505e+003
7.210836e+002, 2.900769e+003
7.215657e+002, 2.892100e+003
7.220478e+002, 2.883979e+003
7.225299e+002, 2.879128e+003
7.230120e+002, 2.876626e+003
7.234941e+002, 2.873335e+003
7.239763e+002, 2.868966e+003
7.244584e+002, 2.864583e+003
7.249405e+002, 2.860104e+003
7.254226e+002, 2.855866e+003
7.259047e+002, 2.852115e+003
7.263868e+002, 2.848759e+003
7.268690e+002, 2.845581e+003
7.273511e+002, 2.842666e+003
7.278332e+002, 2.839649e+003
7.283153e+002, 2.835914e+003
7.287974e+002, 2.832213e+003
7.292795e+002, 2.830202e+003
7.297617e+002, 2.829463e+003
7.302438e+002, 2.827160e+003
7.307259e+002, 2.821588e+003
7.312080e+002, 2.814630e+003
7.316901e+002, 2.810364e+003
7.321722e+002, 2.809854e+003
7.326544e+002, 2.807520e+003
7.331365e+002, 2.802083e+003
7.336186e+002, 2.796503e+003
7.341007e+002, 2.791406e+003
7.345828e+002, 2.787149e+003
7.350649e+002, 2.784807e+003
7.355471e+002, 2.784764e+003
7.360292e+002, 2.783425e+003
7.365113e+002, 2.777638e+003
7.369934e+002, 2.770977e+003
7.374755e+002, 2.767162e+003
7.379576e+002, 2.765501e+003
7.384398e+002, 2.763251e+003
7.389219e+002, 2.759476e+003
7.394040e+002, 2.756438e+003
7.398861e+002, 2.757375e+003
7.403682e+002, 2.762176e+003
7.408503e+002, 2.764281e+003
7.413325e+002, 2.762141e+003
7.418146e+002, 2.760506e+003
7.422967e+002, 2.761392e+003
7.427788e+002, 2.762761e+003
7.432609e+002, 2.762946e+003
7.437430e+002, 2.761990e+003
7.442252e+002, 2.760836e+003
7.447073e+002, 2.759418e+003
7.451894e+002, 2.758247e+003
7.456715e+002, 2.757760e+003
7.461536e+002, 2.757721e+003
7.466357e+002, 2.758176e+003
7.471179e+002, 2.758896e+003
7.476000e+002, 2.758656e+003
7.480821e+002, 2.756396e+003
7.485642e+002, 2.752731e+003
7.490463e+002, 2.749507e+003
7.495284e+002, 2.746743e+003
7.500106e+002, 2.744317e+003
7.504927e+002, 2.741161e+003
7.509748e+002, 2.739844e+003
7.514569e+002, 2.744566e+003
7.519390e+002, 2.752035e+003
7.524211e+002, 2.754543e+003
7.529033e+002, 2.748288e+003
7.533854e+002, 2.744088e+003
7.538675e+002, 2.745560e+003
7.543496e+002, 2.751032e+003
7.548317e+002, 2.762169e+003
7.553138e+002, 2.775799e+003
7.557960e+002, 2.783502e+003
7.562781e+002, 2.781412e+003
7.567602e+002, 2.775999e+003
7.572423e+002, 2.777035e+003
7.577244e+002, 2.784262e+003
7.582065e+002, 2.789341e+003
7.586887e+002, 2.791203e+003
7.591708e+002, 2.794185e+003
7.596529e+002, 2.800728e+003
7.601350e+002, 2.808847e+003
7.606171e+002, 2.815198e+003
7.610992e+002, 2.819521e+003
7.615814e+002, 2.826075e+003
7.620635e+002, 2.837917e+003
7.625456e+002, 2.849263e+003
7.630277e+002, 2.856842e+003
7.635098e+002, 2.862750e+003
7.639919e+002, 2.870326e+003
7.644741e+002, 2.879726e+003
7.649562e+002, 2.887712e+003
7.654383e+002, 2.890917e+003
7.659204e+002, 2.892058e+003
7.664025e+002, 2.897099e+003
7.668846e+002, 2.905948e+003
7.673668e+002, 2.916771e+003
7.678489e+002, 2.929699e+003
7.683310e+002, 2.942647e+003
7.688131e+002, 2.953721e+003
7.692952e+002, 2.963311e+003
7.697773e+002, 2.973837e+003
7.702595e+002, 2.986135e+003
7.707416e+002, 2.998124e+003
7.712237e+002, 3.007755e+003
7.717058e+002, 3.018774e+003
7.721879e+002, 3.035085e+003
7.726700e+002, 3.054219e+003
7.731522e+002, 3.070806e+003
7.736343e+002, 3.082626e+003
7.741164e+002, 3.093912e+003
7.745985e+002, 3.109199e+003
7.750806e+002, 3.126788e+003
7.755627e+002, 3.143360e+003
7.760449e+002, 3.158638e+003
7.765270e+002, 3.171651e+003
7.770091e+002, 3.181760e+003
7.774912e+002, 3.190454e+003
7.779733e+002, 3.199481e+003
7.784554e+002, 3.208573e+003
7.789376e+002, 3.221293e+003
7.794197e+002, 3.245474e+003
7.799019e+002, 3.262507e+003
7.803840e+002, 3.261440e+003
7.808661e+002, 3.257181e+003
7.813482e+002, 3.263504e+003
7.818303e+002, 3.279896e+003
7.823124e+002, 3.296187e+003
7.827946e+002, 3.310325e+003
7.832767e+002, 3.320202e+003
7.837588e+002, 3.321184e+003
7.842409e+002, 3.317736e+003
7.847230e+002, 3.316755e+003
7.852051e+002, 3.319753e+003
7.856873e+002, 3.327873e+003
7.861694e+002, 3.342586e+003
7.866515e+002, 3.360207e+003
7.871336e+002, 3.370917e+003
7.876157e+002, 3.373446e+003
7.880978e+002, 3.375750e+003
7.885800e+002, 3.377466e+003
7.890621e+002, 3.380587e+003
7.895442e+002, 3.386719e+003
7.900263e+002, 3.394813e+003
7.905084e+002, 3.402636e+003
7.909905e+002, 3.409190e+003
7.914727e+002, 3.420242e+003
7.919548e+002, 3.441591e+003
7.924369e+002, 3.463396e+003
7.929190e+002, 3.478579e+003
7.934011e+002, 3.490376e+003
7.938832e+002, 3.504387e+003
7.943654e+002, 3.522050e+003
7.948475e+002, 3.541604e+003
7.953296e+002, 3.561928e+003
7.958117e+002, 3.582575e+003
7.962938e+002, 3.601059e+003
7.967759e+002, 3.617442e+003
7.972581e+002, 3.638876e+003
7.977402e+002, 3.668142e+003
7.982223e+002, 3.697713e+003
7.987044e+002, 3.720811e+003
7.991865e+002, 3.738458e+003
7.996686e+002, 3.756604e+003
8.001508e+002, 3.771221e+003
8.006329e+002, 3.792430e+003
8.011150e+002, 3.822187e+003
8.015971e+002, 3.856829e+003
8.020792e+002, 3.895935e+003
8.025613e+002, 3.938063e+003
8.030435e+002, 3.980738e+003
8.035256e+002, 4.022806e+003
8.040077e+002, 4.069175e+003
8.044898e+002, 4.122053e+003
8.049719e+002, 4.181962e+003
8.054540e+002, 4.251054e+003
8.059362e+002, 4.328342e+003
8.064183e+002, 4.409483e+003
8.069004e+002, 4.492979e+003
8.073825e+002, 4.582748e+003
8.078646e+002, 4.683002e+003
8.083467e+002, 4.793756e+003
8.088289e+002, 4.915033e+003
8.093110e+002, 5.046896e+003
8.097931e+002, 5.189459e+003
8.102752e+002, 5.341833e+003
8.107573e+002, 5.505540e+003
8.112394e+002, 5.679889e+003
8.117216e+002, 5.865140e+003
8.122037e+002, 6.059784e+003
8.126858e+002, 6.259817e+003
8.131679e+002, 6.477572e+003
8.136500e+002, 6.724849e+003
8.141321e+002, 6.984448e+003
8.146143e+002, 7.237620e+003
8.150964e+002, 7.489206e+003
8.155785e+002, 7.754763e+003
8.160606e+002, 8.039802e+003
8.165427e+002, 8.341951e+003
8.170248e+002, 8.657725e+003
8.175070e+002, 8.988346e+003
8.179891e+002, 9.339337e+003
8.184712e+002, 9.711939e+003
8.189533e+002, 1.009685e+004
8.194354e+002, 1.048994e+004
8.199175e+002, 1.089130e+004
8.203997e+002, 1.130030e+004
8.208818e+002, 1.171691e+004
8.213639e+002, 1.214191e+004
8.218460e+002, 1.259340e+004
8.223281e+002, 1.302628e+004
8.228102e+002, 1.343965e+004
8.232924e+002, 1.383258e+004
8.237745e+002, 1.422040e+004
8.242566e+002, 1.458531e+004
8.247387e+002, 1.488135e+004
8.252208e+002, 1.509660e+004
8.257029e+002, 1.524349e+004
8.261851e+002, 1.532231e+004
8.266672e+002, 1.534255e+004
8.271493e+002, 1.530289e+004
8.276314e+002, 1.521461e+004
8.281135e+002, 1.510182e+004
8.285956e+002, 1.497480e+004
8.290778e+002, 1.484510e+004
8.295599e+002, 1.472474e+004
8.300420e+002, 1.461427e+004
8.305241e+002, 1.451315e+004
8.310062e+002, 1.441940e+004
8.314883e+002, 1.435346e+004
8.319705e+002, 1.432708e+004
8.324526e+002, 1.431863e+004
8.329347e+002, 1.431029e+004
8.334168e+002, 1.430215e+004
8.338989e+002, 1.429561e+004
8.343810e+002, 1.428581e+004
8.348632e+002, 1.428431e+004
8.353453e+002, 1.429683e+004
8.358274e+002, 1.431333e+004
8.363095e+002, 1.433658e+004
8.367916e+002, 1.435661e+004
8.372737e+002, 1.435593e+004
8.377559e+002, 1.432897e+004
8.382380e+002, 1.428863e+004
8.387201e+002, 1.424895e+004
8.392022e+002, 1.419835e+004
8.396843e+002, 1.412211e+004
8.401664e+002, 1.402133e+004
8.406486e+002, 1.390155e+004
8.411307e+002, 1.376423e+004
8.416128e+002, 1.360020e+004
8.420949e+002, 1.340126e+004
8.425770e+002, 1.316855e+004
8.430591e+002, 1.290744e+004
8.435413e+002, 1.261578e+004
8.440234e+002, 1.230276e+004
8.445055e+002, 1.196262e+004
8.449876e+002, 1.161215e+004
8.454697e+002, 1.125886e+004
8.459518e+002, 1.090256e+004
8.464340e+002, 1.054292e+004
8.469161e+002, 1.017284e+004
8.473982e+002, 9.819756e+003
8.478803e+002, 9.489954e+003
8.483624e+002, 9.172218e+003
8.488445e+002, 8.854830e+003
8.493267e+002, 8.548865e+003
8.498088e+002, 8.271410e+003
8.502909e+002, 8.023270e+003
8.507730e+002, 7.790819e+003
8.512551e+002, 7.562728e+003
8.517372e+002, 7.347912e+003
8.522194e+002, 7.157688e+003
8.527015e+002, 6.987706e+003
8.531836e+002, 6.827456e+003
8.536657e+002, 6.674912e+003
8.541478e+002, 6.533606e+003
8.546299e+002, 6.404823e+003
8.551121e+002, 6.289768e+003
8.555942e+002, 6.191263e+003
8.560763e+002, 6.111709e+003
8.565584e+002, 6.030640e+003
8.570405e+002, 5.942882e+003
8.575226e+002, 5.865946e+003
8.580048e+002, 5.809312e+003
8.584869e+002, 5.764972e+003
8.589690e+002, 5.722489e+003
8.594511e+002, 5.681883e+003
8.599332e+002, 5.641954e+003
8.604153e+002, 5.600653e+003
8.608975e+002, 5.562339e+003
8.613796e+002, 5.525704e+003
8.618617e+002, 5.494329e+003
8.623438e+002, 5.475073e+003
8.628259e+002, 5.463818e+003
8.633080e+002, 5.448265e+003
8.637902e+002, 5.422991e+003
8.642723e+002, 5.393913e+003
8.647544e+002, 5.366128e+003
8.652365e+002, 5.337401e+003
8.657186e+002, 5.303423e+003
8.662007e+002, 5.265148e+003
8.666829e+002, 5.228624e+003
8.671650e+002, 5.196055e+003
8.676471e+002, 5.161221e+003
8.681292e+002, 5.117658e+003
8.686113e+002, 5.065646e+003
8.690934e+002, 5.006382e+003
8.695756e+002, 4.939589e+003
8.700577e+002, 4.867841e+003
8.705398e+002, 4.790622e+003
8.710219e+002, 4.711639e+003
8.715040e+002, 4.634208e+003
8.719861e+002, 4.557452e+003
8.724683e+002, 4.475805e+003
8.729504e+002, 4.383320e+003
8.734325e+002, 4.297316e+003
8.739146e+002, 4.225981e+003
8.743967e+002, 4.152487e+003
8.748788e+002, 4.064143e+003
8.753610e+002, 3.972486e+003
8.758431e+002, 3.893099e+003
8.763252e+002, 3.827500e+003
8.768073e+002, 3.766428e+003
8.772894e+002, 3.705084e+003
8.777715e+002, 3.646544e+003
8.782537e+002, 3.593852e+003
8.787358e+002, 3.545412e+003
8.792179e+002, 3.500467e+003
8.797000e+002, 3.457497e+003
8.801821e+002, 3.411033e+003
8.806642e+002, 3.357143e+003
8.811464e+002, 3.306211e+003
8.816285e+002, 3.278165e+003
8.821106e+002, 3.268265e+003
8.825927e+002, 3.247665e+003
8.830748e+002, 3.214875e+003
8.835569e+002, 3.186031e+003
8.840391e+002, 3.167781e+003
8.845212e+002, 3.153461e+003
8.850033e+002, 3.134584e+003
8.854854e+002, 3.111715e+003
8.859675e+002, 3.094319e+003
8.864496e+002, 3.085760e+003
8.869318e+002, 3.076203e+003
8.874139e+002, 3.065664e+003
8.878960e+002, 3.052528e+003
8.883781e+002, 3.037217e+003
8.888602e+002, 3.018374e+003
8.893423e+002, 2.991605e+003
8.898245e+002, 2.953255e+003
8.903066e+002, 2.920964e+003
8.907887e+002, 2.907871e+003
8.912708e+002, 2.893299e+003
8.917529e+002, 2.861278e+003
8.922350e+002, 2.822260e+003
8.927172e+002, 2.791001e+003
8.931993e+002, 2.769299e+003
8.936814e+002, 2.749381e+003
8.941635e+002, 2.726929e+003
8.946456e+002, 2.703463e+003
8.951277e+002, 2.678945e+003
8.956099e+002, 2.655524e+003
8.960920e+002, 2.639471e+003
8.965741e+002, 2.630365e+003
8.970562e+002, 2.622726e+003
8.975383e+002, 2.613986e+003
8.980204e+002, 2.602814e+003
8.985026e+002, 2.586058e+003
8.989847e+002, 2.564529e+003
8.994668e+002, 2.549530e+003
8.999489e+002, 2.541924e+003
9.004310e+002, 2.535795e+003
9.009131e+002, 2.530777e+003
9.013953e+002, 2.524101e+003
9.018774e+002, 2.512062e+003
9.023595e+002, 2.496572e+003
9.028416e+002, 2.486725e+003
9.033237e+002, 2.487241e+003
9.038058e+002, 2.484893e+003
9.042880e+002, 2.478337e+003
9.047701e+002, 2.470674e+003
9.052522e+002, 2.462538e+003
9.057343e+002, 2.454350e+003
9.062164e+002, 2.446275e+003
9.066985e+002, 2.438419e+003
9.071807e+002, 2.431941e+003
9.076628e+002, 2.428538e+003
9.081449e+002, 2.425072e+003
9.086270e+002, 2.418927e+003
9.091091e+002, 2.412381e+003
9.095912e+002, 2.408660e+003
9.100734e+002, 2.406966e+003
9.105555e+002, 2.403713e+003
9.110376e+002, 2.397248e+003
9.115197e+002, 2.390490e+003
9.120018e+002, 2.386634e+003
9.124839e+002, 2.384685e+003
9.129661e+002, 2.382585e+003
9.134482e+002, 2.380439e+003
9.139303e+002, 2.379798e+003
9.144124e+002, 2.380971e+003
9.148945e+002, 2.380257e+003
9.153766e+002, 2.373899e+003
9.158588e+002, 2.364230e+003
9.163409e+002, 2.358668e+003
9.168230e+002, 2.357620e+003
9.173051e+002, 2.357033e+003
9.177872e+002, 2.356834e+003
9.182693e+002, 2.356357e+003
9.187515e+002, 2.355661e+003
9.192336e+002, 2.353945e+003
9.197157e+002, 2.349331e+003
9.201978e+002, 2.341145e+003
9.206799e+002, 2.336581e+003
9.211620e+002, 2.339131e+003
9.216442e+002, 2.340468e+003
9.221263e+002, 2.338751e+003
9.226084e+002, 2.336178e+003
9.230905e+002, 2.335046e+003
9.235726e+002, 2.334074e+003
9.240547e+002, 2.329131e+003
9.245369e+002, 2.317448e+003
9.250190e+002, 2.310451e+003
9.255011e+002, 2.317826e+003
9.259832e+002, 2.325360e+003
9.264653e+002, 2.321190e+003
9.269474e+002, 2.312488e+003
9.274296e+002, 2.311386e+003
9.279117e+002, 2.318105e+003
9.283938e+002, 2.321837e+003
9.288759e+002, 2.314871e+003
9.293580e+002, 2.305823e+003
9.298401e+002, 2.304481e+003
9.303223e+002, 2.307726e+003
9.308044e+002, 2.311005e+003
9.312865e+002, 2.313213e+003
9.317686e+002, 2.311948e+003
9.322507e+002, 2.306325e+003
9.327328e+002, 2.299293e+003
9.332150e+002, 2.293528e+003
9.336971e+002, 2.289542e+003
9.341792e+002, 2.291198e+003
9.346613e+002, 2.298463e+003
9.351434e+002, 2.298755e+003
9.356255e+002, 2.288633e+003
9.361077e+002, 2.279366e+003
9.365898e+002, 2.278669e+003
9.370719e+002, 2.283015e+003
9.375540e+002, 2.284674e+003
9.380361e+002, 2.283339e+003
9.385182e+002, 2.280801e+003
9.390004e+002, 2.275791e+003
9.394825e+002, 2.272147e+003
9.399646e+002, 2.272859e+003
9.404467e+002, 2.273422e+003
9.409288e+002, 2.268174e+003
9.414109e+002, 2.258907e+003
9.418931e+002, 2.253769e+003
9.423752e+002, 2.255098e+003
9.428573e+002, 2.256745e+003
9.433394e+002, 2.258170e+003
9.438215e+002, 2.259558e+003
9.443036e+002, 2.262388e+003
9.447858e+002, 2.264468e+003
9.452679e+002, 2.261563e+003
9.457500e+002, 2.253972e+003
9.462321e+002, 2.249264e+003
9.467142e+002, 2.253677e+003
9.471964e+002, 2.257924e+003
9.476785e+002, 2.255117e+003
9.481606e+002, 2.250141e+003
9.486427e+002, 2.249017e+003
9.491248e+002, 2.250560e+003
9.496069e+002, 2.249421e+003
9.500891e+002, 2.243815e+003
9.505712e+002, 2.239195e+003
9.510533e+002, 2.242178e+003
9.515354e+002, 2.248290e+003
9.520175e+002, 2.250444e+003
9.524996e+002, 2.249501e+003
9.529818e+002, 2.247856e+003
9.534639e+002, 2.245956e+003
9.539460e+002, 2.243205e+003
9.544281e+002, 2.239158e+003
9.549102e+002, 2.234638e+003
9.553923e+002, 2.230033e+003
9.558745e+002, 2.225812e+003
9.563566e+002, 2.228204e+003
9.568387e+002, 2.237711e+003
9.573208e+002, 2.244078e+003
9.578029e+002, 2.244016e+003
9.582850e+002, 2.241021e+003
9.587672e+002, 2.237852e+003
9.592493e+002, 2.234806e+003
9.597314e+002, 2.233224e+003
9.602135e+002, 2.233646e+003
9.606956e+002, 2.233361e+003
9.611777e+002, 2.231421e+003
9.616599e+002, 2.230600e+003
9.621420e+002, 2.233245e+003
9.626241e+002, 2.236348e+003
9.631062e+002, 2.235707e+003
9.635883e+002, 2.231328e+003
9.640704e+002, 2.228641e+003
9.645526e+002, 2.228347e+003
9.650347e+002, 2.228602e+003
9.655168e+002, 2.232195e+003
9.659989e+002, 2.233175e+003
9.664810e+002, 2.224063e+003
9.669631e+002, 2.212207e+003
9.674453e+002, 2.210284e+003
9.679274e+002, 2.220128e+003
9.684095e+002, 2.227779e+003
9.688916e+002, 2.229222e+003
9.693737e+002, 2.227798e+003
9.698558e+002, 2.223848e+003
9.703380e+002, 2.218664e+003
9.708201e+002, 2.212047e+003
9.713022e+002, 2.205504e+003
9.717843e+002, 2.202729e+003
9.722664e+002, 2.205220e+003
9.727485e+002, 2.207167e+003
9.732307e+002, 2.202055e+003
9.737128e+002, 2.197009e+003
9.741949e+002, 2.201294e+003
9.746770e+002, 2.209630e+003
9.751591e+002, 2.212378e+003
9.756412e+002, 2.209049e+003
9.761234e+002, 2.205747e+003
9.766055e+002, 2.205818e+003
9.770876e+002, 2.207050e+003
9.775698e+002, 2.206818e+003
9.780519e+002, 2.205743e+003
9.785340e+002, 2.205625e+003
9.790161e+002, 2.205989e+003
9.794982e+002, 2.203756e+003
9.799803e+002, 2.198495e+003
9.804625e+002, 2.195687e+003
9.809446e+002, 2.200518e+003
9.814267e+002, 2.207743e+003
9.819088e+002, 2.204381e+003
9.823909e+002, 2.191842e+003
9.828730e+002, 2.184298e+003
9.833552e+002, 2.182726e+003
9.838373e+002, 2.181591e+003
9.843194e+002, 2.179088e+003
9.848015e+002, 2.174780e+003
9.852836e+002, 2.167594e+003
9.857657e+002, 2.158707e+003
9.862479e+002, 2.154194e+003
9.867300e+002, 2.154974e+003
9.872121e+002, 2.155466e+003
9.876942e+002, 2.155388e+003
9.881763e+002, 2.154623e+003
9.886584e+002, 2.153219e+003
9.891406e+002, 2.150885e+003
9.896227e+002, 2.146630e+003
9.901048e+002, 2.140479e+003
9.905869e+002, 2.138141e+003
9.910690e+002, 2.142768e+003
9.915511e+002, 2.145031e+003
9.920333e+002, 2.142948e+003
9.925154e+002, 2.139643e+003
9.929975e+002, 2.135890e+003
9.934796e+002, 2.132331e+003
9.939617e+002, 2.130689e+003
9.944438e+002, 2.131408e+003
9.949260e+002, 2.128954e+003
9.954081e+002, 2.117737e+003
9.958902e+002, 2.110602e+003
9.963723e+002, 2.113398e+003
9.968544e+002, 2.118010e+003
9.973365e+002, 2.119370e+003
9.978187e+002, 2.118368e+003
9.983008e+002, 2.117083e+003
9.987829e+002, 2.115758e+003
9.992650e+002, 2.115025e+003
9.997471e+002, 2.116783e+003
1.000229e+003, 2.117058e+003
1.000711e+003, 2.111461e+003
1.001193e+003, 2.105575e+003
1.001676e+003, 2.105961e+003
1.002158e+003, 2.110525e+003
1.002640e+003, 2.112542e+003
1.003122e+003, 2.109774e+003
1.003604e+003, 2.106810e+003
1.004086e+003, 2.106158e+003
1.004568e+003, 2.106403e+003
1.005050e+003, 2.107378e+003
1.005533e+003, 2.107947e+003
1.006015e+003, 2.106361e+003
1.006497e+003, 2.102869e+003
1.006979e+003, 2.098806e+003
1.007461e+003, 2.094626e+003
1.007943e+003, 2.091465e+003
1.008425e+003, 2.091260e+003
1.008907e+003, 2.091933e+003
1.009389e+003, 2.090925e+003
1.009872e+003, 2.088637e+003
1.010354e+003, 2.085722e+003
1.010836e+003, 2.082571e+003
1.011318e+003, 2.079833e+003
1.011800e+003, 2.077781e+003
1.012282e+003, 2.077248e+003
1.012764e+003, 2.080479e+003
1.013246e+003, 2.085470e+003
1.013729e+003, 2.088951e+003
1.014211e+003, 2.090227e+003
1.014693e+003, 2.085873e+003
1.015175e+003, 2.075908e+003
1.015657e+003, 2.066864e+003
1.016139e+003, 2.063149e+003
1.016621e+003, 2.063666e+003
1.017103e+003, 2.068824e+003
1.017585e+003, 2.076684e+003
1.018068e+003, 2.077382e+003
1.018550e+003, 2.071403e+003
1.019032e+003, 2.066425e+003
1.019514e+003, 2.064648e+003
1.019996e+003, 2.064926e+003
1.020478e+003, 2.066658e+003
1.020960e+003, 2.068723e+003
1.021442e+003, 2.067941e+003
1.021924e+003, 2.064491e+003
1.022407e+003, 2.063496e+003
1.022889e+003, 2.065311e+003
1.023371e+003, 2.066383e+003
1.023853e+003, 2.065731e+003
1.024335e+003, 2.062872e+003
1.024817e+003, 2.056706e+003
1.025299e+003, 2.049189e+003
1.025781e+003, 2.046982e+003
1.026264e+003, 2.050900e+003
1.026746e+003, 2.053542e+003
1.027228e+003, 2.055033e+003
1.027710e+003, 2.053313e+003
1.028192e+003, 2.046630e+003
1.028674e+003, 2.039466e+003
1.029156e+003, 2.036101e+003
1.029638e+003, 2.035820e+003
1.030120e+003, 2.035641e+003
1.030603e+003, 2.035253e+003
1.031085e+003, 2.036251e+003
1.031567e+003, 2.039189e+003
1.032049e+003, 2.042371e+003
1.032531e+003, 2.046075e+003
1.033013e+003, 2.048384e+003
1.033495e+003, 2.046779e+003
1.033977e+003, 2.042192e+003
1.034459e+003, 2.039356e+003
1.034942e+003, 2.038880e+003
1.035424e+003, 2.038678e+003
1.035906e+003, 2.038526e+003
1.036388e+003, 2.039028e+003
1.036870e+003, 2.040707e+003
1.037352e+003, 2.042811e+003
1.037834e+003, 2.045075e+003
1.038316e+003, 2.047213e+003
1.038799e+003, 2.047466e+003
1.039281e+003, 2.044053e+003
1.039763e+003, 2.042239e+003
1.040245e+003, 2.044683e+003
1.040727e+003, 2.045289e+003
1.041209e+003, 2.039008e+003
1.041691e+003, 2.032446e+003
1.042173e+003, 2.033666e+003
1.042656e+003, 2.040599e+003
1.043138e+003, 2.042084e+003
1.043620e+003, 2.032844e+003
1.044102e+003, 2.027947e+003
1.044584e+003, 2.033278e+003
1.045066e+003, 2.036864e+003
1.045548e+003, 2.031749e+003
1.046030e+003, 2.024906e+003
1.046512e+003, 2.024184e+003
1.046995e+003, 2.028109e+003
1.047477e+003, 2.028717e+003
1.047959e+003, 2.023361e+003
1.048441e+003, 2.018859e+003
1.048923e+003, 2.017209e+003
1.049405e+003, 2.015450e+003
1.049887e+003, 2.010923e+003
1.050369e+003, 2.006849e+003
1.050851e+003, 2.006831e+003
1.051334e+003, 2.010262e+003
1.051816e+003, 2.014316e+003
1.052298e+003, 2.020081e+003
1.052780e+003, 2.022119e+003
1.053262e+003, 2.013932e+003
1.053744e+003, 2.008089e+003
1.054226e+003, 2.013734e+003
1.054708e+003, 2.021922e+003
1.055191e+003, 2.022545e+003
1.055673e+003, 2.017322e+003
1.056155e+003, 2.015149e+003
1.056637e+003, 2.019096e+003
1.057119e+003, 2.021942e+003
1.057601e+003, 2.020928e+003
1.058083e+003, 2.018994e+003
1.058565e+003, 2.015748e+003
1.059047e+003, 2.013750e+003
1.059530e+003, 2.017245e+003
1.060012e+003, 2.024064e+003
1.060494e+003, 2.027028e+003
1.060976e+003, 2.023600e+003
1.061458e+003, 2.020197e+003
1.061940e+003, 2.019004e+003
1.062422e+003, 2.018484e+003
1.062904e+003, 2.017719e+003
1.063386e+003, 2.017315e+003
1.063869e+003, 2.018031e+003
1.064351e+003, 2.019649e+003
1.064833e+003, 2.021803e+003
1.065315e+003, 2.024706e+003
1.065797e+003, 2.025853e+003
1.066279e+003, 2.023454e+003
1.066761e+003, 2.020021e+003
1.067243e+003, 2.016868e+003
1.067726e+003, 2.013380e+003
1.068208e+003, 2.007520e+003
1.068690e+003, 2.001132e+003
1.069172e+003, 1.998643e+003
1.069654e+003, 2.001339e+003
1.070136e+003, 2.004912e+003
1.070618e+003, 2.009542e+003
1.071100e+003, 2.012056e+003
1.071583e+003, 2.008934e+003
1.072065e+003, 2.004462e+003
1.072547e+003, 2.002231e+003
1.073029e+003, 2.002019e+003
1.073511e+003, 2.003409e+003
1.073993e+003, 2.006200e+003
1.074475e+003, 2.005955e+003
1.074957e+003, 1.998064e+003
1.075439e+003, 1.990027e+003
1.075922e+003, 1.985260e+003
1.076404e+003, 1.982296e+003
1.076886e+003, 1.979702e+003
1.077368e+003, 1.977921e+003
1.077850e+003, 1.979179e+003
1.078332e+003, 1.983393e+003
1.078814e+003, 1.984398e+003
1.079296e+003, 1.975890e+003
1.079779e+003, 1.968741e+003
1.080261e+003, 1.969674e+003
1.080743e+003, 1.972626e+003
1.081225e+003, 1.973167e+003
1.081707e+003, 1.972066e+003
1.082189e+003, 1.971515e+003
1.082671e+003, 1.971562e+003
1.083153e+003, 1.969630e+003
1.083635e+003, 1.963478e+003
1.084118e+003, 1.957563e+003
1.084600e+003, 1.953689e+003
1.085082e+003, 1.951014e+003
1.085564e+003, 1.948360e+003
1.086046e+003, 1.946896e+003
1.086528e+003, 1.949552e+003
1.087010e+003, 1.955400e+003
1.087492e+003, 1.958469e+003
1.087974e+003, 1.955544e+003
1.088457e+003, 1.953092e+003
1.088939e+003, 1.955288e+003
1.089421e+003, 1.957141e+003
1.089903e+003, 1.955282e+003
1.090385e+003, 1.951513e+003
1.090867e+003, 1.948135e+003
1.091349e+003, 1.944988e+003
1.091831e+003, 1.939817e+003
1.092314e+003, 1.930599e+003
1.092796e+003, 1.925320e+003
1.093278e+003, 1.928459e+003
1.093760e+003, 1.934379e+003
1.094242e+003, 1.944467e+003
1.094724e+003, 1.952374e+003
1.095206e+003, 1.950107e+003
1.095688e+003, 1.941020e+003
1.096171e+003, 1.934191e+003
1.096653e+003, 1.931352e+003
1.097135e+003, 1.931299e+003
1.097617e+003, 1.937153e+003
1.098099e+003, 1.941143e+003
1.098581e+003, 1.938151e+003
1.099063e+003, 1.934089e+003
1.099545e+003, 1.934764e+003
1.100027e+003, 1.937487e+003
1.100510e+003, 1.936281e+003
1.100992e+003, 1.930257e+003
1.101474e+003, 1.925096e+003
1.101956e+003, 1.922560e+003
1.102438e+003, 1.920419e+003
1.102920e+003, 1.918236e+003
1.103402e+003, 1.916167e+003
1.103884e+003, 1.913879e+003
1.104366e+003, 1.912034e+003
1.104849e+003, 1.911749e+003
1.105331e+003, 1.912988e+003
1.105813e+003, 1.914102e+003
1.106295e+003, 1.914874e+003
1.106777e+003, 1.915444e+003
1.107259e+003, 1.914583e+003
1.107741e+003, 1.914978e+003
1.108223e+003, 1.920964e+003
1.108706e+003, 1.926463e+003
1.109188e+003, 1.922712e+003
1.109670e+003, 1.912026e+003
1.110152e+003, 1.907734e+003
1.110634e+003, 1.914522e+003
1.111116e+003, 1.918811e+003
1.111598e+003, 1.920402e+003
1.112080e+003, 1.918826e+003
1.112563e+003, 1.911194e+003
1.113045e+003, 1.902851e+003
1.113527e+003, 1.896962e+003
1.114009e+003, 1.893801e+003
1.114491e+003, 1.894790e+003
1.114973e+003, 1.901686e+003
1.115455e+003, 1.905203e+003
1.115937e+003, 1.903185e+003
1.116419e+003, 1.901614e+003
1.116901e+003, 1.902332e+003
1.117384e+003, 1.902504e+003
1.117866e+003, 1.899331e+003
1.118348e+003, 1.895482e+003
1.118830e+003, 1.895984e+003
1.119312e+003, 1.901000e+003
1.119794e+003, 1.903191e+003
1.120276e+003, 1.901598e+003
1.120758e+003, 1.899300e+003
1.121241e+003, 1.895475e+003
1.121723e+003, 1.893533e+003
1.122205e+003, 1.895839e+003
1.122687e+003, 1.899284e+003
1.123169e+003, 1.900357e+003
1.123651e+003, 1.899265e+003
1.124133e+003, 1.896675e+003
1.124615e+003, 1.891620e+003
1.125098e+003, 1.890747e+003
1.125580e+003, 1.896225e+003
1.126062e+003, 1.897086e+003
1.126544e+003, 1.888068e+003
1.127026e+003, 1.880284e+003
1.127508e+003, 1.884081e+003
1.127990e+003, 1.893767e+003
1.128472e+003, 1.894407e+003
1.128954e+003, 1.885676e+003
1.129437e+003, 1.880961e+003
1.129919e+003, 1.880449e+003
1.130401e+003, 1.880740e+003
1.130883e+003, 1.881096e+003
1.131365e+003, 1.882942e+003
1.131847e+003, 1.887559e+003
1.132329e+003, 1.890915e+003
1.132811e+003, 1.885095e+003
1.133293e+003, 1.873659e+003
1.133776e+003, 1.876005e+003
1.134258e+003, 1.890107e+003
1.134740e+003, 1.897074e+003
1.135222e+003, 1.895042e+003
1.135704e+003, 1.891115e+003
1.136186e+003, 1.888234e+003
1.136668e+003, 1.887652e+003
1.137150e+003, 1.891480e+003
1.137633e+003, 1.896218e+003
1.138115e+003, 1.893091e+003
1.138597e+003, 1.885372e+003
1.139079e+003, 1.884043e+003
1.139561e+003, 1.887917e+003
1.140043e+003, 1.889368e+003
1.140525e+003, 1.886692e+003
1.141007e+003, 1.882671e+003
1.141490e+003, 1.878783e+003
1.141972e+003, 1.876657e+003
1.142454e+003, 1.879778e+003
1.142936e+003, 1.884855e+003
1.143418e+003, 1.887327e+003
1.143900e+003, 1.887220e+003
1.144382e+003, 1.883660e+003
1.144864e+003, 1.877868e+003
1.145346e+003, 1.874371e+003
1.145828e+003, 1.874852e+003
1.146311e+003, 1.874476e+003
1.146793e+003, 1.867151e+003
1.147275e+003, 1.860026e+003
1.147757e+003, 1.860595e+003
1.148239e+003, 1.864408e+003
1.148721e+003, 1.866086e+003
1.149203e+003, 1.866815e+003
1.149685e+003, 1.871119e+003
1.150168e+003, 1.878912e+003
1.150650e+003, 1.883194e+003
1.151132e+003, 1.879390e+003
1.151614e+003, 1.874997e+003
1.152096e+003, 1.872567e+003
1.152578e+003, 1.872289e+003
1.153060e+003, 1.876439e+003
1.153542e+003, 1.881206e+003
1.154025e+003, 1.881332e+003
1.154507e+003, 1.878124e+003
1.154989e+003, 1.877671e+003
1.155471e+003, 1.882173e+003
1.155953e+003, 1.884408e+003
1.156435e+003, 1.881709e+003
1.156917e+003, 1.877880e+003
1.157399e+003, 1.872079e+003
1.157881e+003, 1.867683e+003
1.158364e+003, 1.868451e+003
1.158846e+003, 1.871430e+003
1.159328e+003, 1.871063e+003
1.159810e+003, 1.867071e+003
1.160292e+003, 1.866001e+003
1.160774e+003, 1.871639e+003
1.161256e+003, 1.873334e+003
1.161738e+003, 1.867991e+003
1.162220e+003, 1.863004e+003
1.162703e+003, 1.860928e+003
1.163185e+003, 1.860508e+003
1.163667e+003, 1.860830e+003
1.164149e+003, 1.861710e+003
1.164631e+003, 1.862334e+003
1.165113e+003, 1.862334e+003
1.165595e+003, 1.864996e+003
1.166077e+003, 1.871750e+003
1.166560e+003, 1.874224e+003
1.167042e+003, 1.869545e+003
1.167524e+003, 1.865895e+003
1.168006e+003, 1.868500e+003
1.168488e+003, 1.873155e+003
1.168970e+003, 1.873452e+003
1.169452e+003, 1.870376e+003
1.169934e+003, 1.869204e+003
1.170417e+003, 1.869729e+003
1.170899e+003, 1.868718e+003
1.171381e+003, 1.866045e+003
1.171863e+003, 1.865133e+003
1.172345e+003, 1.867060e+003
1.172827e+003, 1.868960e+003
1.173309e+003, 1.868561e+003
1.173791e+003, 1.866567e+003
1.174273e+003, 1.863539e+003
1.174755e+003, 1.860109e+003
1.175238e+003, 1.857786e+003
1.175720e+003, 1.856338e+003
1.176202e+003, 1.854533e+003
1.176684e+003, 1.852666e+003
1.177166e+003, 1.853432e+003
1.177648e+003, 1.857941e+003
1.178130e+003, 1.861613e+003
1.178612e+003, 1.860787e+003
1.179095e+003, 1.857054e+003
1.179577e+003, 1.848493e+003
1.180059e+003, 1.840740e+003
1.180541e+003, 1.843008e+003
1.181023e+003, 1.850608e+003
1.181505e+003, 1.853401e+003
1.181987e+003, 1.850208e+003
1.182469e+003, 1.846960e+003
1.182952e+003, 1.845227e+003
1.183434e+003, 1.845847e+003
1.183916e+003, 1.851999e+003
1.184398e+003, 1.857147e+003
1.184880e+003, 1.856339e+003
1.185362e+003, 1.853916e+003
1.185844e+003, 1.854183e+003
1.186326e+003, 1.856300e+003
1.186808e+003, 1.857813e+003
1.187291e+003, 1.858581e+003
1.187773e+003, 1.857720e+003
1.188255e+003, 1.854341e+003
1.188737e+003, 1.850560e+003
1.189219e+003, 1.845701e+003
1.189701e+003, 1.841690e+003
1.190183e+003, 1.838374e+003
1.190665e+003, 1.837607e+003
1.191147e+003, 1.842606e+003
1.191630e+003, 1.851486e+003
1.192112e+003, 1.856026e+003
1.192594e+003, 1.855459e+003
1.193076e+003, 1.854430e+003
1.193558e+003, 1.853007e+003
1.194040e+003, 1.850711e+003
1.194522e+003, 1.847339e+003
1.195004e+003, 1.843514e+003
1.195487e+003, 1.839448e+003
1.195969e+003, 1.835870e+003
1.196451e+003, 1.833584e+003
1.196933e+003, 1.832780e+003
1.197415e+003, 1.835095e+003
1.197897e+003, 1.839700e+003
1.198379e+003, 1.841467e+003
1.198861e+003, 1.840472e+003
1.199344e+003, 1.840334e+003
1.199826e+003, 1.841909e+003
1.200308e+003, 1.842455e+003
1.200790e+003, 1.840039e+003
1.201272e+003, 1.836246e+003
1.201754e+003, 1.831558e+003
1.202236e+003, 1.827846e+003
1.202718e+003, 1.828911e+003
1.203200e+003, 1.832221e+003
1.203682e+003, 1.833689e+003
1.204165e+003, 1.833231e+003
1.204647e+003, 1.832005e+003
1.205129e+003, 1.830482e+003
1.205611e+003, 1.829890e+003
1.206093e+003, 1.830928e+003
1.206575e+003, 1.832973e+003
1.207057e+003, 1.837057e+003
1.207539e+003, 1.840536e+003
1.208022e+003, 1.841567e+003
1.208504e+003, 1.841023e+003
1.208986e+003, 1.840467e+003
1.209468e+003, 1.839385e+003
1.209950e+003, 1.835048e+003
1.210432e+003, 1.825438e+003
1.210914e+003, 1.819747e+003
1.211396e+003, 1.819938e+003
1.211879e+003, 1.822264e+003
1.212361e+003, 1.828763e+003
1.212843e+003, 1.833274e+003
1.213325e+003, 1.831729e+003
1.213807e+003, 1.827960e+003
1.214289e+003, 1.826382e+003
1.214771e+003, 1.826707e+003
1.215253e+003, 1.827759e+003
1.215735e+003, 1.829672e+003
1.216218e+003, 1.831693e+003
1.216700e+003, 1.834145e+003
1.217182e+003, 1.830647e+003
1.217664e+003, 1.819367e+003
1.218146e+003, 1.810416e+003
1.218628e+003, 1.809760e+003
1.219110e+003, 1.814114e+003
1.219592e+003, 1.820783e+003
1.220074e+003, 1.827387e+003
1.220557e+003, 1.826706e+003
1.221039e+003, 1.821831e+003
1.221521e+003, 1.821409e+003
1.222003e+003, 1.824462e+003
1.222485e+003, 1.825532e+003
1.222967e+003, 1.823471e+003
1.223449e+003, 1.820247e+003
1.223931e+003, 1.816470e+003
1.224414e+003, 1.814630e+003
1.224896e+003, 1.819841e+003
1.225378e+003, 1.824222e+003
1.225860e+003, 1.820054e+003
1.226342e+003, 1.812841e+003
1.226824e+003, 1.807760e+003
1.227306e+003, 1.804663e+003
1.227788e+003, 1.802100e+003
1.228271e+003, 1.799888e+003
1.228753e+003, 1.798803e+003
1.229235e+003, 1.800364e+003
1.229717e+003, 1.800661e+003
1.230199e+003, 1.797188e+003
1.230681e+003, 1.795183e+003
1.231163e+003, 1.796990e+003
1.231645e+003, 1.799879e+003
1.232127e+003, 1.801888e+003
1.232609e+003, 1.803647e+003
1.233092e+003, 1.806718e+003
1.233574e+003, 1.810995e+003
1.234056e+003, 1.811606e+003
1.234538e+003, 1.807799e+003
1.235020e+003, 1.807054e+003
1.235502e+003, 1.810393e+003
1.235984e+003, 1.810584e+003
1.236466e+003, 1.805028e+003
1.236949e+003, 1.799263e+003
1.237431e+003, 1.797654e+003
1.237913e+003, 1.798053e+003
1.238395e+003, 1.796087e+003
1.238877e+003, 1.794004e+003
1.239359e+003, 1.799361e+003
1.239841e+003, 1.808177e+003
1.240323e+003, 1.811100e+003
1.240806e+003, 1.808161e+003
1.241288e+003, 1.802119e+003
1.241770e+003, 1.794724e+003
1.242252e+003, 1.791706e+003
1.242734e+003, 1.798978e+003
1.243216e+003, 1.804057e+003
1.243698e+003, 1.794314e+003
1.244180e+003, 1.784853e+003
1.244662e+003, 1.787646e+003
1.245145e+003, 1.794745e+003
1.245627e+003, 1.798334e+003
1.246109e+003, 1.799111e+003
1.246591e+003, 1.800921e+003
1.247073e+003, 1.804376e+003
1.247555e+003, 1.803302e+003
1.248037e+003, 1.794091e+003
1.248519e+003, 1.786483e+003
1.249001e+003, 1.780207e+003
1.249484e+003, 1.777145e+003
1.249966e+003, 1.778871e+003
1.250448e+003, 1.781879e+003
1.250930e+003, 1.783836e+003
1.251412e+003, 1.784272e+003
1.251894e+003, 1.781500e+003
1.252376e+003, 1.776425e+003
1.252858e+003, 1.776962e+003
1.253341e+003, 1.782238e+003
1.253823e+003, 1.784438e+003
1.254305e+003, 1.783080e+003
1.254787e+003, 1.780762e+003
1.255269e+003, 1.778471e+003
1.255751e+003, 1.777032e+003
1.256233e+003, 1.777114e+003
1.256715e+003, 1.777435e+003
1.257198e+003, 1.776268e+003
1.257680e+003, 1.774979e+003
1.258162e+003, 1.774148e+003
1.258644e+003, 1.774894e+003
1.259126e+003, 1.781075e+003
1.259608e+003, 1.788977e+003
1.260090e+003, 1.790237e+003
1.260572e+003, 1.784231e+003
1.261054e+003, 1.779093e+003
1.261536e+003, 1.777128e+003
1.262019e+003, 1.775742e+003
1.262501e+003, 1.772781e+003
1.262983e+003, 1.772620e+003
1.263465e+003, 1.778657e+003
1.263947e+003, 1.785189e+003
1.264429e+003, 1.789426e+003
1.264911e+003, 1.791170e+003
1.265393e+003, 1.789783e+003
1.265876e+003, 1.785726e+003
1.266358e+003, 1.781910e+003
1.266840e+003, 1.778289e+003
1.267322e+003, 1.775836e+003
1.267804e+003, 1.774625e+003
1.268286e+003, 1.778098e+003
1.268768e+003, 1.786525e+003
1.269250e+003, 1.788618e+003
1.269733e+003, 1.778045e+003
1.270215e+003, 1.765769e+003
1.270697e+003, 1.763033e+003
1.271179e+003, 1.766200e+003
1.271661e+003, 1.773068e+003
1.272143e+003, 1.780100e+003
1.272625e+003, 1.782082e+003
1.273107e+003, 1.780420e+003
1.273589e+003, 1.777194e+003
1.274072e+003, 1.773557e+003
1.274554e+003, 1.771685e+003
1.275036e+003, 1.772394e+003
1.275518e+003, 1.772799e+003
1.276000e+003, 1.770403e+003
1.276482e+003, 1.769811e+003
1.276964e+003, 1.776192e+003
1.277446e+003, 1.779981e+003
1.277929e+003, 1.774327e+003
1.278411e+003, 1.766117e+003
1.278893e+003, 1.761365e+003
1.279375e+003, 1.759611e+003
1.279857e+003, 1.759739e+003
1.280339e+003, 1.761805e+003
1.280821e+003, 1.764012e+003
1.281303e+003, 1.766603e+003
1.281786e+003, 1.768889e+003
1.282268e+003, 1.770715e+003
##END=



