##NAMES=Wendwilsonite
##RRUFFID=R180009
##IDEAL CHEMISTRY=Ca_2_Mg(As^5+^O_4_)_2_&#183;2H_2_O
##LOCALITY=Bou Azzer, Morrocco
##OWNER=RRUFF
##SOURCE=Wendell Wilson
##DESCRIPTION=Red vitreous crystals. Photo from Wendell Wilson
##STATUS=The identification of this mineral is confirmed by single-crystal X-ray diffraction and chemical analysis.
##URL=rruff.info/R180009
##MEASURED CHEMISTRY=Ca_1.98_(Mg_0.53_Zn_0.27_Co_0.18_Ni_0.02_)_Σ=1.00_(AsO_4_)_2_·2H_2_O
8.758203e+001, 6.598790e+003
8.806415e+001, 6.664953e+003
8.854626e+001, 6.677165e+003
8.902838e+001, 6.620841e+003
8.951050e+001, 6.539608e+003
8.999261e+001, 6.437682e+003
9.047473e+001, 6.320733e+003
9.095685e+001, 6.209974e+003
9.143896e+001, 6.121916e+003
9.192108e+001, 6.059028e+003
9.240320e+001, 6.021299e+003
9.288531e+001, 5.943962e+003
9.336743e+001, 5.785728e+003
9.384955e+001, 5.569475e+003
9.433167e+001, 5.378379e+003
9.481378e+001, 5.206027e+003
9.529590e+001, 5.079674e+003
9.577802e+001, 4.993345e+003
9.626013e+001, 4.944312e+003
9.674225e+001, 4.925545e+003
9.722437e+001, 4.934778e+003
9.770648e+001, 4.982754e+003
9.818860e+001, 5.058288e+003
9.867072e+001, 5.184742e+003
9.915283e+001, 5.369292e+003
9.963495e+001, 5.612397e+003
1.001171e+002, 5.913622e+003
1.005992e+002, 6.290804e+003
1.010813e+002, 6.822269e+003
1.015634e+002, 7.252864e+003
1.020455e+002, 7.709002e+003
1.025277e+002, 8.015869e+003
1.030098e+002, 8.012909e+003
1.034919e+002, 7.640995e+003
1.039740e+002, 6.987792e+003
1.044561e+002, 6.325827e+003
1.049382e+002, 5.550706e+003
1.054204e+002, 4.880026e+003
1.059025e+002, 4.352413e+003
1.063846e+002, 3.942481e+003
1.068667e+002, 3.615988e+003
1.073488e+002, 3.356088e+003
1.078309e+002, 3.162767e+003
1.083131e+002, 3.009552e+003
1.087952e+002, 2.906357e+003
1.092773e+002, 2.826010e+003
1.097594e+002, 2.758546e+003
1.102415e+002, 2.702832e+003
1.107236e+002, 2.654302e+003
1.112058e+002, 2.609968e+003
1.116879e+002, 2.570420e+003
1.121700e+002, 2.537864e+003
1.126521e+002, 2.518483e+003
1.131342e+002, 2.505075e+003
1.136163e+002, 2.484542e+003
1.140985e+002, 2.452326e+003
1.145806e+002, 2.421721e+003
1.150627e+002, 2.400435e+003
1.155448e+002, 2.387004e+003
1.160269e+002, 2.378415e+003
1.165090e+002, 2.373408e+003
1.169912e+002, 2.371957e+003
1.174733e+002, 2.372894e+003
1.179554e+002, 2.369619e+003
1.184375e+002, 2.375274e+003
1.189196e+002, 2.391216e+003
1.194017e+002, 2.419699e+003
1.198839e+002, 2.465528e+003
1.203660e+002, 2.533851e+003
1.208481e+002, 2.623505e+003
1.213302e+002, 2.742864e+003
1.218123e+002, 2.946867e+003
1.222944e+002, 3.137795e+003
1.227766e+002, 3.266321e+003
1.232587e+002, 3.314153e+003
1.237408e+002, 3.281189e+003
1.242229e+002, 3.165516e+003
1.247050e+002, 2.857028e+003
1.251871e+002, 2.605375e+003
1.256693e+002, 2.428502e+003
1.261514e+002, 2.306348e+003
1.266335e+002, 2.219423e+003
1.271156e+002, 2.161541e+003
1.275977e+002, 2.126560e+003
1.280798e+002, 2.097195e+003
1.285620e+002, 2.072969e+003
1.290441e+002, 2.052641e+003
1.295262e+002, 2.036920e+003
1.300083e+002, 2.025099e+003
1.304904e+002, 2.014284e+003
1.309725e+002, 2.002291e+003
1.314547e+002, 1.991095e+003
1.319368e+002, 1.984057e+003
1.324189e+002, 1.982045e+003
1.329010e+002, 1.983421e+003
1.333831e+002, 1.986383e+003
1.338652e+002, 1.990632e+003
1.343474e+002, 1.998121e+003
1.348295e+002, 2.008927e+003
1.353116e+002, 2.023697e+003
1.357937e+002, 2.043602e+003
1.362758e+002, 2.068069e+003
1.367579e+002, 2.098663e+003
1.372401e+002, 2.140521e+003
1.377222e+002, 2.200265e+003
1.382043e+002, 2.262128e+003
1.386864e+002, 2.337527e+003
1.391685e+002, 2.409578e+003
1.396507e+002, 2.453496e+003
1.401328e+002, 2.450896e+003
1.406149e+002, 2.402806e+003
1.410970e+002, 2.341640e+003
1.415791e+002, 2.245089e+003
1.420612e+002, 2.155890e+003
1.425434e+002, 2.084609e+003
1.430255e+002, 2.030669e+003
1.435076e+002, 1.988550e+003
1.439897e+002, 1.953704e+003
1.444718e+002, 1.926722e+003
1.449539e+002, 1.905384e+003
1.454361e+002, 1.892079e+003
1.459182e+002, 1.881032e+003
1.464003e+002, 1.868688e+003
1.468824e+002, 1.854846e+003
1.473645e+002, 1.841983e+003
1.478466e+002, 1.832945e+003
1.483288e+002, 1.828699e+003
1.488109e+002, 1.826153e+003
1.492930e+002, 1.826003e+003
1.497751e+002, 1.827169e+003
1.502572e+002, 1.828448e+003
1.507393e+002, 1.829514e+003
1.512215e+002, 1.831035e+003
1.517036e+002, 1.833907e+003
1.521857e+002, 1.837869e+003
1.526678e+002, 1.843385e+003
1.531499e+002, 1.851815e+003
1.536320e+002, 1.861953e+003
1.541142e+002, 1.870552e+003
1.545963e+002, 1.875942e+003
1.550784e+002, 1.880814e+003
1.555605e+002, 1.888207e+003
1.560426e+002, 1.898063e+003
1.565247e+002, 1.908297e+003
1.570069e+002, 1.916190e+003
1.574890e+002, 1.921860e+003
1.579711e+002, 1.931505e+003
1.584532e+002, 1.950734e+003
1.589353e+002, 1.971409e+003
1.594174e+002, 1.989668e+003
1.598996e+002, 2.004842e+003
1.603817e+002, 2.015368e+003
1.608638e+002, 2.018695e+003
1.613459e+002, 2.013069e+003
1.618280e+002, 2.005869e+003
1.623102e+002, 1.998171e+003
1.627923e+002, 1.989428e+003
1.632744e+002, 1.978703e+003
1.637565e+002, 1.965798e+003
1.642386e+002, 1.952231e+003
1.647207e+002, 1.940308e+003
1.652029e+002, 1.928591e+003
1.656850e+002, 1.921766e+003
1.661671e+002, 1.919670e+003
1.666492e+002, 1.922085e+003
1.671313e+002, 1.929182e+003
1.676134e+002, 1.941010e+003
1.680956e+002, 1.956920e+003
1.685777e+002, 1.975110e+003
1.690598e+002, 1.997732e+003
1.695419e+002, 2.020327e+003
1.700240e+002, 2.040485e+003
1.705061e+002, 2.060922e+003
1.709883e+002, 2.085425e+003
1.714704e+002, 2.115921e+003
1.719525e+002, 2.151762e+003
1.724346e+002, 2.190716e+003
1.729167e+002, 2.233565e+003
1.733988e+002, 2.278168e+003
1.738810e+002, 2.322064e+003
1.743631e+002, 2.366889e+003
1.748452e+002, 2.416626e+003
1.753273e+002, 2.472760e+003
1.758094e+002, 2.536349e+003
1.762915e+002, 2.606230e+003
1.767737e+002, 2.683612e+003
1.772558e+002, 2.765444e+003
1.777379e+002, 2.851668e+003
1.782200e+002, 2.941684e+003
1.787021e+002, 3.032809e+003
1.791842e+002, 3.124675e+003
1.796664e+002, 3.216244e+003
1.801485e+002, 3.306262e+003
1.806306e+002, 3.396120e+003
1.811127e+002, 3.482674e+003
1.815948e+002, 3.560660e+003
1.820769e+002, 3.629167e+003
1.825591e+002, 3.694083e+003
1.830412e+002, 3.751634e+003
1.835233e+002, 3.809184e+003
1.840054e+002, 3.875807e+003
1.844875e+002, 3.954512e+003
1.849696e+002, 4.042775e+003
1.854518e+002, 4.137670e+003
1.859339e+002, 4.243636e+003
1.864160e+002, 4.345952e+003
1.868981e+002, 4.447159e+003
1.873802e+002, 4.540176e+003
1.878623e+002, 4.618131e+003
1.883445e+002, 4.679489e+003
1.888266e+002, 4.720858e+003
1.893087e+002, 4.730294e+003
1.897908e+002, 4.706189e+003
1.902729e+002, 4.645584e+003
1.907550e+002, 4.541462e+003
1.912372e+002, 4.406651e+003
1.917193e+002, 4.254707e+003
1.922014e+002, 4.091366e+003
1.926835e+002, 3.920032e+003
1.931656e+002, 3.765735e+003
1.936477e+002, 3.633398e+003
1.941299e+002, 3.516869e+003
1.946120e+002, 3.414583e+003
1.950941e+002, 3.327570e+003
1.955762e+002, 3.259187e+003
1.960583e+002, 3.212107e+003
1.965404e+002, 3.185627e+003
1.970226e+002, 3.168568e+003
1.975047e+002, 3.163068e+003
1.979868e+002, 3.163803e+003
1.984689e+002, 3.172750e+003
1.989510e+002, 3.187198e+003
1.994331e+002, 3.202646e+003
1.999153e+002, 3.216932e+003
2.003974e+002, 3.229667e+003
2.008795e+002, 3.230584e+003
2.013616e+002, 3.220328e+003
2.018437e+002, 3.200784e+003
2.023258e+002, 3.170764e+003
2.028080e+002, 3.131510e+003
2.032901e+002, 3.086923e+003
2.037722e+002, 3.038965e+003
2.042543e+002, 2.987410e+003
2.047364e+002, 2.932033e+003
2.052185e+002, 2.869297e+003
2.057007e+002, 2.806040e+003
2.061828e+002, 2.746598e+003
2.066649e+002, 2.691019e+003
2.071470e+002, 2.637803e+003
2.076291e+002, 2.585674e+003
2.081112e+002, 2.535511e+003
2.085934e+002, 2.489062e+003
2.090755e+002, 2.448039e+003
2.095576e+002, 2.409812e+003
2.100397e+002, 2.373275e+003
2.105218e+002, 2.338431e+003
2.110039e+002, 2.303016e+003
2.114861e+002, 2.265807e+003
2.119682e+002, 2.226721e+003
2.124503e+002, 2.184910e+003
2.129324e+002, 2.138681e+003
2.134145e+002, 2.090898e+003
2.138967e+002, 2.043858e+003
2.143788e+002, 1.996639e+003
2.148609e+002, 1.954224e+003
2.153430e+002, 1.919943e+003
2.158251e+002, 1.891977e+003
2.163072e+002, 1.869269e+003
2.167894e+002, 1.851325e+003
2.172715e+002, 1.838306e+003
2.177536e+002, 1.830389e+003
2.182357e+002, 1.827722e+003
2.187178e+002, 1.830109e+003
2.191999e+002, 1.837736e+003
2.196821e+002, 1.849785e+003
2.201642e+002, 1.865840e+003
2.206463e+002, 1.885930e+003
2.211284e+002, 1.909691e+003
2.216105e+002, 1.937380e+003
2.220926e+002, 1.971987e+003
2.225748e+002, 2.004433e+003
2.230569e+002, 2.034650e+003
2.235390e+002, 2.060656e+003
2.240211e+002, 2.080341e+003
2.245032e+002, 2.092678e+003
2.249853e+002, 2.098229e+003
2.254675e+002, 2.098279e+003
2.259496e+002, 2.090177e+003
2.264317e+002, 2.080244e+003
2.269138e+002, 2.066577e+003
2.273959e+002, 2.053273e+003
2.278780e+002, 2.044258e+003
2.283602e+002, 2.041328e+003
2.288423e+002, 2.044496e+003
2.293244e+002, 2.053917e+003
2.298065e+002, 2.072258e+003
2.302886e+002, 2.094014e+003
2.307707e+002, 2.116939e+003
2.312529e+002, 2.143159e+003
2.317350e+002, 2.175784e+003
2.322171e+002, 2.216368e+003
2.326992e+002, 2.262933e+003
2.331813e+002, 2.309220e+003
2.336634e+002, 2.359764e+003
2.341456e+002, 2.404281e+003
2.346277e+002, 2.442595e+003
2.351098e+002, 2.474534e+003
2.355919e+002, 2.499612e+003
2.360740e+002, 2.517593e+003
2.365561e+002, 2.529331e+003
2.370383e+002, 2.537252e+003
2.375204e+002, 2.538097e+003
2.380025e+002, 2.538644e+003
2.384846e+002, 2.537099e+003
2.389667e+002, 2.536174e+003
2.394488e+002, 2.538950e+003
2.399310e+002, 2.546739e+003
2.404131e+002, 2.558996e+003
2.408952e+002, 2.574645e+003
2.413773e+002, 2.600767e+003
2.418594e+002, 2.620677e+003
2.423415e+002, 2.637516e+003
2.428237e+002, 2.645815e+003
2.433058e+002, 2.637859e+003
2.437879e+002, 2.610453e+003
2.442700e+002, 2.567880e+003
2.447521e+002, 2.517510e+003
2.452342e+002, 2.458530e+003
2.457164e+002, 2.394237e+003
2.461985e+002, 2.320760e+003
2.466806e+002, 2.243263e+003
2.471627e+002, 2.168448e+003
2.476448e+002, 2.097909e+003
2.481269e+002, 2.031249e+003
2.486091e+002, 1.966933e+003
2.490912e+002, 1.903489e+003
2.495733e+002, 1.845911e+003
2.500554e+002, 1.795965e+003
2.505375e+002, 1.751820e+003
2.510196e+002, 1.711239e+003
2.515018e+002, 1.673877e+003
2.519839e+002, 1.639068e+003
2.524660e+002, 1.605971e+003
2.529481e+002, 1.574031e+003
2.534302e+002, 1.545677e+003
2.539123e+002, 1.522041e+003
2.543945e+002, 1.502254e+003
2.548766e+002, 1.485236e+003
2.553587e+002, 1.471007e+003
2.558408e+002, 1.458599e+003
2.563229e+002, 1.446896e+003
2.568051e+002, 1.435804e+003
2.572872e+002, 1.426521e+003
2.577693e+002, 1.420427e+003
2.582514e+002, 1.416019e+003
2.587335e+002, 1.410730e+003
2.592156e+002, 1.404017e+003
2.596978e+002, 1.397198e+003
2.601799e+002, 1.391003e+003
2.606620e+002, 1.385481e+003
2.611441e+002, 1.381749e+003
2.616262e+002, 1.381025e+003
2.621083e+002, 1.381988e+003
2.625905e+002, 1.382599e+003
2.630726e+002, 1.382684e+003
2.635547e+002, 1.382559e+003
2.640368e+002, 1.382024e+003
2.645189e+002, 1.381440e+003
2.650010e+002, 1.381689e+003
2.654832e+002, 1.383756e+003
2.659653e+002, 1.386562e+003
2.664474e+002, 1.388213e+003
2.669295e+002, 1.388356e+003
2.674116e+002, 1.388702e+003
2.678937e+002, 1.389814e+003
2.683759e+002, 1.391903e+003
2.688580e+002, 1.395486e+003
2.693401e+002, 1.400519e+003
2.698222e+002, 1.407308e+003
2.703043e+002, 1.416839e+003
2.707864e+002, 1.429723e+003
2.712686e+002, 1.442690e+003
2.717507e+002, 1.453693e+003
2.722328e+002, 1.464157e+003
2.727149e+002, 1.475236e+003
2.731970e+002, 1.486794e+003
2.736791e+002, 1.500107e+003
2.741613e+002, 1.516801e+003
2.746434e+002, 1.537219e+003
2.751255e+002, 1.559913e+003
2.756076e+002, 1.585413e+003
2.760897e+002, 1.612689e+003
2.765718e+002, 1.640901e+003
2.770540e+002, 1.669695e+003
2.775361e+002, 1.700724e+003
2.780182e+002, 1.736646e+003
2.785003e+002, 1.777899e+003
2.789824e+002, 1.820574e+003
2.794645e+002, 1.865458e+003
2.799467e+002, 1.910383e+003
2.804288e+002, 1.954736e+003
2.809109e+002, 1.998326e+003
2.813930e+002, 2.038507e+003
2.818751e+002, 2.075030e+003
2.823572e+002, 2.108691e+003
2.828394e+002, 2.128628e+003
2.833215e+002, 2.128290e+003
2.838036e+002, 2.116011e+003
2.842857e+002, 2.093898e+003
2.847678e+002, 2.063212e+003
2.852499e+002, 2.027764e+003
2.857321e+002, 1.988153e+003
2.862142e+002, 1.944258e+003
2.866963e+002, 1.907174e+003
2.871784e+002, 1.876849e+003
2.876605e+002, 1.855419e+003
2.881426e+002, 1.843911e+003
2.886248e+002, 1.841849e+003
2.891069e+002, 1.847630e+003
2.895890e+002, 1.859682e+003
2.900711e+002, 1.878253e+003
2.905532e+002, 1.905963e+003
2.910353e+002, 1.944701e+003
2.915175e+002, 1.991839e+003
2.919996e+002, 2.043863e+003
2.924817e+002, 2.102830e+003
2.929638e+002, 2.172057e+003
2.934459e+002, 2.253324e+003
2.939280e+002, 2.346839e+003
2.944102e+002, 2.450579e+003
2.948923e+002, 2.563757e+003
2.953744e+002, 2.690768e+003
2.958565e+002, 2.832881e+003
2.963386e+002, 2.987225e+003
2.968207e+002, 3.150715e+003
2.973029e+002, 3.322189e+003
2.977850e+002, 3.499166e+003
2.982671e+002, 3.678040e+003
2.987492e+002, 3.871876e+003
2.992313e+002, 4.039683e+003
2.997134e+002, 4.189223e+003
3.001956e+002, 4.305084e+003
3.006777e+002, 4.370994e+003
3.011598e+002, 4.381784e+003
3.016419e+002, 4.344414e+003
3.021240e+002, 4.266606e+003
3.026061e+002, 4.139953e+003
3.030883e+002, 3.994833e+003
3.035704e+002, 3.822749e+003
3.040525e+002, 3.642896e+003
3.045346e+002, 3.463825e+003
3.050167e+002, 3.288678e+003
3.054988e+002, 3.122922e+003
3.059810e+002, 2.973372e+003
3.064631e+002, 2.841386e+003
3.069452e+002, 2.720479e+003
3.074273e+002, 2.612245e+003
3.079094e+002, 2.514453e+003
3.083915e+002, 2.427155e+003
3.088737e+002, 2.349918e+003
3.093558e+002, 2.280601e+003
3.098379e+002, 2.217971e+003
3.103200e+002, 2.161712e+003
3.108021e+002, 2.114113e+003
3.112842e+002, 2.080998e+003
3.117664e+002, 2.051345e+003
3.122485e+002, 2.021404e+003
3.127306e+002, 1.991916e+003
3.132127e+002, 1.964741e+003
3.136948e+002, 1.941361e+003
3.141769e+002, 1.921517e+003
3.146591e+002, 1.903106e+003
3.151412e+002, 1.884065e+003
3.156233e+002, 1.869905e+003
3.161054e+002, 1.861898e+003
3.165875e+002, 1.859178e+003
3.170696e+002, 1.861171e+003
3.175518e+002, 1.868019e+003
3.180339e+002, 1.878066e+003
3.185160e+002, 1.886503e+003
3.189981e+002, 1.890323e+003
3.194802e+002, 1.899062e+003
3.199623e+002, 1.914944e+003
3.204445e+002, 1.935746e+003
3.209266e+002, 1.959622e+003
3.214087e+002, 1.986063e+003
3.218908e+002, 2.015412e+003
3.223729e+002, 2.047605e+003
3.228550e+002, 2.082087e+003
3.233372e+002, 2.121823e+003
3.238193e+002, 2.168014e+003
3.243014e+002, 2.218951e+003
3.247835e+002, 2.273405e+003
3.252656e+002, 2.331424e+003
3.257477e+002, 2.395529e+003
3.262299e+002, 2.468206e+003
3.267120e+002, 2.549429e+003
3.271941e+002, 2.637654e+003
3.276762e+002, 2.732306e+003
3.281583e+002, 2.835886e+003
3.286404e+002, 2.949533e+003
3.291226e+002, 3.073064e+003
3.296047e+002, 3.206006e+003
3.300868e+002, 3.346889e+003
3.305689e+002, 3.496592e+003
3.310510e+002, 3.661550e+003
3.315331e+002, 3.844524e+003
3.320153e+002, 4.040469e+003
3.324974e+002, 4.253556e+003
3.329795e+002, 4.474728e+003
3.334616e+002, 4.692713e+003
3.339437e+002, 4.904382e+003
3.344258e+002, 5.106482e+003
3.349080e+002, 5.291334e+003
3.353901e+002, 5.461839e+003
3.358722e+002, 5.608434e+003
3.363543e+002, 5.736606e+003
3.368365e+002, 5.838212e+003
3.373186e+002, 5.902595e+003
3.378007e+002, 5.926207e+003
3.382828e+002, 5.919307e+003
3.387649e+002, 5.891573e+003
3.392470e+002, 5.842110e+003
3.397292e+002, 5.778870e+003
3.402113e+002, 5.689740e+003
3.406934e+002, 5.597134e+003
3.411755e+002, 5.511073e+003
3.416576e+002, 5.433515e+003
3.421397e+002, 5.367843e+003
3.426219e+002, 5.313296e+003
3.431040e+002, 5.271076e+003
3.435861e+002, 5.255349e+003
3.440682e+002, 5.272712e+003
3.445503e+002, 5.311603e+003
3.450324e+002, 5.362693e+003
3.455146e+002, 5.426259e+003
3.459967e+002, 5.503070e+003
3.464788e+002, 5.591139e+003
3.469609e+002, 5.693099e+003
3.474430e+002, 5.816585e+003
3.479251e+002, 5.965311e+003
3.484073e+002, 6.126083e+003
3.488894e+002, 6.299698e+003
3.493715e+002, 6.479556e+003
3.498536e+002, 6.660188e+003
3.503357e+002, 6.841626e+003
3.508178e+002, 7.020849e+003
3.513000e+002, 7.197165e+003
3.517821e+002, 7.371097e+003
3.522642e+002, 7.533917e+003
3.527463e+002, 7.693594e+003
3.532284e+002, 7.831131e+003
3.537105e+002, 7.931224e+003
3.541927e+002, 7.992542e+003
3.546748e+002, 8.020214e+003
3.551569e+002, 8.018598e+003
3.556390e+002, 7.986616e+003
3.561211e+002, 7.918713e+003
3.566032e+002, 7.810638e+003
3.570854e+002, 7.669794e+003
3.575675e+002, 7.500645e+003
3.580496e+002, 7.305255e+003
3.585317e+002, 7.091987e+003
3.590138e+002, 6.856581e+003
3.594959e+002, 6.607218e+003
3.599781e+002, 6.350496e+003
3.604602e+002, 6.086225e+003
3.609423e+002, 5.827185e+003
3.614244e+002, 5.583399e+003
3.619065e+002, 5.354631e+003
3.623886e+002, 5.138668e+003
3.628708e+002, 4.937741e+003
3.633529e+002, 4.748102e+003
3.638350e+002, 4.565021e+003
3.643171e+002, 4.390265e+003
3.647992e+002, 4.233812e+003
3.652813e+002, 4.102405e+003
3.657635e+002, 3.992061e+003
3.662456e+002, 3.891225e+003
3.667277e+002, 3.799401e+003
3.672098e+002, 3.718616e+003
3.676919e+002, 3.650344e+003
3.681740e+002, 3.593637e+003
3.686562e+002, 3.546601e+003
3.691383e+002, 3.508676e+003
3.696204e+002, 3.480947e+003
3.701025e+002, 3.466719e+003
3.705846e+002, 3.466472e+003
3.710667e+002, 3.470927e+003
3.715489e+002, 3.482730e+003
3.720310e+002, 3.496424e+003
3.725131e+002, 3.510706e+003
3.729952e+002, 3.524225e+003
3.734773e+002, 3.528884e+003
3.739594e+002, 3.519720e+003
3.744416e+002, 3.495704e+003
3.749237e+002, 3.456245e+003
3.754058e+002, 3.400417e+003
3.758879e+002, 3.332372e+003
3.763700e+002, 3.251103e+003
3.768521e+002, 3.158836e+003
3.773343e+002, 3.059399e+003
3.778164e+002, 2.953795e+003
3.782985e+002, 2.844753e+003
3.787806e+002, 2.738472e+003
3.792627e+002, 2.633271e+003
3.797448e+002, 2.533833e+003
3.802270e+002, 2.439724e+003
3.807091e+002, 2.352383e+003
3.811912e+002, 2.272913e+003
3.816733e+002, 2.201312e+003
3.821554e+002, 2.136880e+003
3.826375e+002, 2.078278e+003
3.831197e+002, 2.026102e+003
3.836018e+002, 1.977989e+003
3.840839e+002, 1.933800e+003
3.845660e+002, 1.893051e+003
3.850481e+002, 1.855980e+003
3.855302e+002, 1.822163e+003
3.860124e+002, 1.790606e+003
3.864945e+002, 1.760388e+003
3.869766e+002, 1.732321e+003
3.874587e+002, 1.710487e+003
3.879408e+002, 1.699398e+003
3.884229e+002, 1.689736e+003
3.889051e+002, 1.681084e+003
3.893872e+002, 1.673175e+003
3.898693e+002, 1.665441e+003
3.903514e+002, 1.657819e+003
3.908335e+002, 1.651254e+003
3.913156e+002, 1.647381e+003
3.917978e+002, 1.646837e+003
3.922799e+002, 1.647333e+003
3.927620e+002, 1.648318e+003
3.932441e+002, 1.650701e+003
3.937262e+002, 1.654132e+003
3.942083e+002, 1.659251e+003
3.946905e+002, 1.667781e+003
3.951726e+002, 1.681635e+003
3.956547e+002, 1.700352e+003
3.961368e+002, 1.719000e+003
3.966189e+002, 1.735387e+003
3.971010e+002, 1.755037e+003
3.975832e+002, 1.780526e+003
3.980653e+002, 1.809617e+003
3.985474e+002, 1.839658e+003
3.990295e+002, 1.869979e+003
3.995116e+002, 1.899881e+003
3.999937e+002, 1.928254e+003
4.004759e+002, 1.954879e+003
4.009580e+002, 1.980995e+003
4.014401e+002, 2.009377e+003
4.019222e+002, 2.035194e+003
4.024043e+002, 2.056639e+003
4.028864e+002, 2.073115e+003
4.033686e+002, 2.081375e+003
4.038507e+002, 2.077817e+003
4.043328e+002, 2.063758e+003
4.048149e+002, 2.044328e+003
4.052970e+002, 2.018695e+003
4.057791e+002, 1.990365e+003
4.062613e+002, 1.960529e+003
4.067434e+002, 1.929860e+003
4.072255e+002, 1.898909e+003
4.077076e+002, 1.864951e+003
4.081897e+002, 1.833640e+003
4.086718e+002, 1.812184e+003
4.091540e+002, 1.800310e+003
4.096361e+002, 1.792307e+003
4.101182e+002, 1.786413e+003
4.106003e+002, 1.782834e+003
4.110824e+002, 1.780800e+003
4.115645e+002, 1.779302e+003
4.120467e+002, 1.782779e+003
4.125288e+002, 1.795259e+003
4.130109e+002, 1.813479e+003
4.134930e+002, 1.831335e+003
4.139751e+002, 1.847378e+003
4.144572e+002, 1.864923e+003
4.149394e+002, 1.886923e+003
4.154215e+002, 1.913754e+003
4.159036e+002, 1.944716e+003
4.163857e+002, 1.983156e+003
4.168678e+002, 2.022680e+003
4.173499e+002, 2.060385e+003
4.178321e+002, 2.095572e+003
4.183142e+002, 2.126924e+003
4.187963e+002, 2.152991e+003
4.192784e+002, 2.175551e+003
4.197605e+002, 2.200489e+003
4.202426e+002, 2.228573e+003
4.207248e+002, 2.257963e+003
4.212069e+002, 2.291077e+003
4.216890e+002, 2.324064e+003
4.221711e+002, 2.353007e+003
4.226532e+002, 2.376953e+003
4.231353e+002, 2.397555e+003
4.236175e+002, 2.416904e+003
4.240996e+002, 2.435560e+003
4.245817e+002, 2.449750e+003
4.250638e+002, 2.458957e+003
4.255459e+002, 2.464906e+003
4.260280e+002, 2.468073e+003
4.265102e+002, 2.468495e+003
4.269923e+002, 2.465803e+003
4.274744e+002, 2.459643e+003
4.279565e+002, 2.450779e+003
4.284386e+002, 2.441881e+003
4.289207e+002, 2.432857e+003
4.294029e+002, 2.423880e+003
4.298850e+002, 2.411942e+003
4.303671e+002, 2.401999e+003
4.308492e+002, 2.397638e+003
4.313313e+002, 2.399626e+003
4.318134e+002, 2.407201e+003
4.322956e+002, 2.419245e+003
4.327777e+002, 2.435712e+003
4.332598e+002, 2.458822e+003
4.337419e+002, 2.489606e+003
4.342241e+002, 2.526321e+003
4.347062e+002, 2.565000e+003
4.351883e+002, 2.608659e+003
4.356704e+002, 2.662711e+003
4.361525e+002, 2.729582e+003
4.366346e+002, 2.807945e+003
4.371168e+002, 2.894754e+003
4.375989e+002, 2.989280e+003
4.380810e+002, 3.097944e+003
4.385631e+002, 3.223709e+003
4.390452e+002, 3.365169e+003
4.395273e+002, 3.516933e+003
4.400095e+002, 3.678055e+003
4.404916e+002, 3.859577e+003
4.409737e+002, 4.065987e+003
4.414558e+002, 4.297616e+003
4.419379e+002, 4.552725e+003
4.424200e+002, 4.831828e+003
4.429022e+002, 5.135813e+003
4.433843e+002, 5.468207e+003
4.438664e+002, 5.830870e+003
4.443485e+002, 6.225953e+003
4.448306e+002, 6.654022e+003
4.453127e+002, 7.115513e+003
4.457949e+002, 7.621080e+003
4.462770e+002, 8.162256e+003
4.467591e+002, 8.725491e+003
4.472412e+002, 9.312447e+003
4.477233e+002, 9.901992e+003
4.482054e+002, 1.046058e+004
4.486876e+002, 1.101709e+004
4.491697e+002, 1.147484e+004
4.496518e+002, 1.185281e+004
4.501339e+002, 1.211182e+004
4.506160e+002, 1.222383e+004
4.510981e+002, 1.218680e+004
4.515803e+002, 1.200611e+004
4.520624e+002, 1.168235e+004
4.525445e+002, 1.121950e+004
4.530266e+002, 1.067386e+004
4.535087e+002, 9.965338e+003
4.539908e+002, 9.262650e+003
4.544730e+002, 8.574788e+003
4.549551e+002, 7.914131e+003
4.554372e+002, 7.294701e+003
4.559193e+002, 6.721896e+003
4.564014e+002, 6.193084e+003
4.568835e+002, 5.704473e+003
4.573657e+002, 5.255411e+003
4.578478e+002, 4.855505e+003
4.583299e+002, 4.518649e+003
4.588120e+002, 4.223598e+003
4.592941e+002, 3.970353e+003
4.597762e+002, 3.753036e+003
4.602584e+002, 3.559231e+003
4.607405e+002, 3.383474e+003
4.612226e+002, 3.225580e+003
4.617047e+002, 3.083358e+003
4.621868e+002, 2.955869e+003
4.626689e+002, 2.846131e+003
4.631511e+002, 2.759548e+003
4.636332e+002, 2.689777e+003
4.641153e+002, 2.631017e+003
4.645974e+002, 2.582703e+003
4.650795e+002, 2.542991e+003
4.655616e+002, 2.511381e+003
4.660438e+002, 2.487277e+003
4.665259e+002, 2.469310e+003
4.670080e+002, 2.457593e+003
4.674901e+002, 2.450939e+003
4.679722e+002, 2.448949e+003
4.684543e+002, 2.451757e+003
4.689365e+002, 2.458193e+003
4.694186e+002, 2.472346e+003
4.699007e+002, 2.485929e+003
4.703828e+002, 2.494469e+003
4.708649e+002, 2.499207e+003
4.713470e+002, 2.502796e+003
4.718292e+002, 2.506166e+003
4.723113e+002, 2.508638e+003
4.727934e+002, 2.508997e+003
4.732755e+002, 2.506098e+003
4.737576e+002, 2.504268e+003
4.742397e+002, 2.504808e+003
4.747219e+002, 2.505205e+003
4.752040e+002, 2.505021e+003
4.756861e+002, 2.503450e+003
4.761682e+002, 2.498901e+003
4.766503e+002, 2.490329e+003
4.771324e+002, 2.478173e+003
4.776146e+002, 2.464184e+003
4.780967e+002, 2.446659e+003
4.785788e+002, 2.429800e+003
4.790609e+002, 2.415860e+003
4.795430e+002, 2.401399e+003
4.800251e+002, 2.383544e+003
4.805073e+002, 2.362097e+003
4.809894e+002, 2.338737e+003
4.814715e+002, 2.315790e+003
4.819536e+002, 2.292932e+003
4.824357e+002, 2.265459e+003
4.829178e+002, 2.232028e+003
4.834000e+002, 2.195866e+003
4.838821e+002, 2.157511e+003
4.843642e+002, 2.117792e+003
4.848463e+002, 2.077909e+003
4.853284e+002, 2.038117e+003
4.858105e+002, 1.997553e+003
4.862927e+002, 1.954392e+003
4.867748e+002, 1.909048e+003
4.872569e+002, 1.864627e+003
4.877390e+002, 1.821434e+003
4.882211e+002, 1.779682e+003
4.887032e+002, 1.740254e+003
4.891854e+002, 1.702746e+003
4.896675e+002, 1.667117e+003
4.901496e+002, 1.633948e+003
4.906317e+002, 1.602137e+003
4.911138e+002, 1.571434e+003
4.915959e+002, 1.541755e+003
4.920781e+002, 1.512664e+003
4.925602e+002, 1.484154e+003
4.930423e+002, 1.456011e+003
4.935244e+002, 1.427496e+003
4.940065e+002, 1.397952e+003
4.944886e+002, 1.369451e+003
4.949708e+002, 1.341138e+003
4.954529e+002, 1.314622e+003
4.959350e+002, 1.290863e+003
4.964171e+002, 1.269973e+003
4.968992e+002, 1.251759e+003
4.973813e+002, 1.236304e+003
4.978635e+002, 1.223179e+003
4.983456e+002, 1.209370e+003
4.988277e+002, 1.194227e+003
4.993098e+002, 1.179194e+003
4.997919e+002, 1.164545e+003
5.002740e+002, 1.150016e+003
5.007562e+002, 1.135082e+003
5.012383e+002, 1.119760e+003
5.017204e+002, 1.104813e+003
5.022025e+002, 1.090924e+003
5.026846e+002, 1.078125e+003
5.031667e+002, 1.066532e+003
5.036489e+002, 1.056679e+003
5.041310e+002, 1.047162e+003
5.046131e+002, 1.036844e+003
5.050952e+002, 1.026537e+003
5.055773e+002, 1.017667e+003
5.060594e+002, 1.011099e+003
5.065416e+002, 1.004689e+003
5.070237e+002, 9.960912e+002
5.075058e+002, 9.861463e+002
5.079879e+002, 9.780182e+002
5.084700e+002, 9.727299e+002
5.089521e+002, 9.682780e+002
5.094343e+002, 9.623473e+002
5.099164e+002, 9.549734e+002
5.103985e+002, 9.486934e+002
5.108806e+002, 9.447766e+002
5.113627e+002, 9.409380e+002
5.118448e+002, 9.355327e+002
5.123270e+002, 9.292346e+002
5.128091e+002, 9.237875e+002
5.132912e+002, 9.200040e+002
5.137733e+002, 9.166906e+002
5.142554e+002, 9.114142e+002
5.147375e+002, 9.021483e+002
5.152197e+002, 8.957939e+002
5.157018e+002, 8.938060e+002
5.161839e+002, 8.929395e+002
5.166660e+002, 8.922485e+002
5.171481e+002, 8.912487e+002
5.176302e+002, 8.893309e+002
5.181124e+002, 8.860724e+002
5.185945e+002, 8.818047e+002
5.190766e+002, 8.773016e+002
5.195587e+002, 8.723696e+002
5.200408e+002, 8.677460e+002
5.205229e+002, 8.631012e+002
5.210051e+002, 8.592142e+002
5.214872e+002, 8.571066e+002
5.219693e+002, 8.565216e+002
5.224514e+002, 8.557115e+002
5.229335e+002, 8.532603e+002
5.234156e+002, 8.500656e+002
5.238978e+002, 8.481383e+002
5.243799e+002, 8.476027e+002
5.248620e+002, 8.462704e+002
5.253441e+002, 8.425402e+002
5.258262e+002, 8.377966e+002
5.263083e+002, 8.352705e+002
5.267905e+002, 8.360590e+002
5.272726e+002, 8.353793e+002
5.277547e+002, 8.303929e+002
5.282368e+002, 8.241012e+002
5.287189e+002, 8.198254e+002
5.292010e+002, 8.178038e+002
5.296832e+002, 8.163615e+002
5.301653e+002, 8.141475e+002
5.306474e+002, 8.114615e+002
5.311295e+002, 8.102884e+002
5.316116e+002, 8.129233e+002
5.320938e+002, 8.141925e+002
5.325759e+002, 8.126080e+002
5.330580e+002, 8.101292e+002
5.335401e+002, 8.085863e+002
5.340222e+002, 8.081815e+002
5.345043e+002, 8.077744e+002
5.349865e+002, 8.060933e+002
5.354686e+002, 8.033165e+002
5.359507e+002, 8.017247e+002
5.364328e+002, 8.020872e+002
5.369149e+002, 8.021861e+002
5.373970e+002, 8.012361e+002
5.378792e+002, 7.996278e+002
5.383613e+002, 7.976389e+002
5.388434e+002, 7.952991e+002
5.393255e+002, 7.929619e+002
5.398076e+002, 7.907744e+002
5.402897e+002, 7.888168e+002
5.407719e+002, 7.870128e+002
5.412540e+002, 7.852027e+002
5.417361e+002, 7.848053e+002
5.422182e+002, 7.878699e+002
5.427003e+002, 7.932380e+002
5.431824e+002, 7.953363e+002
5.436646e+002, 7.912972e+002
5.441467e+002, 7.877955e+002
5.446288e+002, 7.878294e+002
5.451109e+002, 7.894045e+002
5.455930e+002, 7.897510e+002
5.460751e+002, 7.883349e+002
5.465573e+002, 7.865974e+002
5.470394e+002, 7.859429e+002
5.475215e+002, 7.863814e+002
5.480036e+002, 7.874529e+002
5.484857e+002, 7.906087e+002
5.489678e+002, 7.927206e+002
5.494500e+002, 7.927588e+002
5.499321e+002, 7.916908e+002
5.504142e+002, 7.903524e+002
5.508963e+002, 7.890303e+002
5.513784e+002, 7.880162e+002
5.518605e+002, 7.875973e+002
5.523427e+002, 7.877669e+002
5.528248e+002, 7.888445e+002
5.533069e+002, 7.921501e+002
5.537890e+002, 7.936600e+002
5.542711e+002, 7.888756e+002
5.547532e+002, 7.814832e+002
5.552354e+002, 7.769907e+002
5.557175e+002, 7.771785e+002
5.561996e+002, 7.779564e+002
5.566817e+002, 7.762208e+002
5.571638e+002, 7.733297e+002
5.576459e+002, 7.725133e+002
5.581281e+002, 7.744078e+002
5.586102e+002, 7.760438e+002
5.590923e+002, 7.745844e+002
5.595744e+002, 7.702378e+002
5.600565e+002, 7.675444e+002
5.605386e+002, 7.674026e+002
5.610208e+002, 7.675168e+002
5.615029e+002, 7.674414e+002
5.619850e+002, 7.672933e+002
5.624671e+002, 7.672458e+002
5.629492e+002, 7.673253e+002
5.634313e+002, 7.674313e+002
5.639135e+002, 7.675375e+002
5.643956e+002, 7.676328e+002
5.648777e+002, 7.670197e+002
5.653598e+002, 7.646896e+002
5.658419e+002, 7.632864e+002
5.663240e+002, 7.641622e+002
5.668062e+002, 7.659699e+002
5.672883e+002, 7.674200e+002
5.677704e+002, 7.682399e+002
5.682525e+002, 7.686006e+002
5.687346e+002, 7.684969e+002
5.692167e+002, 7.680457e+002
5.696989e+002, 7.674498e+002
5.701810e+002, 7.666669e+002
5.706631e+002, 7.662546e+002
5.711452e+002, 7.667909e+002
5.716273e+002, 7.679039e+002
5.721094e+002, 7.682726e+002
5.725916e+002, 7.673533e+002
5.730737e+002, 7.667284e+002
5.735558e+002, 7.671611e+002
5.740379e+002, 7.679006e+002
5.745200e+002, 7.680153e+002
5.750021e+002, 7.674962e+002
5.754843e+002, 7.670739e+002
5.759664e+002, 7.673170e+002
5.764485e+002, 7.681670e+002
5.769306e+002, 7.693464e+002
5.774127e+002, 7.713473e+002
5.778948e+002, 7.728483e+002
5.783770e+002, 7.736805e+002
5.788591e+002, 7.739867e+002
5.793412e+002, 7.737122e+002
5.798233e+002, 7.729501e+002
5.803054e+002, 7.720939e+002
5.807875e+002, 7.714390e+002
5.812697e+002, 7.708859e+002
5.817518e+002, 7.702731e+002
5.822339e+002, 7.696317e+002
5.827161e+002, 7.685482e+002
5.831982e+002, 7.663923e+002
5.836803e+002, 7.641559e+002
5.841624e+002, 7.634674e+002
5.846445e+002, 7.644679e+002
5.851266e+002, 7.653526e+002
5.856088e+002, 7.659050e+002
5.860909e+002, 7.659649e+002
5.865730e+002, 7.647758e+002
5.870551e+002, 7.628768e+002
5.875372e+002, 7.622490e+002
5.880193e+002, 7.640443e+002
5.885015e+002, 7.669444e+002
5.889836e+002, 7.679147e+002
5.894657e+002, 7.655475e+002
5.899478e+002, 7.643325e+002
5.904299e+002, 7.648727e+002
5.909120e+002, 7.658429e+002
5.913942e+002, 7.663776e+002
5.918763e+002, 7.668690e+002
5.923584e+002, 7.684297e+002
5.928405e+002, 7.718321e+002
5.933226e+002, 7.755741e+002
5.938047e+002, 7.773666e+002
5.942869e+002, 7.772335e+002
5.947690e+002, 7.764398e+002
5.952511e+002, 7.746923e+002
5.957332e+002, 7.732175e+002
5.962153e+002, 7.730873e+002
5.966974e+002, 7.740981e+002
5.971796e+002, 7.757919e+002
5.976617e+002, 7.787391e+002
5.981438e+002, 7.816682e+002
5.986259e+002, 7.841984e+002
5.991080e+002, 7.861629e+002
5.995901e+002, 7.870233e+002
6.000723e+002, 7.867128e+002
6.005544e+002, 7.861799e+002
6.010365e+002, 7.864213e+002
6.015186e+002, 7.874584e+002
6.020007e+002, 7.886472e+002
6.024828e+002, 7.897134e+002
6.029650e+002, 7.913287e+002
6.034471e+002, 7.954628e+002
6.039292e+002, 7.991246e+002
6.044113e+002, 7.986365e+002
6.048934e+002, 7.937242e+002
6.053755e+002, 7.883328e+002
6.058577e+002, 7.855729e+002
6.063398e+002, 7.851053e+002
6.068219e+002, 7.861934e+002
6.073040e+002, 7.892819e+002
6.077861e+002, 7.911746e+002
6.082682e+002, 7.892921e+002
6.087504e+002, 7.862167e+002
6.092325e+002, 7.868153e+002
6.097146e+002, 7.919620e+002
6.101967e+002, 7.957840e+002
6.106788e+002, 7.958516e+002
6.111609e+002, 7.946324e+002
6.116431e+002, 7.940170e+002
6.121252e+002, 7.940895e+002
6.126073e+002, 7.946913e+002
6.130894e+002, 7.958206e+002
6.135715e+002, 7.967569e+002
6.140536e+002, 7.956532e+002
6.145358e+002, 7.909601e+002
6.150179e+002, 7.880958e+002
6.155000e+002, 7.881299e+002
6.159821e+002, 7.889615e+002
6.164642e+002, 7.895952e+002
6.169464e+002, 7.904313e+002
6.174285e+002, 7.925709e+002
6.179106e+002, 7.967738e+002
6.183927e+002, 8.011221e+002
6.188748e+002, 8.035114e+002
6.193569e+002, 8.041415e+002
6.198391e+002, 8.038346e+002
6.203212e+002, 8.024308e+002
6.208033e+002, 8.013312e+002
6.212854e+002, 8.019510e+002
6.217675e+002, 8.038973e+002
6.222496e+002, 8.047584e+002
6.227318e+002, 8.020865e+002
6.232139e+002, 8.015192e+002
6.236960e+002, 8.073972e+002
6.241781e+002, 8.144775e+002
6.246602e+002, 8.164539e+002
6.251423e+002, 8.132034e+002
6.256245e+002, 8.093371e+002
6.261066e+002, 8.085179e+002
6.265887e+002, 8.101086e+002
6.270708e+002, 8.112706e+002
6.275529e+002, 8.118930e+002
6.280350e+002, 8.123440e+002
6.285172e+002, 8.119286e+002
6.289993e+002, 8.119855e+002
6.294814e+002, 8.137741e+002
6.299635e+002, 8.170019e+002
6.304456e+002, 8.200129e+002
6.309277e+002, 8.225342e+002
6.314099e+002, 8.241166e+002
6.318920e+002, 8.232523e+002
6.323741e+002, 8.207968e+002
6.328562e+002, 8.206927e+002
6.333383e+002, 8.244698e+002
6.338204e+002, 8.289440e+002
6.343026e+002, 8.299921e+002
6.347847e+002, 8.269639e+002
6.352668e+002, 8.267453e+002
6.357489e+002, 8.315143e+002
6.362310e+002, 8.360550e+002
6.367131e+002, 8.391766e+002
6.371953e+002, 8.410751e+002
6.376774e+002, 8.418466e+002
6.381595e+002, 8.416200e+002
6.386416e+002, 8.408638e+002
6.391237e+002, 8.395257e+002
6.396058e+002, 8.379969e+002
6.400880e+002, 8.386456e+002
6.405701e+002, 8.421024e+002
6.410522e+002, 8.451901e+002
6.415343e+002, 8.464980e+002
6.420164e+002, 8.469580e+002
6.424985e+002, 8.478765e+002
6.429807e+002, 8.492956e+002
6.434628e+002, 8.506021e+002
6.439449e+002, 8.510984e+002
6.444270e+002, 8.518824e+002
6.449091e+002, 8.540314e+002
6.453912e+002, 8.572230e+002
6.458734e+002, 8.607233e+002
6.463555e+002, 8.642147e+002
6.468376e+002, 8.672839e+002
6.473197e+002, 8.691787e+002
6.478018e+002, 8.697201e+002
6.482839e+002, 8.700931e+002
6.487661e+002, 8.694059e+002
6.492482e+002, 8.696816e+002
6.497303e+002, 8.724333e+002
6.502124e+002, 8.760288e+002
6.506945e+002, 8.783164e+002
6.511766e+002, 8.787883e+002
6.516588e+002, 8.790868e+002
6.521409e+002, 8.804952e+002
6.526230e+002, 8.825739e+002
6.531051e+002, 8.842780e+002
6.535872e+002, 8.855703e+002
6.540693e+002, 8.875024e+002
6.545515e+002, 8.908262e+002
6.550336e+002, 8.947671e+002
6.555157e+002, 8.976857e+002
6.559978e+002, 8.988798e+002
6.564799e+002, 9.006813e+002
6.569620e+002, 9.039341e+002
6.574442e+002, 9.069476e+002
6.579263e+002, 9.087785e+002
6.584084e+002, 9.097162e+002
6.588905e+002, 9.103605e+002
6.593726e+002, 9.109423e+002
6.598547e+002, 9.114587e+002
6.603369e+002, 9.118364e+002
6.608190e+002, 9.120950e+002
6.613011e+002, 9.123991e+002
6.617832e+002, 9.124220e+002
6.622653e+002, 9.134618e+002
6.627474e+002, 9.165477e+002
6.632296e+002, 9.210436e+002
6.637117e+002, 9.258519e+002
6.641938e+002, 9.315308e+002
6.646759e+002, 9.356503e+002
6.651580e+002, 9.368082e+002
6.656401e+002, 9.365802e+002
6.661223e+002, 9.360708e+002
6.666044e+002, 9.354758e+002
6.670865e+002, 9.347128e+002
6.675686e+002, 9.337020e+002
6.680507e+002, 9.330566e+002
6.685328e+002, 9.342200e+002
6.690150e+002, 9.378566e+002
6.694971e+002, 9.404047e+002
6.699792e+002, 9.409711e+002
6.704613e+002, 9.414923e+002
6.709434e+002, 9.433643e+002
6.714255e+002, 9.455397e+002
6.719077e+002, 9.461484e+002
6.723898e+002, 9.444333e+002
6.728719e+002, 9.431229e+002
6.733540e+002, 9.441348e+002
6.738361e+002, 9.465661e+002
6.743182e+002, 9.489385e+002
6.748004e+002, 9.512297e+002
6.752825e+002, 9.545491e+002
6.757646e+002, 9.597489e+002
6.762467e+002, 9.656603e+002
6.767288e+002, 9.695428e+002
6.772109e+002, 9.702381e+002
6.776931e+002, 9.716240e+002
6.781752e+002, 9.737842e+002
6.786573e+002, 9.764801e+002
6.791394e+002, 9.796268e+002
6.796215e+002, 9.832233e+002
6.801036e+002, 9.875763e+002
6.805858e+002, 9.928615e+002
6.810679e+002, 9.975475e+002
6.815500e+002, 9.996602e+002
6.820321e+002, 1.000014e+003
6.825142e+002, 1.000664e+003
6.829963e+002, 1.001727e+003
6.834785e+002, 1.004058e+003
6.839606e+002, 1.008281e+003
6.844427e+002, 1.013901e+003
6.849248e+002, 1.019777e+003
6.854069e+002, 1.025407e+003
6.858890e+002, 1.032558e+003
6.863712e+002, 1.043090e+003
6.868533e+002, 1.053343e+003
6.873354e+002, 1.061591e+003
6.878175e+002, 1.068125e+003
6.882996e+002, 1.073466e+003
6.887817e+002, 1.077841e+003
6.892639e+002, 1.082196e+003
6.897460e+002, 1.087303e+003
6.902281e+002, 1.093294e+003
6.907102e+002, 1.100871e+003
6.911923e+002, 1.110081e+003
6.916744e+002, 1.120819e+003
6.921566e+002, 1.133717e+003
6.926387e+002, 1.147597e+003
6.931208e+002, 1.159581e+003
6.936029e+002, 1.168955e+003
6.940850e+002, 1.179988e+003
6.945671e+002, 1.193592e+003
6.950493e+002, 1.208810e+003
6.955314e+002, 1.225275e+003
6.960135e+002, 1.242825e+003
6.964956e+002, 1.261839e+003
6.969777e+002, 1.282281e+003
6.974598e+002, 1.302469e+003
6.979420e+002, 1.320054e+003
6.984241e+002, 1.335108e+003
6.989062e+002, 1.349132e+003
6.993883e+002, 1.361013e+003
6.998704e+002, 1.374964e+003
7.003525e+002, 1.393077e+003
7.008347e+002, 1.413939e+003
7.013168e+002, 1.436126e+003
7.017989e+002, 1.459744e+003
7.022810e+002, 1.481735e+003
7.027631e+002, 1.501392e+003
7.032452e+002, 1.518845e+003
7.037274e+002, 1.533503e+003
7.042095e+002, 1.546078e+003
7.046916e+002, 1.557317e+003
7.051737e+002, 1.567589e+003
7.056558e+002, 1.578483e+003
7.061379e+002, 1.592666e+003
7.066201e+002, 1.609679e+003
7.071022e+002, 1.620973e+003
7.075843e+002, 1.625722e+003
7.080664e+002, 1.626709e+003
7.085485e+002, 1.622794e+003
7.090306e+002, 1.616801e+003
7.095128e+002, 1.611629e+003
7.099949e+002, 1.607146e+003
7.104770e+002, 1.600813e+003
7.109591e+002, 1.591333e+003
7.114412e+002, 1.580191e+003
7.119233e+002, 1.568613e+003
7.124055e+002, 1.556162e+003
7.128876e+002, 1.541703e+003
7.133697e+002, 1.525173e+003
7.138518e+002, 1.508140e+003
7.143339e+002, 1.492367e+003
7.148160e+002, 1.477502e+003
7.152982e+002, 1.460945e+003
7.157803e+002, 1.441734e+003
7.162624e+002, 1.423026e+003
7.167445e+002, 1.405964e+003
7.172266e+002, 1.389195e+003
7.177087e+002, 1.371072e+003
7.181909e+002, 1.352195e+003
7.186730e+002, 1.335331e+003
7.191551e+002, 1.322635e+003
7.196372e+002, 1.310427e+003
7.201193e+002, 1.295697e+003
7.206014e+002, 1.279871e+003
7.210836e+002, 1.265428e+003
7.215657e+002, 1.252714e+003
7.220478e+002, 1.240294e+003
7.225299e+002, 1.227129e+003
7.230120e+002, 1.213398e+003
7.234941e+002, 1.199944e+003
7.239763e+002, 1.186276e+003
7.244584e+002, 1.174138e+003
7.249405e+002, 1.164144e+003
7.254226e+002, 1.155280e+003
7.259047e+002, 1.147243e+003
7.263868e+002, 1.139893e+003
7.268690e+002, 1.132931e+003
7.273511e+002, 1.126478e+003
7.278332e+002, 1.119976e+003
7.283153e+002, 1.113317e+003
7.287974e+002, 1.106342e+003
7.292795e+002, 1.098710e+003
7.297617e+002, 1.090484e+003
7.302438e+002, 1.081903e+003
7.307259e+002, 1.072995e+003
7.312080e+002, 1.064242e+003
7.316901e+002, 1.056487e+003
7.321722e+002, 1.049696e+003
7.326544e+002, 1.044210e+003
7.331365e+002, 1.040541e+003
7.336186e+002, 1.037461e+003
7.341007e+002, 1.034681e+003
7.345828e+002, 1.032060e+003
7.350649e+002, 1.029782e+003
7.355471e+002, 1.028000e+003
7.360292e+002, 1.024817e+003
7.365113e+002, 1.018198e+003
7.369934e+002, 1.010703e+003
7.374755e+002, 1.004393e+003
7.379576e+002, 9.993724e+002
7.384398e+002, 9.956261e+002
7.389219e+002, 9.931174e+002
7.394040e+002, 9.916437e+002
7.398861e+002, 9.911520e+002
7.403682e+002, 9.916078e+002
7.408503e+002, 9.910349e+002
7.413325e+002, 9.884413e+002
7.418146e+002, 9.869097e+002
7.422967e+002, 9.892699e+002
7.427788e+002, 9.915197e+002
7.432609e+002, 9.894512e+002
7.437430e+002, 9.836151e+002
7.442252e+002, 9.793152e+002
7.447073e+002, 9.790623e+002
7.451894e+002, 9.798449e+002
7.456715e+002, 9.802311e+002
7.461536e+002, 9.802048e+002
7.466357e+002, 9.795659e+002
7.471179e+002, 9.784035e+002
7.476000e+002, 9.772894e+002
7.480821e+002, 9.765905e+002
7.485642e+002, 9.764412e+002
7.490463e+002, 9.775391e+002
7.495284e+002, 9.804271e+002
7.500106e+002, 9.820696e+002
7.504927e+002, 9.811551e+002
7.509748e+002, 9.802047e+002
7.514569e+002, 9.810944e+002
7.519390e+002, 9.831748e+002
7.524211e+002, 9.850461e+002
7.529033e+002, 9.862316e+002
7.533854e+002, 9.879794e+002
7.538675e+002, 9.914778e+002
7.543496e+002, 9.951577e+002
7.548317e+002, 9.972698e+002
7.553138e+002, 9.982456e+002
7.557960e+002, 9.995915e+002
7.562781e+002, 1.001998e+003
7.567602e+002, 1.005015e+003
7.572423e+002, 1.007670e+003
7.577244e+002, 1.010009e+003
7.582065e+002, 1.014601e+003
7.586887e+002, 1.021995e+003
7.591708e+002, 1.029881e+003
7.596529e+002, 1.037892e+003
7.601350e+002, 1.045317e+003
7.606171e+002, 1.050250e+003
7.610992e+002, 1.052303e+003
7.615814e+002, 1.057467e+003
7.620635e+002, 1.068895e+003
7.625456e+002, 1.080848e+003
7.630277e+002, 1.090986e+003
7.635098e+002, 1.100008e+003
7.639919e+002, 1.108837e+003
7.644741e+002, 1.117719e+003
7.649562e+002, 1.126571e+003
7.654383e+002, 1.135095e+003
7.659204e+002, 1.143766e+003
7.664025e+002, 1.153560e+003
7.668846e+002, 1.164426e+003
7.673668e+002, 1.175959e+003
7.678489e+002, 1.188110e+003
7.683310e+002, 1.200807e+003
7.688131e+002, 1.214209e+003
7.692952e+002, 1.228105e+003
7.697773e+002, 1.241415e+003
7.702595e+002, 1.251143e+003
7.707416e+002, 1.264767e+003
7.712237e+002, 1.285003e+003
7.717058e+002, 1.307070e+003
7.721879e+002, 1.327796e+003
7.726700e+002, 1.347906e+003
7.731522e+002, 1.369533e+003
7.736343e+002, 1.393415e+003
7.741164e+002, 1.418704e+003
7.745985e+002, 1.445021e+003
7.750806e+002, 1.472034e+003
7.755627e+002, 1.499373e+003
7.760449e+002, 1.526894e+003
7.765270e+002, 1.552860e+003
7.770091e+002, 1.576123e+003
7.774912e+002, 1.599487e+003
7.779733e+002, 1.627337e+003
7.784554e+002, 1.660764e+003
7.789376e+002, 1.691489e+003
7.794197e+002, 1.718743e+003
7.799019e+002, 1.744398e+003
7.803840e+002, 1.766088e+003
7.808661e+002, 1.788559e+003
7.813482e+002, 1.817248e+003
7.818303e+002, 1.851322e+003
7.823124e+002, 1.883420e+003
7.827946e+002, 1.910342e+003
7.832767e+002, 1.934578e+003
7.837588e+002, 1.957894e+003
7.842409e+002, 1.980049e+003
7.847230e+002, 2.000445e+003
7.852051e+002, 2.019068e+003
7.856873e+002, 2.036490e+003
7.861694e+002, 2.052820e+003
7.866515e+002, 2.068951e+003
7.871336e+002, 2.088538e+003
7.876157e+002, 2.113501e+003
7.880978e+002, 2.130419e+003
7.885800e+002, 2.135143e+003
7.890621e+002, 2.137284e+003
7.895442e+002, 2.140615e+003
7.900263e+002, 2.145227e+003
7.905084e+002, 2.151512e+003
7.909905e+002, 2.159770e+003
7.914727e+002, 2.168198e+003
7.919548e+002, 2.178504e+003
7.924369e+002, 2.186641e+003
7.929190e+002, 2.187355e+003
7.934011e+002, 2.185186e+003
7.938832e+002, 2.187916e+003
7.943654e+002, 2.197157e+003
7.948475e+002, 2.208278e+003
7.953296e+002, 2.217614e+003
7.958117e+002, 2.225426e+003
7.962938e+002, 2.231885e+003
7.967759e+002, 2.236994e+003
7.972581e+002, 2.242561e+003
7.977402e+002, 2.248576e+003
7.982223e+002, 2.256573e+003
7.987044e+002, 2.268226e+003
7.991865e+002, 2.282970e+003
7.996686e+002, 2.297353e+003
8.001508e+002, 2.306579e+003
8.006329e+002, 2.322608e+003
8.011150e+002, 2.350438e+003
8.015971e+002, 2.380376e+003
8.020792e+002, 2.405583e+003
8.025613e+002, 2.429417e+003
8.030435e+002, 2.458295e+003
8.035256e+002, 2.493915e+003
8.040077e+002, 2.535670e+003
8.044898e+002, 2.582128e+003
8.049719e+002, 2.634780e+003
8.054540e+002, 2.696006e+003
8.059362e+002, 2.765672e+003
8.064183e+002, 2.842787e+003
8.069004e+002, 2.927015e+003
8.073825e+002, 3.019795e+003
8.078646e+002, 3.122996e+003
8.083467e+002, 3.236385e+003
8.088289e+002, 3.355962e+003
8.093110e+002, 3.478481e+003
8.097931e+002, 3.616094e+003
8.102752e+002, 3.767978e+003
8.107573e+002, 3.939235e+003
8.112394e+002, 4.130748e+003
8.117216e+002, 4.343032e+003
8.122037e+002, 4.575522e+003
8.126858e+002, 4.822794e+003
8.131679e+002, 5.101709e+003
8.136500e+002, 5.417155e+003
8.141321e+002, 5.766289e+003
8.146143e+002, 6.140198e+003
8.150964e+002, 6.544329e+003
8.155785e+002, 6.991905e+003
8.160606e+002, 7.487192e+003
8.165427e+002, 8.034671e+003
8.170248e+002, 8.630604e+003
8.175070e+002, 9.283253e+003
8.179891e+002, 1.002276e+004
8.184712e+002, 1.085215e+004
8.189533e+002, 1.175250e+004
8.194354e+002, 1.271509e+004
8.199175e+002, 1.374011e+004
8.203997e+002, 1.482940e+004
8.208818e+002, 1.598234e+004
8.213639e+002, 1.717076e+004
8.218460e+002, 1.844595e+004
8.223281e+002, 1.968042e+004
8.228102e+002, 2.093022e+004
8.232924e+002, 2.207992e+004
8.237745e+002, 2.309200e+004
8.242566e+002, 2.393779e+004
8.247387e+002, 2.455134e+004
8.252208e+002, 2.491448e+004
8.257029e+002, 2.505453e+004
8.261851e+002, 2.492910e+004
8.266672e+002, 2.463243e+004
8.271493e+002, 2.422775e+004
8.276314e+002, 2.375016e+004
8.281135e+002, 2.326565e+004
8.285956e+002, 2.279990e+004
8.290778e+002, 2.236005e+004
8.295599e+002, 2.194228e+004
8.300420e+002, 2.155764e+004
8.305241e+002, 2.127214e+004
8.310062e+002, 2.108569e+004
8.314883e+002, 2.101417e+004
8.319705e+002, 2.107393e+004
8.324526e+002, 2.122732e+004
8.329347e+002, 2.144599e+004
8.334168e+002, 2.172920e+004
8.338989e+002, 2.206626e+004
8.343810e+002, 2.244538e+004
8.348632e+002, 2.289129e+004
8.353453e+002, 2.344924e+004
8.358274e+002, 2.403455e+004
8.363095e+002, 2.461916e+004
8.367916e+002, 2.518738e+004
8.372737e+002, 2.572780e+004
8.377559e+002, 2.624062e+004
8.382380e+002, 2.669900e+004
8.387201e+002, 2.710738e+004
8.392022e+002, 2.743497e+004
8.396843e+002, 2.765736e+004
8.401664e+002, 2.776156e+004
8.406486e+002, 2.771505e+004
8.411307e+002, 2.750818e+004
8.416128e+002, 2.715845e+004
8.420949e+002, 2.668029e+004
8.425770e+002, 2.607997e+004
8.430591e+002, 2.537874e+004
8.435413e+002, 2.456110e+004
8.440234e+002, 2.371250e+004
8.445055e+002, 2.283267e+004
8.449876e+002, 2.194193e+004
8.454697e+002, 2.103438e+004
8.459518e+002, 2.012583e+004
8.464340e+002, 1.926259e+004
8.469161e+002, 1.844061e+004
8.473982e+002, 1.767459e+004
8.478803e+002, 1.697525e+004
8.483624e+002, 1.631792e+004
8.488445e+002, 1.568547e+004
8.493267e+002, 1.508922e+004
8.498088e+002, 1.454531e+004
8.502909e+002, 1.405469e+004
8.507730e+002, 1.361302e+004
8.512551e+002, 1.322015e+004
8.517372e+002, 1.287121e+004
8.522194e+002, 1.256047e+004
8.527015e+002, 1.228644e+004
8.531836e+002, 1.204602e+004
8.536657e+002, 1.183813e+004
8.541478e+002, 1.166422e+004
8.546299e+002, 1.152514e+004
8.551121e+002, 1.141600e+004
8.555942e+002, 1.132378e+004
8.560763e+002, 1.124844e+004
8.565584e+002, 1.119321e+004
8.570405e+002, 1.115598e+004
8.575226e+002, 1.114488e+004
8.580048e+002, 1.116722e+004
8.584869e+002, 1.121428e+004
8.589690e+002, 1.127595e+004
8.594511e+002, 1.135247e+004
8.599332e+002, 1.143769e+004
8.604153e+002, 1.154908e+004
8.608975e+002, 1.164669e+004
8.613796e+002, 1.170656e+004
8.618617e+002, 1.175896e+004
8.623438e+002, 1.183656e+004
8.628259e+002, 1.193064e+004
8.633080e+002, 1.201077e+004
8.637902e+002, 1.206819e+004
8.642723e+002, 1.209443e+004
8.647544e+002, 1.208173e+004
8.652365e+002, 1.203406e+004
8.657186e+002, 1.195464e+004
8.662007e+002, 1.184575e+004
8.666829e+002, 1.171739e+004
8.671650e+002, 1.157341e+004
8.676471e+002, 1.139884e+004
8.681292e+002, 1.117637e+004
8.686113e+002, 1.090972e+004
8.690934e+002, 1.061736e+004
8.695756e+002, 1.029720e+004
8.700577e+002, 9.970028e+003
8.705398e+002, 9.641888e+003
8.710219e+002, 9.306146e+003
8.715040e+002, 8.956563e+003
8.719861e+002, 8.596558e+003
8.724683e+002, 8.228922e+003
8.729504e+002, 7.837155e+003
8.734325e+002, 7.470014e+003
8.739146e+002, 7.138096e+003
8.743967e+002, 6.821256e+003
8.748788e+002, 6.510224e+003
8.753610e+002, 6.209578e+003
8.758431e+002, 5.926128e+003
8.763252e+002, 5.660042e+003
8.768073e+002, 5.413437e+003
8.772894e+002, 5.187894e+003
8.777715e+002, 4.979604e+003
8.782537e+002, 4.788863e+003
8.787358e+002, 4.612805e+003
8.792179e+002, 4.448949e+003
8.797000e+002, 4.295283e+003
8.801821e+002, 4.148899e+003
8.806642e+002, 4.007714e+003
8.811464e+002, 3.875594e+003
8.816285e+002, 3.759059e+003
8.821106e+002, 3.657191e+003
8.825927e+002, 3.564233e+003
8.830748e+002, 3.480567e+003
8.835569e+002, 3.403598e+003
8.840391e+002, 3.333312e+003
8.845212e+002, 3.265812e+003
8.850033e+002, 3.195748e+003
8.854854e+002, 3.123590e+003
8.859675e+002, 3.051237e+003
8.864496e+002, 2.981069e+003
8.869318e+002, 2.906657e+003
8.874139e+002, 2.826346e+003
8.878960e+002, 2.742436e+003
8.883781e+002, 2.653546e+003
8.888602e+002, 2.562488e+003
8.893423e+002, 2.474452e+003
8.898245e+002, 2.389813e+003
8.903066e+002, 2.307435e+003
8.907887e+002, 2.225883e+003
8.912708e+002, 2.147671e+003
8.917529e+002, 2.073708e+003
8.922350e+002, 2.004253e+003
8.927172e+002, 1.940213e+003
8.931993e+002, 1.881664e+003
8.936814e+002, 1.826815e+003
8.941635e+002, 1.773761e+003
8.946456e+002, 1.725819e+003
8.951277e+002, 1.690656e+003
8.956099e+002, 1.663100e+003
8.960920e+002, 1.631925e+003
8.965741e+002, 1.596291e+003
8.970562e+002, 1.560424e+003
8.975383e+002, 1.526162e+003
8.980204e+002, 1.493722e+003
8.985026e+002, 1.463510e+003
8.989847e+002, 1.435528e+003
8.994668e+002, 1.410082e+003
8.999489e+002, 1.387105e+003
9.004310e+002, 1.366097e+003
9.009131e+002, 1.347263e+003
9.013953e+002, 1.329575e+003
9.018774e+002, 1.312127e+003
9.023595e+002, 1.295062e+003
9.028416e+002, 1.279509e+003
9.033237e+002, 1.266443e+003
9.038058e+002, 1.253118e+003
9.042880e+002, 1.240131e+003
9.047701e+002, 1.226269e+003
9.052522e+002, 1.210892e+003
9.057343e+002, 1.194458e+003
9.062164e+002, 1.176911e+003
9.066985e+002, 1.158452e+003
9.071807e+002, 1.141949e+003
9.076628e+002, 1.128726e+003
9.081449e+002, 1.117322e+003
9.086270e+002, 1.107945e+003
9.091091e+002, 1.099227e+003
9.095912e+002, 1.089264e+003
9.100734e+002, 1.078528e+003
9.105555e+002, 1.069255e+003
9.110376e+002, 1.062517e+003
9.115197e+002, 1.055743e+003
9.120018e+002, 1.045144e+003
9.124839e+002, 1.033064e+003
9.129661e+002, 1.024743e+003
9.134482e+002, 1.019632e+003
9.139303e+002, 1.014571e+003
9.144124e+002, 1.008643e+003
9.148945e+002, 1.002672e+003
9.153766e+002, 9.973719e+002
9.158588e+002, 9.925886e+002
9.163409e+002, 9.882876e+002
9.168230e+002, 9.848431e+002
9.173051e+002, 9.777926e+002
9.177872e+002, 9.655360e+002
9.182693e+002, 9.537941e+002
9.187515e+002, 9.453584e+002
9.192336e+002, 9.389855e+002
9.197157e+002, 9.326847e+002
9.201978e+002, 9.261956e+002
9.206799e+002, 9.221374e+002
9.211620e+002, 9.224977e+002
9.216442e+002, 9.225531e+002
9.221263e+002, 9.220696e+002
9.226084e+002, 9.207342e+002
9.230905e+002, 9.174156e+002
9.235726e+002, 9.132594e+002
9.240547e+002, 9.111364e+002
9.245369e+002, 9.122828e+002
9.250190e+002, 9.125466e+002
9.255011e+002, 9.089803e+002
9.259832e+002, 9.056088e+002
9.264653e+002, 9.048517e+002
9.269474e+002, 9.061088e+002
9.274296e+002, 9.091074e+002
9.279117e+002, 9.131887e+002
9.283938e+002, 9.163969e+002
9.288759e+002, 9.179244e+002
9.293580e+002, 9.173121e+002
9.298401e+002, 9.125101e+002
9.303223e+002, 9.058605e+002
9.308044e+002, 9.028509e+002
9.312865e+002, 9.026251e+002
9.317686e+002, 8.990612e+002
9.322507e+002, 8.898085e+002
9.327328e+002, 8.795296e+002
9.332150e+002, 8.735209e+002
9.336971e+002, 8.708856e+002
9.341792e+002, 8.678172e+002
9.346613e+002, 8.643287e+002
9.351434e+002, 8.638219e+002
9.356255e+002, 8.673140e+002
9.361077e+002, 8.715697e+002
9.365898e+002, 8.754012e+002
9.370719e+002, 8.768380e+002
9.375540e+002, 8.705403e+002
9.380361e+002, 8.540133e+002
9.385182e+002, 8.439227e+002
9.390004e+002, 8.439280e+002
9.394825e+002, 8.431597e+002
9.399646e+002, 8.366173e+002
9.404467e+002, 8.300854e+002
9.409288e+002, 8.303206e+002
9.414109e+002, 8.354114e+002
9.418931e+002, 8.367856e+002
9.423752e+002, 8.312744e+002
9.428573e+002, 8.273763e+002
9.433394e+002, 8.265541e+002
9.438215e+002, 8.270482e+002
9.443036e+002, 8.288436e+002
9.447858e+002, 8.309457e+002
9.452679e+002, 8.318644e+002
9.457500e+002, 8.316044e+002
9.462321e+002, 8.321214e+002
9.467142e+002, 8.354387e+002
9.471964e+002, 8.382171e+002
9.476785e+002, 8.378527e+002
9.481606e+002, 8.363343e+002
9.486427e+002, 8.354540e+002
9.491248e+002, 8.354730e+002
9.496069e+002, 8.364180e+002
9.500891e+002, 8.382694e+002
9.505712e+002, 8.404742e+002
9.510533e+002, 8.426498e+002
9.515354e+002, 8.447772e+002
9.520175e+002, 8.467773e+002
9.524996e+002, 8.487129e+002
9.529818e+002, 8.508057e+002
9.534639e+002, 8.530718e+002
9.539460e+002, 8.550842e+002
9.544281e+002, 8.564918e+002
9.549102e+002, 8.582381e+002
9.553923e+002, 8.622557e+002
9.558745e+002, 8.682876e+002
9.563566e+002, 8.739333e+002
9.568387e+002, 8.792007e+002
9.573208e+002, 8.828613e+002
9.578029e+002, 8.841543e+002
9.582850e+002, 8.860090e+002
9.587672e+002, 8.913676e+002
9.592493e+002, 8.992618e+002
9.597314e+002, 9.059163e+002
9.602135e+002, 9.113734e+002
9.606956e+002, 9.152396e+002
9.611777e+002, 9.161305e+002
9.616599e+002, 9.181803e+002
9.621420e+002, 9.229159e+002
9.626241e+002, 9.298146e+002
9.631062e+002, 9.388991e+002
9.635883e+002, 9.501357e+002
9.640704e+002, 9.600118e+002
9.645526e+002, 9.674316e+002
9.650347e+002, 9.751532e+002
9.655168e+002, 9.837931e+002
9.659989e+002, 9.923799e+002
9.664810e+002, 1.000383e+003
9.669631e+002, 1.007996e+003
9.674453e+002, 1.015865e+003
9.679274e+002, 1.024156e+003
9.684095e+002, 1.031060e+003
9.688916e+002, 1.034510e+003
9.693737e+002, 1.038484e+003
9.698558e+002, 1.044946e+003
9.703380e+002, 1.052620e+003
9.708201e+002, 1.061987e+003
9.713022e+002, 1.071156e+003
9.717843e+002, 1.075446e+003
9.722664e+002, 1.072992e+003
9.727485e+002, 1.070870e+003
9.732307e+002, 1.075141e+003
9.737128e+002, 1.080762e+003
9.741949e+002, 1.084013e+003
9.746770e+002, 1.084510e+003
9.751591e+002, 1.081062e+003
9.756412e+002, 1.074250e+003
9.761234e+002, 1.066918e+003
9.766055e+002, 1.060581e+003
9.770876e+002, 1.054437e+003
9.775698e+002, 1.048212e+003
9.780519e+002, 1.041167e+003
9.785340e+002, 1.031503e+003
9.790161e+002, 1.019474e+003
9.794982e+002, 1.006226e+003
9.799803e+002, 9.920895e+002
9.804625e+002, 9.773649e+002
9.809446e+002, 9.623124e+002
9.814267e+002, 9.466491e+002
9.819088e+002, 9.287826e+002
9.823909e+002, 9.092609e+002
9.828730e+002, 8.939382e+002
9.833552e+002, 8.833209e+002
9.838373e+002, 8.710690e+002
9.843194e+002, 8.545638e+002
9.848015e+002, 8.377650e+002
9.852836e+002, 8.250660e+002
9.857657e+002, 8.153703e+002
9.862479e+002, 8.027142e+002
9.867300e+002, 7.862205e+002
9.872121e+002, 7.714849e+002
9.876942e+002, 7.592466e+002
9.881763e+002, 7.475096e+002
9.886584e+002, 7.349221e+002
9.891406e+002, 7.231237e+002
9.896227e+002, 7.146408e+002
9.901048e+002, 7.093883e+002
9.905869e+002, 7.041516e+002
9.910690e+002, 7.000914e+002
9.915511e+002, 6.937274e+002
9.920333e+002, 6.824552e+002
9.925154e+002, 6.715034e+002
9.929975e+002, 6.635662e+002
9.934796e+002, 6.576664e+002
9.939617e+002, 6.525787e+002
9.944438e+002, 6.483721e+002
9.949260e+002, 6.438308e+002
9.954081e+002, 6.383445e+002
9.958902e+002, 6.332560e+002
9.963723e+002, 6.288778e+002
9.968544e+002, 6.249471e+002
9.973365e+002, 6.209423e+002
9.978187e+002, 6.173577e+002
9.983008e+002, 6.157385e+002
9.987829e+002, 6.166490e+002
9.992650e+002, 6.156086e+002
9.997471e+002, 6.093025e+002
1.000229e+003, 6.031752e+002
1.000711e+003, 5.999701e+002
1.001193e+003, 5.979235e+002
1.001676e+003, 5.957151e+002
1.002158e+003, 5.930342e+002
1.002640e+003, 5.896555e+002
1.003122e+003, 5.854757e+002
1.003604e+003, 5.809984e+002
1.004086e+003, 5.755842e+002
1.004568e+003, 5.709122e+002
1.005050e+003, 5.688185e+002
1.005533e+003, 5.680147e+002
1.006015e+003, 5.670441e+002
1.006497e+003, 5.655562e+002
1.006979e+003, 5.634708e+002
1.007461e+003, 5.607480e+002
1.007943e+003, 5.574625e+002
1.008425e+003, 5.528846e+002
1.008907e+003, 5.484137e+002
1.009389e+003, 5.458825e+002
1.009872e+003, 5.449410e+002
1.010354e+003, 5.451420e+002
1.010836e+003, 5.461044e+002
1.011318e+003, 5.468828e+002
1.011800e+003, 5.469388e+002
1.012282e+003, 5.464995e+002
1.012764e+003, 5.460595e+002
1.013246e+003, 5.452350e+002
1.013729e+003, 5.427233e+002
1.014211e+003, 5.390369e+002
1.014693e+003, 5.364542e+002
1.015175e+003, 5.353270e+002
1.015657e+003, 5.336098e+002
1.016139e+003, 5.297650e+002
1.016621e+003, 5.252401e+002
1.017103e+003, 5.226995e+002
1.017585e+003, 5.216613e+002
1.018068e+003, 5.197921e+002
1.018550e+003, 5.171667e+002
1.019032e+003, 5.152875e+002
1.019514e+003, 5.145903e+002
1.019996e+003, 5.141937e+002
1.020478e+003, 5.134155e+002
1.020960e+003, 5.123786e+002
1.021442e+003, 5.114610e+002
1.021924e+003, 5.106396e+002
1.022407e+003, 5.091987e+002
1.022889e+003, 5.071065e+002
1.023371e+003, 5.044326e+002
1.023853e+003, 5.010718e+002
1.024335e+003, 4.978969e+002
1.024817e+003, 4.957278e+002
1.025299e+003, 4.942541e+002
1.025781e+003, 4.921740e+002
1.026264e+003, 4.891056e+002
1.026746e+003, 4.892527e+002
1.027228e+003, 4.939412e+002
1.027710e+003, 4.960400e+002
1.028192e+003, 4.925063e+002
1.028674e+003, 4.873189e+002
1.029156e+003, 4.839066e+002
1.029638e+003, 4.822507e+002
1.030120e+003, 4.825817e+002
1.030603e+003, 4.859922e+002
1.031085e+003, 4.870273e+002
1.031567e+003, 4.840883e+002
1.032049e+003, 4.827592e+002
1.032531e+003, 4.863370e+002
1.033013e+003, 4.899401e+002
1.033495e+003, 4.880614e+002
1.033977e+003, 4.820880e+002
1.034459e+003, 4.791166e+002
1.034942e+003, 4.806945e+002
1.035424e+003, 4.816111e+002
1.035906e+003, 4.817003e+002
1.036388e+003, 4.813640e+002
1.036870e+003, 4.802318e+002
1.037352e+003, 4.792697e+002
1.037834e+003, 4.797699e+002
1.038316e+003, 4.813625e+002
1.038799e+003, 4.818108e+002
1.039281e+003, 4.802337e+002
1.039763e+003, 4.792343e+002
1.040245e+003, 4.795058e+002
1.040727e+003, 4.794552e+002
1.041209e+003, 4.783703e+002
1.041691e+003, 4.768935e+002
1.042173e+003, 4.754298e+002
1.042656e+003, 4.740558e+002
1.043138e+003, 4.731269e+002
1.043620e+003, 4.717533e+002
1.044102e+003, 4.726371e+002
1.044584e+003, 4.797535e+002
1.045066e+003, 4.844162e+002
1.045548e+003, 4.821198e+002
1.046030e+003, 4.769452e+002
1.046512e+003, 4.722617e+002
1.046995e+003, 4.682441e+002
1.047477e+003, 4.646624e+002
1.047959e+003, 4.607585e+002
1.048441e+003, 4.590000e+002
1.048923e+003, 4.613637e+002
1.049405e+003, 4.639900e+002
1.049887e+003, 4.658367e+002
1.050369e+003, 4.667891e+002
1.050851e+003, 4.665226e+002
1.051334e+003, 4.652951e+002
1.051816e+003, 4.638954e+002
1.052298e+003, 4.617842e+002
1.052780e+003, 4.613587e+002
1.053262e+003, 4.653741e+002
1.053744e+003, 4.685143e+002
1.054226e+003, 4.679205e+002
1.054708e+003, 4.655704e+002
1.055191e+003, 4.625634e+002
1.055673e+003, 4.596836e+002
1.056155e+003, 4.589705e+002
1.056637e+003, 4.615616e+002
1.057119e+003, 4.638555e+002
1.057601e+003, 4.643061e+002
1.058083e+003, 4.647606e+002
1.058565e+003, 4.668289e+002
1.059047e+003, 4.688083e+002
1.059530e+003, 4.688766e+002
1.060012e+003, 4.673111e+002
1.060494e+003, 4.654271e+002
1.060976e+003, 4.635191e+002
1.061458e+003, 4.614200e+002
1.061940e+003, 4.585062e+002
1.062422e+003, 4.560375e+002
1.062904e+003, 4.546408e+002
1.063386e+003, 4.540379e+002
1.063869e+003, 4.538946e+002
1.064351e+003, 4.542818e+002
1.064833e+003, 4.559076e+002
1.065315e+003, 4.593300e+002
1.065797e+003, 4.610231e+002
1.066279e+003, 4.583906e+002
1.066761e+003, 4.550946e+002
1.067243e+003, 4.524750e+002
1.067726e+003, 4.506426e+002
1.068208e+003, 4.499808e+002
1.068690e+003, 4.500616e+002
1.069172e+003, 4.498776e+002
1.069654e+003, 4.491569e+002
1.070136e+003, 4.487158e+002
1.070618e+003, 4.496523e+002
1.071100e+003, 4.500343e+002
1.071583e+003, 4.478043e+002
1.072065e+003, 4.454284e+002
1.072547e+003, 4.457470e+002
1.073029e+003, 4.476218e+002
1.073511e+003, 4.482381e+002
1.073993e+003, 4.469626e+002
1.074475e+003, 4.456668e+002
1.074957e+003, 4.454476e+002
1.075439e+003, 4.450479e+002
1.075922e+003, 4.430747e+002
1.076404e+003, 4.413182e+002
1.076886e+003, 4.421940e+002
1.077368e+003, 4.441575e+002
1.077850e+003, 4.438556e+002
1.078332e+003, 4.408622e+002
1.078814e+003, 4.385580e+002
1.079296e+003, 4.383620e+002
1.079779e+003, 4.392370e+002
1.080261e+003, 4.420319e+002
1.080743e+003, 4.444079e+002
1.081225e+003, 4.439455e+002
1.081707e+003, 4.419722e+002
1.082189e+003, 4.407132e+002
1.082671e+003, 4.404510e+002
1.083153e+003, 4.399586e+002
1.083635e+003, 4.378111e+002
1.084118e+003, 4.371631e+002
1.084600e+003, 4.420097e+002
1.085082e+003, 4.462083e+002
1.085564e+003, 4.441368e+002
1.086046e+003, 4.392792e+002
1.086528e+003, 4.362670e+002
1.087010e+003, 4.356205e+002
1.087492e+003, 4.360317e+002
1.087974e+003, 4.375186e+002
1.088457e+003, 4.388526e+002
1.088939e+003, 4.401767e+002
1.089421e+003, 4.404657e+002
1.089903e+003, 4.380575e+002
1.090385e+003, 4.349893e+002
1.090867e+003, 4.339943e+002
1.091349e+003, 4.345803e+002
1.091831e+003, 4.339433e+002
1.092314e+003, 4.309625e+002
1.092796e+003, 4.283170e+002
1.093278e+003, 4.270493e+002
1.093760e+003, 4.262841e+002
1.094242e+003, 4.258708e+002
1.094724e+003, 4.254923e+002
1.095206e+003, 4.249274e+002
1.095688e+003, 4.241396e+002
1.096171e+003, 4.229145e+002
1.096653e+003, 4.210393e+002
1.097135e+003, 4.201256e+002
1.097617e+003, 4.212717e+002
1.098099e+003, 4.226485e+002
1.098581e+003, 4.238117e+002
1.099063e+003, 4.246728e+002
1.099545e+003, 4.254257e+002
1.100027e+003, 4.257457e+002
1.100510e+003, 4.245291e+002
1.100992e+003, 4.215777e+002
1.101474e+003, 4.203333e+002
1.101956e+003, 4.238172e+002
1.102438e+003, 4.259018e+002
1.102920e+003, 4.232029e+002
1.103402e+003, 4.205471e+002
1.103884e+003, 4.214044e+002
1.104366e+003, 4.238911e+002
1.104849e+003, 4.253731e+002
1.105331e+003, 4.256679e+002
1.105813e+003, 4.255630e+002
1.106295e+003, 4.251628e+002
1.106777e+003, 4.243804e+002
1.107259e+003, 4.227001e+002
1.107741e+003, 4.212285e+002
1.108223e+003, 4.203446e+002
1.108706e+003, 4.199998e+002
1.109188e+003, 4.206148e+002
1.109670e+003, 4.218116e+002
1.110152e+003, 4.216566e+002
1.110634e+003, 4.194078e+002
1.111116e+003, 4.172234e+002
1.111598e+003, 4.144269e+002
1.112080e+003, 4.127412e+002
1.112563e+003, 4.132614e+002
1.113045e+003, 4.145573e+002
1.113527e+003, 4.158552e+002
1.114009e+003, 4.169958e+002
1.114491e+003, 4.172985e+002
1.114973e+003, 4.161339e+002
1.115455e+003, 4.169975e+002
1.115937e+003, 4.230598e+002
1.116419e+003, 4.254395e+002
1.116901e+003, 4.192685e+002
1.117384e+003, 4.138056e+002
1.117866e+003, 4.157896e+002
1.118348e+003, 4.208497e+002
1.118830e+003, 4.213875e+002
1.119312e+003, 4.172344e+002
1.119794e+003, 4.147042e+002
1.120276e+003, 4.143158e+002
1.120758e+003, 4.142440e+002
1.121241e+003, 4.144726e+002
1.121723e+003, 4.145347e+002
1.122205e+003, 4.138412e+002
1.122687e+003, 4.136472e+002
1.123169e+003, 4.159674e+002
1.123651e+003, 4.199613e+002
1.124133e+003, 4.204163e+002
1.124615e+003, 4.163870e+002
1.125098e+003, 4.134473e+002
1.125580e+003, 4.120263e+002
1.126062e+003, 4.107287e+002
1.126544e+003, 4.090170e+002
1.127026e+003, 4.077900e+002
1.127508e+003, 4.080421e+002
1.127990e+003, 4.088218e+002
1.128472e+003, 4.072453e+002
1.128954e+003, 4.031765e+002
1.129437e+003, 4.025784e+002
1.129919e+003, 4.057327e+002
1.130401e+003, 4.077707e+002
1.130883e+003, 4.076066e+002
1.131365e+003, 4.072150e+002
1.131847e+003, 4.077432e+002
1.132329e+003, 4.088936e+002
1.132811e+003, 4.104583e+002
1.133293e+003, 4.121381e+002
1.133776e+003, 4.120811e+002
1.134258e+003, 4.105832e+002
1.134740e+003, 4.109131e+002
1.135222e+003, 4.132192e+002
1.135704e+003, 4.139065e+002
1.136186e+003, 4.115351e+002
1.136668e+003, 4.088613e+002
1.137150e+003, 4.085061e+002
1.137633e+003, 4.097912e+002
1.138115e+003, 4.123939e+002
1.138597e+003, 4.152808e+002
1.139079e+003, 4.146569e+002
1.139561e+003, 4.112330e+002
1.140043e+003, 4.084612e+002
1.140525e+003, 4.072749e+002
1.141007e+003, 4.072604e+002
1.141490e+003, 4.082665e+002
1.141972e+003, 4.094970e+002
1.142454e+003, 4.091740e+002
1.142936e+003, 4.090406e+002
1.143418e+003, 4.141082e+002
1.143900e+003, 4.206831e+002
1.144382e+003, 4.198093e+002
1.144864e+003, 4.125280e+002
1.145346e+003, 4.071635e+002
1.145828e+003, 4.069560e+002
1.146311e+003, 4.076279e+002
1.146793e+003, 4.050684e+002
1.147275e+003, 4.028713e+002
1.147757e+003, 4.055394e+002
1.148239e+003, 4.094987e+002
1.148721e+003, 4.104349e+002
1.149203e+003, 4.092880e+002
1.149685e+003, 4.086578e+002
1.150168e+003, 4.089901e+002
1.150650e+003, 4.089870e+002
1.151132e+003, 4.080555e+002
1.151614e+003, 4.067216e+002
1.152096e+003, 4.043123e+002
1.152578e+003, 4.026282e+002
1.153060e+003, 4.039600e+002
1.153542e+003, 4.059218e+002
1.154025e+003, 4.051078e+002
1.154507e+003, 4.023718e+002
1.154989e+003, 4.016223e+002
1.155471e+003, 4.042062e+002
1.155953e+003, 4.058804e+002
1.156435e+003, 4.044954e+002
1.156917e+003, 4.036566e+002
1.157399e+003, 4.057117e+002
1.157881e+003, 4.074743e+002
1.158364e+003, 4.057849e+002
1.158846e+003, 4.028028e+002
1.159328e+003, 4.026234e+002
1.159810e+003, 4.054639e+002
1.160292e+003, 4.065776e+002
1.160774e+003, 4.051444e+002
1.161256e+003, 4.034021e+002
1.161738e+003, 4.012847e+002
1.162220e+003, 3.990345e+002
1.162703e+003, 3.958969e+002
1.163185e+003, 3.939127e+002
1.163667e+003, 3.955875e+002
1.164149e+003, 3.996312e+002
1.164631e+003, 4.016538e+002
1.165113e+003, 4.012583e+002
1.165595e+003, 4.012450e+002
1.166077e+003, 4.016193e+002
1.166560e+003, 4.023758e+002
1.167042e+003, 4.035471e+002
1.167524e+003, 4.050767e+002
1.168006e+003, 4.071081e+002
1.168488e+003, 4.087622e+002
1.168970e+003, 4.087368e+002
1.169452e+003, 4.071482e+002
1.169934e+003, 4.036106e+002
1.170417e+003, 3.984944e+002
1.170899e+003, 3.984709e+002
1.171381e+003, 4.037123e+002
1.171863e+003, 4.064482e+002
1.172345e+003, 4.041312e+002
1.172827e+003, 4.011012e+002
1.173309e+003, 4.007939e+002
1.173791e+003, 4.021979e+002
1.174273e+003, 4.043521e+002
1.174755e+003, 4.065964e+002
1.175238e+003, 4.070564e+002
1.175720e+003, 4.063212e+002
1.176202e+003, 4.062401e+002
1.176684e+003, 4.069137e+002
1.177166e+003, 4.072515e+002
1.177648e+003, 4.067796e+002
1.178130e+003, 4.057260e+002
1.178612e+003, 4.038646e+002
1.179095e+003, 4.020058e+002
1.179577e+003, 4.011531e+002
1.180059e+003, 4.006086e+002
1.180541e+003, 3.991289e+002
1.181023e+003, 3.974384e+002
1.181505e+003, 3.971775e+002
1.181987e+003, 3.984395e+002
1.182469e+003, 3.998674e+002
1.182952e+003, 4.011061e+002
1.183434e+003, 4.019084e+002
1.183916e+003, 4.019426e+002
1.184398e+003, 4.017662e+002
1.184880e+003, 4.013122e+002
1.185362e+003, 4.011120e+002
1.185844e+003, 4.018683e+002
1.186326e+003, 4.032173e+002
1.186808e+003, 4.042173e+002
1.187291e+003, 4.047226e+002
1.187773e+003, 4.053891e+002
1.188255e+003, 4.068146e+002
1.188737e+003, 4.075837e+002
1.189219e+003, 4.079649e+002
1.189701e+003, 4.070225e+002
1.190183e+003, 4.030208e+002
1.190665e+003, 3.990999e+002
1.191147e+003, 3.988801e+002
1.191630e+003, 4.015451e+002
1.192112e+003, 4.037376e+002
1.192594e+003, 4.055215e+002
1.193076e+003, 4.065318e+002
1.193558e+003, 4.067678e+002
1.194040e+003, 4.059968e+002
1.194522e+003, 4.038925e+002
1.195004e+003, 4.025338e+002
1.195487e+003, 4.033113e+002
1.195969e+003, 4.047271e+002
1.196451e+003, 4.047393e+002
1.196933e+003, 4.035784e+002
1.197415e+003, 4.016248e+002
1.197897e+003, 3.992378e+002
1.198379e+003, 3.987587e+002
1.198861e+003, 4.000884e+002
1.199344e+003, 4.013836e+002
1.199826e+003, 4.021140e+002
1.200308e+003, 4.028693e+002
1.200790e+003, 4.040520e+002
1.201272e+003, 4.054601e+002
1.201754e+003, 4.077723e+002
1.202236e+003, 4.094031e+002
1.202718e+003, 4.072877e+002
1.203200e+003, 4.033219e+002
1.203682e+003, 4.003204e+002
1.204165e+003, 3.986533e+002
1.204647e+003, 3.980308e+002
1.205129e+003, 3.983354e+002
1.205611e+003, 3.993334e+002
1.206093e+003, 4.018894e+002
1.206575e+003, 4.034608e+002
1.207057e+003, 4.017726e+002
1.207539e+003, 3.997242e+002
1.208022e+003, 3.986476e+002
1.208504e+003, 3.988168e+002
1.208986e+003, 4.011994e+002
1.209468e+003, 4.049501e+002
1.209950e+003, 4.071242e+002
1.210432e+003, 4.070633e+002
1.210914e+003, 4.068639e+002
1.211396e+003, 4.067962e+002
1.211879e+003, 4.063906e+002
1.212361e+003, 4.053038e+002
1.212843e+003, 4.042727e+002
1.213325e+003, 4.034701e+002
1.213807e+003, 4.032715e+002
1.214289e+003, 4.045986e+002
1.214771e+003, 4.067033e+002
1.215253e+003, 4.052931e+002
1.215735e+003, 3.995962e+002
1.216218e+003, 3.980392e+002
1.216700e+003, 4.011523e+002
1.217182e+003, 4.036945e+002
1.217664e+003, 4.044413e+002
1.218146e+003, 4.049426e+002
1.218628e+003, 4.061616e+002
1.219110e+003, 4.070479e+002
1.219592e+003, 4.059593e+002
1.220074e+003, 4.038636e+002
1.220557e+003, 4.029190e+002
1.221039e+003, 4.028918e+002
1.221521e+003, 4.033421e+002
1.222003e+003, 4.040963e+002
1.222485e+003, 4.049489e+002
1.222967e+003, 4.057570e+002
1.223449e+003, 4.062295e+002
1.223931e+003, 4.062692e+002
1.224414e+003, 4.055583e+002
1.224896e+003, 4.035642e+002
1.225378e+003, 4.010359e+002
1.225860e+003, 3.979048e+002
1.226342e+003, 3.951562e+002
1.226824e+003, 3.937881e+002
1.227306e+003, 3.936075e+002
1.227788e+003, 3.945226e+002
1.228271e+003, 3.963370e+002
1.228753e+003, 3.969803e+002
1.229235e+003, 3.949371e+002
1.229717e+003, 3.936884e+002
1.230199e+003, 3.948206e+002
1.230681e+003, 3.952486e+002
1.231163e+003, 3.928326e+002
1.231645e+003, 3.908941e+002
1.232127e+003, 3.921049e+002
1.232609e+003, 3.952099e+002
1.233092e+003, 3.979461e+002
1.233574e+003, 4.003089e+002
1.234056e+003, 4.017059e+002
1.234538e+003, 4.020092e+002
1.235020e+003, 4.027434e+002
1.235502e+003, 4.042054e+002
1.235984e+003, 4.028210e+002
1.236466e+003, 3.972357e+002
1.236949e+003, 3.928334e+002
1.237431e+003, 3.940083e+002
1.237913e+003, 3.975398e+002
1.238395e+003, 3.985059e+002
1.238877e+003, 3.977579e+002
1.239359e+003, 3.968671e+002
1.239841e+003, 3.961250e+002
1.240323e+003, 3.964869e+002
1.240806e+003, 3.975950e+002
1.241288e+003, 3.977258e+002
1.241770e+003, 3.966448e+002
1.242252e+003, 3.968027e+002
1.242734e+003, 4.004648e+002
1.243216e+003, 4.032835e+002
1.243698e+003, 4.018653e+002
1.244180e+003, 3.992946e+002
1.244662e+003, 3.968520e+002
1.245145e+003, 3.950728e+002
1.245627e+003, 3.946632e+002
1.246109e+003, 3.951679e+002
1.246591e+003, 3.956698e+002
1.247073e+003, 3.960984e+002
1.247555e+003, 3.960107e+002
1.248037e+003, 3.950175e+002
1.248519e+003, 3.942189e+002
1.249001e+003, 3.938561e+002
1.249484e+003, 3.931956e+002
1.249966e+003, 3.916316e+002
1.250448e+003, 3.906077e+002
1.250930e+003, 3.913979e+002
1.251412e+003, 3.931341e+002
1.251894e+003, 3.940326e+002
1.252376e+003, 3.943294e+002
1.252858e+003, 3.959852e+002
1.253341e+003, 3.988032e+002
1.253823e+003, 4.013252e+002
1.254305e+003, 4.032900e+002
1.254787e+003, 4.042506e+002
1.255269e+003, 4.040397e+002
1.255751e+003, 4.022162e+002
1.256233e+003, 3.981468e+002
1.256715e+003, 3.946353e+002
1.257198e+003, 3.955086e+002
1.257680e+003, 3.977297e+002
1.258162e+003, 3.979086e+002
1.258644e+003, 3.973099e+002
1.259126e+003, 3.976312e+002
1.259608e+003, 3.985992e+002
1.260090e+003, 3.993044e+002
1.260572e+003, 3.995991e+002
1.261054e+003, 3.998425e+002
1.261536e+003, 4.003875e+002
1.262019e+003, 4.003008e+002
1.262501e+003, 3.982621e+002
1.262983e+003, 3.971576e+002
1.263465e+003, 3.984327e+002
1.263947e+003, 4.001718e+002
1.264429e+003, 4.015051e+002
1.264911e+003, 4.022451e+002
1.265393e+003, 4.020838e+002
1.265876e+003, 4.010880e+002
1.266358e+003, 3.995378e+002
1.266840e+003, 3.973713e+002
1.267322e+003, 3.959648e+002
1.267804e+003, 3.953749e+002
1.268286e+003, 3.953372e+002
1.268768e+003, 3.957493e+002
1.269250e+003, 3.959440e+002
1.269733e+003, 3.955502e+002
1.270215e+003, 3.951582e+002
1.270697e+003, 3.955716e+002
1.271179e+003, 3.961144e+002
1.271661e+003, 3.959459e+002
1.272143e+003, 3.951816e+002
1.272625e+003, 3.936293e+002
1.273107e+003, 3.917948e+002
1.273589e+003, 3.897328e+002
1.274072e+003, 3.882377e+002
1.274554e+003, 3.902651e+002
1.275036e+003, 3.973057e+002
1.275518e+003, 4.020417e+002
1.276000e+003, 4.002910e+002
1.276482e+003, 3.987081e+002
1.276964e+003, 4.004766e+002
1.277446e+003, 4.010086e+002
1.277929e+003, 3.962645e+002
1.278411e+003, 3.914088e+002
1.278893e+003, 3.915581e+002
1.279375e+003, 3.952360e+002
1.279857e+003, 3.988478e+002
1.280339e+003, 4.024352e+002
1.280821e+003, 4.024193e+002
1.281303e+003, 3.987727e+002
1.281786e+003, 3.965776e+002
1.282268e+003, 3.964937e+002
##END=



