##NAMES=Wendwilsonite
##RRUFFID=R180008
##IDEAL CHEMISTRY=Ca_2_Mg(As^5+^O_4_)_2_&#183;2H_2_O
##LOCALITY=Bou Azzer, Morrocco
##OWNER=RRUFF
##SOURCE=Wendell Wilson
##DESCRIPTION=Red crystals associated with colorless calcite
##STATUS=The identification of this mineral is confirmed by single-crystal X-ray diffraction and chemical analysis.
##URL=rruff.info/R180008
##MEASURED CHEMISTRY=Ca_1.97_(Mg_0.55_Co_0.38_Ni_0.03_Mn_0.02_Cu_0.01_)_Σ=0.99_(AsO_4_)_2_·2H_2_O
8.758203e+001, 6.582640e+002
8.806415e+001, 6.532999e+002
8.854626e+001, 6.524552e+002
8.902838e+001, 6.589764e+002
8.951050e+001, 6.655278e+002
8.999261e+001, 6.696341e+002
9.047473e+001, 6.710935e+002
9.095685e+001, 6.702487e+002
9.143896e+001, 6.668176e+002
9.192108e+001, 6.607072e+002
9.240320e+001, 6.551036e+002
9.288531e+001, 6.415028e+002
9.336743e+001, 6.179230e+002
9.384955e+001, 5.902445e+002
9.433167e+001, 5.685024e+002
9.481378e+001, 5.485450e+002
9.529590e+001, 5.306732e+002
9.577802e+001, 5.148528e+002
9.626013e+001, 5.018546e+002
9.674225e+001, 4.919509e+002
9.722437e+001, 4.847729e+002
9.770648e+001, 4.796183e+002
9.818860e+001, 4.773772e+002
9.867072e+001, 4.760692e+002
9.915283e+001, 4.741429e+002
9.963495e+001, 4.715822e+002
1.001171e+002, 4.700338e+002
1.005992e+002, 4.716658e+002
1.010813e+002, 4.769908e+002
1.015634e+002, 4.843329e+002
1.020455e+002, 4.967371e+002
1.025277e+002, 5.087256e+002
1.030098e+002, 5.166498e+002
1.034919e+002, 5.190462e+002
1.039740e+002, 5.161006e+002
1.044561e+002, 5.080749e+002
1.049382e+002, 4.910889e+002
1.054204e+002, 4.730729e+002
1.059025e+002, 4.534655e+002
1.063846e+002, 4.333936e+002
1.068667e+002, 4.144901e+002
1.073488e+002, 3.974092e+002
1.078309e+002, 3.825842e+002
1.083131e+002, 3.720452e+002
1.087952e+002, 3.680130e+002
1.092773e+002, 3.655040e+002
1.097594e+002, 3.616870e+002
1.102415e+002, 3.565426e+002
1.107236e+002, 3.518713e+002
1.112058e+002, 3.493502e+002
1.116879e+002, 3.484859e+002
1.121700e+002, 3.477024e+002
1.126521e+002, 3.467176e+002
1.131342e+002, 3.456463e+002
1.136163e+002, 3.447331e+002
1.140985e+002, 3.441359e+002
1.145806e+002, 3.433871e+002
1.150627e+002, 3.419095e+002
1.155448e+002, 3.400203e+002
1.160269e+002, 3.384774e+002
1.165090e+002, 3.377881e+002
1.169912e+002, 3.379411e+002
1.174733e+002, 3.384625e+002
1.179554e+002, 3.395272e+002
1.184375e+002, 3.408587e+002
1.189196e+002, 3.420782e+002
1.194017e+002, 3.433352e+002
1.198839e+002, 3.452124e+002
1.203660e+002, 3.483030e+002
1.208481e+002, 3.524538e+002
1.213302e+002, 3.584483e+002
1.218123e+002, 3.674319e+002
1.222944e+002, 3.770233e+002
1.227766e+002, 3.871388e+002
1.232587e+002, 3.972571e+002
1.237408e+002, 4.052224e+002
1.242229e+002, 4.069087e+002
1.247050e+002, 3.987618e+002
1.251871e+002, 3.879513e+002
1.256693e+002, 3.718473e+002
1.261514e+002, 3.537944e+002
1.266335e+002, 3.378434e+002
1.271156e+002, 3.255511e+002
1.275977e+002, 3.166786e+002
1.280798e+002, 3.108724e+002
1.285620e+002, 3.090474e+002
1.290441e+002, 3.078223e+002
1.295262e+002, 3.057491e+002
1.300083e+002, 3.030936e+002
1.304904e+002, 3.010629e+002
1.309725e+002, 3.005764e+002
1.314547e+002, 3.010011e+002
1.319368e+002, 3.008410e+002
1.324189e+002, 2.995565e+002
1.329010e+002, 2.982404e+002
1.333831e+002, 2.980523e+002
1.338652e+002, 2.991479e+002
1.343474e+002, 3.005405e+002
1.348295e+002, 3.018640e+002
1.353116e+002, 3.031552e+002
1.357937e+002, 3.044223e+002
1.362758e+002, 3.055606e+002
1.367579e+002, 3.067512e+002
1.372401e+002, 3.085331e+002
1.377222e+002, 3.113488e+002
1.382043e+002, 3.141038e+002
1.386864e+002, 3.167003e+002
1.391685e+002, 3.189849e+002
1.396507e+002, 3.207606e+002
1.401328e+002, 3.218983e+002
1.406149e+002, 3.224025e+002
1.410970e+002, 3.222823e+002
1.415791e+002, 3.210966e+002
1.420612e+002, 3.196557e+002
1.425434e+002, 3.177802e+002
1.430255e+002, 3.157582e+002
1.435076e+002, 3.141755e+002
1.439897e+002, 3.136221e+002
1.444718e+002, 3.143263e+002
1.449539e+002, 3.148323e+002
1.454361e+002, 3.149936e+002
1.459182e+002, 3.151227e+002
1.464003e+002, 3.153640e+002
1.468824e+002, 3.157443e+002
1.473645e+002, 3.162300e+002
1.478466e+002, 3.167584e+002
1.483288e+002, 3.172879e+002
1.488109e+002, 3.181544e+002
1.492930e+002, 3.191235e+002
1.497751e+002, 3.205410e+002
1.502572e+002, 3.230367e+002
1.507393e+002, 3.268800e+002
1.512215e+002, 3.310016e+002
1.517036e+002, 3.335909e+002
1.521857e+002, 3.346896e+002
1.526678e+002, 3.362780e+002
1.531499e+002, 3.392226e+002
1.536320e+002, 3.431245e+002
1.541142e+002, 3.469828e+002
1.545963e+002, 3.504595e+002
1.550784e+002, 3.539706e+002
1.555605e+002, 3.578527e+002
1.560426e+002, 3.620772e+002
1.565247e+002, 3.667656e+002
1.570069e+002, 3.720715e+002
1.574890e+002, 3.779879e+002
1.579711e+002, 3.841422e+002
1.584532e+002, 3.910607e+002
1.589353e+002, 3.977294e+002
1.594174e+002, 4.036149e+002
1.598996e+002, 4.086356e+002
1.603817e+002, 4.126830e+002
1.608638e+002, 4.156760e+002
1.613459e+002, 4.176178e+002
1.618280e+002, 4.183787e+002
1.623102e+002, 4.181447e+002
1.627923e+002, 4.167300e+002
1.632744e+002, 4.134756e+002
1.637565e+002, 4.082855e+002
1.642386e+002, 4.023335e+002
1.647207e+002, 3.977553e+002
1.652029e+002, 3.954167e+002
1.656850e+002, 3.932657e+002
1.661671e+002, 3.907112e+002
1.666492e+002, 3.884583e+002
1.671313e+002, 3.870914e+002
1.676134e+002, 3.868809e+002
1.680956e+002, 3.877162e+002
1.685777e+002, 3.893002e+002
1.690598e+002, 3.923910e+002
1.695419e+002, 3.954133e+002
1.700240e+002, 3.979649e+002
1.705061e+002, 4.004509e+002
1.709883e+002, 4.033923e+002
1.714704e+002, 4.070294e+002
1.719525e+002, 4.113616e+002
1.724346e+002, 4.164917e+002
1.729167e+002, 4.230525e+002
1.733988e+002, 4.295651e+002
1.738810e+002, 4.355402e+002
1.743631e+002, 4.411151e+002
1.748452e+002, 4.466011e+002
1.753273e+002, 4.520805e+002
1.758094e+002, 4.576355e+002
1.762915e+002, 4.633114e+002
1.767737e+002, 4.687877e+002
1.772558e+002, 4.747272e+002
1.777379e+002, 4.817423e+002
1.782200e+002, 4.897355e+002
1.787021e+002, 4.979739e+002
1.791842e+002, 5.063492e+002
1.796664e+002, 5.145801e+002
1.801485e+002, 5.221805e+002
1.806306e+002, 5.288459e+002
1.811127e+002, 5.351270e+002
1.815948e+002, 5.417026e+002
1.820769e+002, 5.487407e+002
1.825591e+002, 5.550917e+002
1.830412e+002, 5.599707e+002
1.835233e+002, 5.638478e+002
1.840054e+002, 5.671130e+002
1.844875e+002, 5.699161e+002
1.849696e+002, 5.720832e+002
1.854518e+002, 5.731596e+002
1.859339e+002, 5.727595e+002
1.864160e+002, 5.720763e+002
1.868981e+002, 5.718905e+002
1.873802e+002, 5.716237e+002
1.878623e+002, 5.706151e+002
1.883445e+002, 5.685688e+002
1.888266e+002, 5.655444e+002
1.893087e+002, 5.619691e+002
1.897908e+002, 5.592755e+002
1.902729e+002, 5.535552e+002
1.907550e+002, 5.430408e+002
1.912372e+002, 5.294833e+002
1.917193e+002, 5.151287e+002
1.922014e+002, 5.012637e+002
1.926835e+002, 4.877762e+002
1.931656e+002, 4.740477e+002
1.936477e+002, 4.582849e+002
1.941299e+002, 4.442842e+002
1.946120e+002, 4.330002e+002
1.950941e+002, 4.238889e+002
1.955762e+002, 4.161016e+002
1.960583e+002, 4.090569e+002
1.965404e+002, 4.027853e+002
1.970226e+002, 3.979699e+002
1.975047e+002, 3.949873e+002
1.979868e+002, 3.929328e+002
1.984689e+002, 3.915065e+002
1.989510e+002, 3.908311e+002
1.994331e+002, 3.914209e+002
1.999153e+002, 3.938538e+002
2.003974e+002, 3.980373e+002
2.008795e+002, 4.005600e+002
2.013616e+002, 4.005363e+002
2.018437e+002, 4.001083e+002
2.023258e+002, 4.002349e+002
2.028080e+002, 4.007919e+002
2.032901e+002, 4.011142e+002
2.037722e+002, 4.007094e+002
2.042543e+002, 3.995856e+002
2.047364e+002, 3.984255e+002
2.052185e+002, 3.978969e+002
2.057007e+002, 3.967997e+002
2.061828e+002, 3.943362e+002
2.066649e+002, 3.905462e+002
2.071470e+002, 3.860082e+002
2.076291e+002, 3.809457e+002
2.081112e+002, 3.754142e+002
2.085934e+002, 3.698272e+002
2.090755e+002, 3.642581e+002
2.095576e+002, 3.586113e+002
2.100397e+002, 3.526429e+002
2.105218e+002, 3.463124e+002
2.110039e+002, 3.403815e+002
2.114861e+002, 3.354486e+002
2.119682e+002, 3.312792e+002
2.124503e+002, 3.273548e+002
2.129324e+002, 3.238878e+002
2.134145e+002, 3.204380e+002
2.138967e+002, 3.162660e+002
2.143788e+002, 3.111331e+002
2.148609e+002, 3.063714e+002
2.153430e+002, 3.027965e+002
2.158251e+002, 3.000340e+002
2.163072e+002, 2.977563e+002
2.167894e+002, 2.958354e+002
2.172715e+002, 2.943381e+002
2.177536e+002, 2.934459e+002
2.182357e+002, 2.933303e+002
2.187178e+002, 2.933573e+002
2.191999e+002, 2.931011e+002
2.196821e+002, 2.928639e+002
2.201642e+002, 2.930489e+002
2.206463e+002, 2.939091e+002
2.211284e+002, 2.951631e+002
2.216105e+002, 2.961552e+002
2.220926e+002, 2.966741e+002
2.225748e+002, 2.973667e+002
2.230569e+002, 2.987978e+002
2.235390e+002, 3.003575e+002
2.240211e+002, 3.013398e+002
2.245032e+002, 3.013770e+002
2.249853e+002, 3.007572e+002
2.254675e+002, 3.003149e+002
2.259496e+002, 3.004534e+002
2.264317e+002, 3.000876e+002
2.269138e+002, 2.988343e+002
2.273959e+002, 2.970983e+002
2.278780e+002, 2.951553e+002
2.283602e+002, 2.930875e+002
2.288423e+002, 2.911728e+002
2.293244e+002, 2.903496e+002
2.298065e+002, 2.915994e+002
2.302886e+002, 2.926663e+002
2.307707e+002, 2.929178e+002
2.312529e+002, 2.929561e+002
2.317350e+002, 2.935400e+002
2.322171e+002, 2.950409e+002
2.326992e+002, 2.971407e+002
2.331813e+002, 2.988230e+002
2.336634e+002, 2.998669e+002
2.341456e+002, 3.006942e+002
2.346277e+002, 3.010038e+002
2.351098e+002, 3.012334e+002
2.355919e+002, 3.020011e+002
2.360740e+002, 3.035965e+002
2.365561e+002, 3.056247e+002
2.370383e+002, 3.069161e+002
2.375204e+002, 3.070160e+002
2.380025e+002, 3.068380e+002
2.384846e+002, 3.062338e+002
2.389667e+002, 3.054424e+002
2.394488e+002, 3.047533e+002
2.399310e+002, 3.042874e+002
2.404131e+002, 3.039606e+002
2.408952e+002, 3.035538e+002
2.413773e+002, 3.028567e+002
2.418594e+002, 3.023717e+002
2.423415e+002, 3.023409e+002
2.428237e+002, 3.024899e+002
2.433058e+002, 3.026418e+002
2.437879e+002, 3.027704e+002
2.442700e+002, 3.025116e+002
2.447521e+002, 3.009418e+002
2.452342e+002, 2.974103e+002
2.457164e+002, 2.939724e+002
2.461985e+002, 2.910076e+002
2.466806e+002, 2.882728e+002
2.471627e+002, 2.853757e+002
2.476448e+002, 2.821342e+002
2.481269e+002, 2.788896e+002
2.486091e+002, 2.762655e+002
2.490912e+002, 2.743682e+002
2.495733e+002, 2.725495e+002
2.500554e+002, 2.707779e+002
2.505375e+002, 2.689690e+002
2.510196e+002, 2.668902e+002
2.515018e+002, 2.644134e+002
2.519839e+002, 2.619873e+002
2.524660e+002, 2.603904e+002
2.529481e+002, 2.596295e+002
2.534302e+002, 2.589126e+002
2.539123e+002, 2.582349e+002
2.543945e+002, 2.574360e+002
2.548766e+002, 2.560508e+002
2.553587e+002, 2.537933e+002
2.558408e+002, 2.516614e+002
2.563229e+002, 2.512021e+002
2.568051e+002, 2.521682e+002
2.572872e+002, 2.528897e+002
2.577693e+002, 2.527434e+002
2.582514e+002, 2.521067e+002
2.587335e+002, 2.515277e+002
2.592156e+002, 2.510462e+002
2.596978e+002, 2.507382e+002
2.601799e+002, 2.507569e+002
2.606620e+002, 2.510234e+002
2.611441e+002, 2.513509e+002
2.616262e+002, 2.517077e+002
2.621083e+002, 2.520785e+002
2.625905e+002, 2.524248e+002
2.630726e+002, 2.527185e+002
2.635547e+002, 2.530673e+002
2.640368e+002, 2.535374e+002
2.645189e+002, 2.541200e+002
2.650010e+002, 2.548347e+002
2.654832e+002, 2.560107e+002
2.659653e+002, 2.572022e+002
2.664474e+002, 2.575624e+002
2.669295e+002, 2.568699e+002
2.674116e+002, 2.561706e+002
2.678937e+002, 2.560009e+002
2.683759e+002, 2.562570e+002
2.688580e+002, 2.569212e+002
2.693401e+002, 2.582316e+002
2.698222e+002, 2.597288e+002
2.703043e+002, 2.606193e+002
2.707864e+002, 2.607175e+002
2.712686e+002, 2.610153e+002
2.717507e+002, 2.622562e+002
2.722328e+002, 2.638784e+002
2.727149e+002, 2.652750e+002
2.731970e+002, 2.661853e+002
2.736791e+002, 2.670340e+002
2.741613e+002, 2.685301e+002
2.746434e+002, 2.708800e+002
2.751255e+002, 2.728661e+002
2.756076e+002, 2.731087e+002
2.760897e+002, 2.732516e+002
2.765718e+002, 2.747768e+002
2.770540e+002, 2.781352e+002
2.775361e+002, 2.821674e+002
2.780182e+002, 2.855636e+002
2.785003e+002, 2.882217e+002
2.789824e+002, 2.909015e+002
2.794645e+002, 2.935533e+002
2.799467e+002, 2.964733e+002
2.804288e+002, 3.001641e+002
2.809109e+002, 3.046700e+002
2.813930e+002, 3.089203e+002
2.818751e+002, 3.117516e+002
2.823572e+002, 3.130728e+002
2.828394e+002, 3.140964e+002
2.833215e+002, 3.156065e+002
2.838036e+002, 3.162750e+002
2.842857e+002, 3.151002e+002
2.847678e+002, 3.121824e+002
2.852499e+002, 3.085722e+002
2.857321e+002, 3.051102e+002
2.862142e+002, 3.018142e+002
2.866963e+002, 2.983568e+002
2.871784e+002, 2.942408e+002
2.876605e+002, 2.904899e+002
2.881426e+002, 2.874461e+002
2.886248e+002, 2.851405e+002
2.891069e+002, 2.835827e+002
2.895890e+002, 2.828815e+002
2.900711e+002, 2.829913e+002
2.905532e+002, 2.833938e+002
2.910353e+002, 2.842470e+002
2.915175e+002, 2.852272e+002
2.919996e+002, 2.861274e+002
2.924817e+002, 2.870538e+002
2.929638e+002, 2.881965e+002
2.934459e+002, 2.896598e+002
2.939280e+002, 2.914414e+002
2.944102e+002, 2.934593e+002
2.948923e+002, 2.956104e+002
2.953744e+002, 2.982346e+002
2.958565e+002, 3.015743e+002
2.963386e+002, 3.053315e+002
2.968207e+002, 3.091424e+002
2.973029e+002, 3.128383e+002
2.977850e+002, 3.164403e+002
2.982671e+002, 3.199386e+002
2.987492e+002, 3.231765e+002
2.992313e+002, 3.266588e+002
2.997134e+002, 3.307712e+002
3.001956e+002, 3.350080e+002
3.006777e+002, 3.389775e+002
3.011598e+002, 3.425657e+002
3.016419e+002, 3.456575e+002
3.021240e+002, 3.481428e+002
3.026061e+002, 3.502404e+002
3.030883e+002, 3.510218e+002
3.035704e+002, 3.500731e+002
3.040525e+002, 3.480571e+002
3.045346e+002, 3.451025e+002
3.050167e+002, 3.413279e+002
3.054988e+002, 3.372310e+002
3.059810e+002, 3.333514e+002
3.064631e+002, 3.296909e+002
3.069452e+002, 3.262565e+002
3.074273e+002, 3.233036e+002
3.079094e+002, 3.203844e+002
3.083915e+002, 3.169856e+002
3.088737e+002, 3.133011e+002
3.093558e+002, 3.101184e+002
3.098379e+002, 3.084330e+002
3.103200e+002, 3.083382e+002
3.108021e+002, 3.076439e+002
3.112842e+002, 3.052109e+002
3.117664e+002, 3.033336e+002
3.122485e+002, 3.029618e+002
3.127306e+002, 3.037797e+002
3.132127e+002, 3.049838e+002
3.136948e+002, 3.059832e+002
3.141769e+002, 3.069087e+002
3.146591e+002, 3.086314e+002
3.151412e+002, 3.117228e+002
3.156233e+002, 3.148834e+002
3.161054e+002, 3.176523e+002
3.165875e+002, 3.202801e+002
3.170696e+002, 3.230442e+002
3.175518e+002, 3.260302e+002
3.180339e+002, 3.293706e+002
3.185160e+002, 3.333480e+002
3.189981e+002, 3.379533e+002
3.194802e+002, 3.433016e+002
3.199623e+002, 3.500823e+002
3.204445e+002, 3.571687e+002
3.209266e+002, 3.633756e+002
3.214087e+002, 3.683736e+002
3.218908e+002, 3.729759e+002
3.223729e+002, 3.782747e+002
3.228550e+002, 3.842939e+002
3.233372e+002, 3.909949e+002
3.238193e+002, 3.988087e+002
3.243014e+002, 4.069799e+002
3.247835e+002, 4.151590e+002
3.252656e+002, 4.232682e+002
3.257477e+002, 4.314883e+002
3.262299e+002, 4.397514e+002
3.267120e+002, 4.479234e+002
3.271941e+002, 4.573220e+002
3.276762e+002, 4.681501e+002
3.281583e+002, 4.802474e+002
3.286404e+002, 4.937060e+002
3.291226e+002, 5.083989e+002
3.296047e+002, 5.240726e+002
3.300868e+002, 5.405583e+002
3.305689e+002, 5.578653e+002
3.310510e+002, 5.760164e+002
3.315331e+002, 5.945973e+002
3.320153e+002, 6.148278e+002
3.324974e+002, 6.380076e+002
3.329795e+002, 6.626378e+002
3.334616e+002, 6.866953e+002
3.339437e+002, 7.093727e+002
3.344258e+002, 7.307470e+002
3.349080e+002, 7.511031e+002
3.353901e+002, 7.712801e+002
3.358722e+002, 7.883548e+002
3.363543e+002, 8.020346e+002
3.368365e+002, 8.122980e+002
3.373186e+002, 8.192236e+002
3.378007e+002, 8.228710e+002
3.382828e+002, 8.221638e+002
3.387649e+002, 8.153143e+002
3.392470e+002, 8.019506e+002
3.397292e+002, 7.853549e+002
3.402113e+002, 7.637504e+002
3.406934e+002, 7.407467e+002
3.411755e+002, 7.183450e+002
3.416576e+002, 6.967396e+002
3.421397e+002, 6.753289e+002
3.426219e+002, 6.528782e+002
3.431040e+002, 6.297329e+002
3.435861e+002, 6.097010e+002
3.440682e+002, 5.935278e+002
3.445503e+002, 5.801547e+002
3.450324e+002, 5.687421e+002
3.455146e+002, 5.591805e+002
3.459967e+002, 5.511956e+002
3.464788e+002, 5.447600e+002
3.469609e+002, 5.397996e+002
3.474430e+002, 5.362748e+002
3.479251e+002, 5.343624e+002
3.484073e+002, 5.334327e+002
3.488894e+002, 5.331157e+002
3.493715e+002, 5.335970e+002
3.498536e+002, 5.352992e+002
3.503357e+002, 5.385314e+002
3.508178e+002, 5.426465e+002
3.513000e+002, 5.471395e+002
3.517821e+002, 5.520509e+002
3.522642e+002, 5.566249e+002
3.527463e+002, 5.606307e+002
3.532284e+002, 5.641623e+002
3.537105e+002, 5.674915e+002
3.541927e+002, 5.706853e+002
3.546748e+002, 5.731439e+002
3.551569e+002, 5.747805e+002
3.556390e+002, 5.754335e+002
3.561211e+002, 5.742723e+002
3.566032e+002, 5.707532e+002
3.570854e+002, 5.659911e+002
3.575675e+002, 5.613501e+002
3.580496e+002, 5.565919e+002
3.585317e+002, 5.502782e+002
3.590138e+002, 5.413082e+002
3.594959e+002, 5.306212e+002
3.599781e+002, 5.194847e+002
3.604602e+002, 5.080028e+002
3.609423e+002, 4.962095e+002
3.614244e+002, 4.839832e+002
3.619065e+002, 4.715876e+002
3.623886e+002, 4.596205e+002
3.628708e+002, 4.484675e+002
3.633529e+002, 4.375012e+002
3.638350e+002, 4.257834e+002
3.643171e+002, 4.136002e+002
3.647992e+002, 4.028408e+002
3.652813e+002, 3.947169e+002
3.657635e+002, 3.882655e+002
3.662456e+002, 3.813765e+002
3.667277e+002, 3.738919e+002
3.672098e+002, 3.666310e+002
3.676919e+002, 3.596812e+002
3.681740e+002, 3.532250e+002
3.686562e+002, 3.475821e+002
3.691383e+002, 3.428218e+002
3.696204e+002, 3.389468e+002
3.701025e+002, 3.362037e+002
3.705846e+002, 3.346652e+002
3.710667e+002, 3.331076e+002
3.715489e+002, 3.311626e+002
3.720310e+002, 3.292868e+002
3.725131e+002, 3.280581e+002
3.729952e+002, 3.274392e+002
3.734773e+002, 3.267823e+002
3.739594e+002, 3.257008e+002
3.744416e+002, 3.241404e+002
3.749237e+002, 3.219547e+002
3.754058e+002, 3.182255e+002
3.758879e+002, 3.149197e+002
3.763700e+002, 3.132624e+002
3.768521e+002, 3.125748e+002
3.773343e+002, 3.115609e+002
3.778164e+002, 3.096832e+002
3.782985e+002, 3.069563e+002
3.787806e+002, 3.033113e+002
3.792627e+002, 2.975345e+002
3.797448e+002, 2.928967e+002
3.802270e+002, 2.902469e+002
3.807091e+002, 2.884964e+002
3.811912e+002, 2.867449e+002
3.816733e+002, 2.847624e+002
3.821554e+002, 2.826048e+002
3.826375e+002, 2.802457e+002
3.831197e+002, 2.775351e+002
3.836018e+002, 2.754595e+002
3.840839e+002, 2.743851e+002
3.845660e+002, 2.734699e+002
3.850481e+002, 2.723257e+002
3.855302e+002, 2.710218e+002
3.860124e+002, 2.698034e+002
3.864945e+002, 2.688224e+002
3.869766e+002, 2.680713e+002
3.874587e+002, 2.675014e+002
3.879408e+002, 2.671178e+002
3.884229e+002, 2.669417e+002
3.889051e+002, 2.671970e+002
3.893872e+002, 2.675546e+002
3.898693e+002, 2.677022e+002
3.903514e+002, 2.675319e+002
3.908335e+002, 2.671139e+002
3.913156e+002, 2.664593e+002
3.917978e+002, 2.652514e+002
3.922799e+002, 2.646910e+002
3.927620e+002, 2.655029e+002
3.932441e+002, 2.663061e+002
3.937262e+002, 2.661280e+002
3.942083e+002, 2.652129e+002
3.946905e+002, 2.646559e+002
3.951726e+002, 2.655249e+002
3.956547e+002, 2.676146e+002
3.961368e+002, 2.687525e+002
3.966189e+002, 2.682825e+002
3.971010e+002, 2.677494e+002
3.975832e+002, 2.674219e+002
3.980653e+002, 2.673937e+002
3.985474e+002, 2.677282e+002
3.990295e+002, 2.684238e+002
3.995116e+002, 2.696266e+002
3.999937e+002, 2.719163e+002
4.004759e+002, 2.756756e+002
4.009580e+002, 2.785091e+002
4.014401e+002, 2.791317e+002
4.019222e+002, 2.790967e+002
4.024043e+002, 2.794787e+002
4.028864e+002, 2.803269e+002
4.033686e+002, 2.809898e+002
4.038507e+002, 2.808545e+002
4.043328e+002, 2.801019e+002
4.048149e+002, 2.795876e+002
4.052970e+002, 2.795659e+002
4.057791e+002, 2.793671e+002
4.062613e+002, 2.783565e+002
4.067434e+002, 2.768523e+002
4.072255e+002, 2.754661e+002
4.077076e+002, 2.744880e+002
4.081897e+002, 2.736086e+002
4.086718e+002, 2.722473e+002
4.091540e+002, 2.704408e+002
4.096361e+002, 2.693907e+002
4.101182e+002, 2.700070e+002
4.106003e+002, 2.713525e+002
4.110824e+002, 2.716743e+002
4.115645e+002, 2.706658e+002
4.120467e+002, 2.698969e+002
4.125288e+002, 2.701593e+002
4.130109e+002, 2.710838e+002
4.134930e+002, 2.720152e+002
4.139751e+002, 2.728122e+002
4.144572e+002, 2.737084e+002
4.149394e+002, 2.749271e+002
4.154215e+002, 2.764934e+002
4.159036e+002, 2.782725e+002
4.163857e+002, 2.803975e+002
4.168678e+002, 2.826075e+002
4.173499e+002, 2.848155e+002
4.178321e+002, 2.869656e+002
4.183142e+002, 2.889145e+002
4.187963e+002, 2.905378e+002
4.192784e+002, 2.919592e+002
4.197605e+002, 2.935983e+002
4.202426e+002, 2.963891e+002
4.207248e+002, 2.981389e+002
4.212069e+002, 2.980336e+002
4.216890e+002, 2.970775e+002
4.221711e+002, 2.962029e+002
4.226532e+002, 2.956559e+002
4.231353e+002, 2.952357e+002
4.236175e+002, 2.946570e+002
4.240996e+002, 2.937745e+002
4.245817e+002, 2.935142e+002
4.250638e+002, 2.946873e+002
4.255459e+002, 2.955809e+002
4.260280e+002, 2.953785e+002
4.265102e+002, 2.943851e+002
4.269923e+002, 2.932829e+002
4.274744e+002, 2.924645e+002
4.279565e+002, 2.918358e+002
4.284386e+002, 2.910854e+002
4.289207e+002, 2.900219e+002
4.294029e+002, 2.891860e+002
4.298850e+002, 2.890490e+002
4.303671e+002, 2.888700e+002
4.308492e+002, 2.876659e+002
4.313313e+002, 2.854537e+002
4.318134e+002, 2.836596e+002
4.322956e+002, 2.840308e+002
4.327777e+002, 2.866248e+002
4.332598e+002, 2.889210e+002
4.337419e+002, 2.907896e+002
4.342241e+002, 2.924311e+002
4.347062e+002, 2.937562e+002
4.351883e+002, 2.949765e+002
4.356704e+002, 2.964896e+002
4.361525e+002, 2.985153e+002
4.366346e+002, 3.008551e+002
4.371168e+002, 3.030264e+002
4.375989e+002, 3.049334e+002
4.380810e+002, 3.076720e+002
4.385631e+002, 3.121238e+002
4.390452e+002, 3.172281e+002
4.395273e+002, 3.216717e+002
4.400095e+002, 3.253389e+002
4.404916e+002, 3.292765e+002
4.409737e+002, 3.339860e+002
4.414558e+002, 3.393759e+002
4.419379e+002, 3.451291e+002
4.424200e+002, 3.511725e+002
4.429022e+002, 3.579311e+002
4.433843e+002, 3.658159e+002
4.438664e+002, 3.748511e+002
4.443485e+002, 3.848242e+002
4.448306e+002, 3.961060e+002
4.453127e+002, 4.079935e+002
4.457949e+002, 4.205366e+002
4.462770e+002, 4.334266e+002
4.467591e+002, 4.458811e+002
4.472412e+002, 4.576091e+002
4.477233e+002, 4.689169e+002
4.482054e+002, 4.805076e+002
4.486876e+002, 4.933020e+002
4.491697e+002, 5.043268e+002
4.496518e+002, 5.144535e+002
4.501339e+002, 5.219993e+002
4.506160e+002, 5.257324e+002
4.510981e+002, 5.255874e+002
4.515803e+002, 5.219913e+002
4.520624e+002, 5.151924e+002
4.525445e+002, 5.052692e+002
4.530266e+002, 4.933219e+002
4.535087e+002, 4.780593e+002
4.539908e+002, 4.621226e+002
4.544730e+002, 4.453608e+002
4.549551e+002, 4.283935e+002
4.554372e+002, 4.116183e+002
4.559193e+002, 3.952800e+002
4.564014e+002, 3.800377e+002
4.568835e+002, 3.670963e+002
4.573657e+002, 3.569802e+002
4.578478e+002, 3.469035e+002
4.583299e+002, 3.358264e+002
4.588120e+002, 3.257966e+002
4.592941e+002, 3.178378e+002
4.597762e+002, 3.116249e+002
4.602584e+002, 3.062722e+002
4.607405e+002, 3.013769e+002
4.612226e+002, 2.969523e+002
4.617047e+002, 2.929122e+002
4.621868e+002, 2.891620e+002
4.626689e+002, 2.861978e+002
4.631511e+002, 2.845827e+002
4.636332e+002, 2.836243e+002
4.641153e+002, 2.825494e+002
4.645974e+002, 2.812653e+002
4.650795e+002, 2.804711e+002
4.655616e+002, 2.809520e+002
4.660438e+002, 2.821679e+002
4.665259e+002, 2.828400e+002
4.670080e+002, 2.827422e+002
4.674901e+002, 2.825636e+002
4.679722e+002, 2.827340e+002
4.684543e+002, 2.832804e+002
4.689365e+002, 2.841812e+002
4.694186e+002, 2.858642e+002
4.699007e+002, 2.874669e+002
4.703828e+002, 2.885567e+002
4.708649e+002, 2.892256e+002
4.713470e+002, 2.896611e+002
4.718292e+002, 2.899249e+002
4.723113e+002, 2.899974e+002
4.727934e+002, 2.898121e+002
4.732755e+002, 2.891982e+002
4.737576e+002, 2.888287e+002
4.742397e+002, 2.890995e+002
4.747219e+002, 2.892554e+002
4.752040e+002, 2.887107e+002
4.756861e+002, 2.876404e+002
4.761682e+002, 2.867205e+002
4.766503e+002, 2.864534e+002
4.771324e+002, 2.864633e+002
4.776146e+002, 2.852146e+002
4.780967e+002, 2.814011e+002
4.785788e+002, 2.784059e+002
4.790609e+002, 2.769135e+002
4.795430e+002, 2.760158e+002
4.800251e+002, 2.751724e+002
4.805073e+002, 2.742220e+002
4.809894e+002, 2.730466e+002
4.814715e+002, 2.713867e+002
4.819536e+002, 2.693085e+002
4.824357e+002, 2.677946e+002
4.829178e+002, 2.673438e+002
4.834000e+002, 2.665764e+002
4.838821e+002, 2.647490e+002
4.843642e+002, 2.623264e+002
4.848463e+002, 2.598687e+002
4.853284e+002, 2.574860e+002
4.858105e+002, 2.551814e+002
4.862927e+002, 2.529054e+002
4.867748e+002, 2.506740e+002
4.872569e+002, 2.486510e+002
4.877390e+002, 2.469312e+002
4.882211e+002, 2.452862e+002
4.887032e+002, 2.435385e+002
4.891854e+002, 2.416866e+002
4.896675e+002, 2.396953e+002
4.901496e+002, 2.373230e+002
4.906317e+002, 2.349990e+002
4.911138e+002, 2.331452e+002
4.915959e+002, 2.316803e+002
4.920781e+002, 2.302653e+002
4.925602e+002, 2.287638e+002
4.930423e+002, 2.271804e+002
4.935244e+002, 2.254971e+002
4.940065e+002, 2.235761e+002
4.944886e+002, 2.218332e+002
4.949708e+002, 2.202806e+002
4.954529e+002, 2.189118e+002
4.959350e+002, 2.177496e+002
4.964171e+002, 2.167691e+002
4.968992e+002, 2.159003e+002
4.973813e+002, 2.151050e+002
4.978635e+002, 2.143595e+002
4.983456e+002, 2.134994e+002
4.988277e+002, 2.123774e+002
4.993098e+002, 2.113483e+002
4.997919e+002, 2.106469e+002
5.002740e+002, 2.099350e+002
5.007562e+002, 2.088171e+002
5.012383e+002, 2.072694e+002
5.017204e+002, 2.057290e+002
5.022025e+002, 2.046409e+002
5.026846e+002, 2.039778e+002
5.031667e+002, 2.033933e+002
5.036489e+002, 2.028956e+002
5.041310e+002, 2.024672e+002
5.046131e+002, 2.021281e+002
5.050952e+002, 2.018473e+002
5.055773e+002, 2.016143e+002
5.060594e+002, 2.015027e+002
5.065416e+002, 2.012541e+002
5.070237e+002, 2.004165e+002
5.075058e+002, 1.992334e+002
5.079879e+002, 1.986600e+002
5.084700e+002, 1.990432e+002
5.089521e+002, 1.995998e+002
5.094343e+002, 1.994666e+002
5.099164e+002, 1.986375e+002
5.103985e+002, 1.979380e+002
5.108806e+002, 1.973849e+002
5.113627e+002, 1.970019e+002
5.118448e+002, 1.969135e+002
5.123270e+002, 1.969996e+002
5.128091e+002, 1.970460e+002
5.132912e+002, 1.969695e+002
5.137733e+002, 1.966808e+002
5.142554e+002, 1.959451e+002
5.147375e+002, 1.942458e+002
5.152197e+002, 1.933521e+002
5.157018e+002, 1.938389e+002
5.161839e+002, 1.944748e+002
5.166660e+002, 1.945853e+002
5.171481e+002, 1.943118e+002
5.176302e+002, 1.941665e+002
5.181124e+002, 1.944851e+002
5.185945e+002, 1.950263e+002
5.190766e+002, 1.951577e+002
5.195587e+002, 1.947818e+002
5.200408e+002, 1.942995e+002
5.205229e+002, 1.933757e+002
5.210051e+002, 1.926936e+002
5.214872e+002, 1.928823e+002
5.219693e+002, 1.938428e+002
5.224514e+002, 1.947822e+002
5.229335e+002, 1.952294e+002
5.234156e+002, 1.953523e+002
5.238978e+002, 1.954214e+002
5.243799e+002, 1.954388e+002
5.248620e+002, 1.954961e+002
5.253441e+002, 1.957798e+002
5.258262e+002, 1.960236e+002
5.263083e+002, 1.956211e+002
5.267905e+002, 1.943540e+002
5.272726e+002, 1.932479e+002
5.277547e+002, 1.924960e+002
5.282368e+002, 1.921236e+002
5.287189e+002, 1.923004e+002
5.292010e+002, 1.929679e+002
5.296832e+002, 1.937168e+002
5.301653e+002, 1.942581e+002
5.306474e+002, 1.946079e+002
5.311295e+002, 1.949026e+002
5.316116e+002, 1.950483e+002
5.320938e+002, 1.952478e+002
5.325759e+002, 1.957899e+002
5.330580e+002, 1.962149e+002
5.335401e+002, 1.958491e+002
5.340222e+002, 1.947637e+002
5.345043e+002, 1.939116e+002
5.349865e+002, 1.943572e+002
5.354686e+002, 1.959464e+002
5.359507e+002, 1.969082e+002
5.364328e+002, 1.971788e+002
5.369149e+002, 1.969219e+002
5.373970e+002, 1.956640e+002
5.378792e+002, 1.942106e+002
5.383613e+002, 1.934256e+002
5.388434e+002, 1.934980e+002
5.393255e+002, 1.939858e+002
5.398076e+002, 1.948190e+002
5.402897e+002, 1.957992e+002
5.407719e+002, 1.963788e+002
5.412540e+002, 1.964694e+002
5.417361e+002, 1.963296e+002
5.422182e+002, 1.961513e+002
5.427003e+002, 1.958847e+002
5.431824e+002, 1.953410e+002
5.436646e+002, 1.940395e+002
5.441467e+002, 1.930948e+002
5.446288e+002, 1.931346e+002
5.451109e+002, 1.936422e+002
5.455930e+002, 1.939510e+002
5.460751e+002, 1.939138e+002
5.465573e+002, 1.937500e+002
5.470394e+002, 1.936675e+002
5.475215e+002, 1.936653e+002
5.480036e+002, 1.937491e+002
5.484857e+002, 1.940273e+002
5.489678e+002, 1.942685e+002
5.494500e+002, 1.945785e+002
5.499321e+002, 1.947549e+002
5.504142e+002, 1.944582e+002
5.508963e+002, 1.936398e+002
5.513784e+002, 1.928121e+002
5.518605e+002, 1.926532e+002
5.523427e+002, 1.930994e+002
5.528248e+002, 1.931739e+002
5.533069e+002, 1.927226e+002
5.537890e+002, 1.921535e+002
5.542711e+002, 1.915408e+002
5.547532e+002, 1.910041e+002
5.552354e+002, 1.907468e+002
5.557175e+002, 1.908341e+002
5.561996e+002, 1.911177e+002
5.566817e+002, 1.917987e+002
5.571638e+002, 1.925491e+002
5.576459e+002, 1.925412e+002
5.581281e+002, 1.916107e+002
5.586102e+002, 1.906629e+002
5.590923e+002, 1.905280e+002
5.595744e+002, 1.911561e+002
5.600565e+002, 1.914538e+002
5.605386e+002, 1.914130e+002
5.610208e+002, 1.911156e+002
5.615029e+002, 1.902827e+002
5.619850e+002, 1.893529e+002
5.624671e+002, 1.888929e+002
5.629492e+002, 1.889765e+002
5.634313e+002, 1.891421e+002
5.639135e+002, 1.888425e+002
5.643956e+002, 1.880942e+002
5.648777e+002, 1.878790e+002
5.653598e+002, 1.887641e+002
5.658419e+002, 1.892749e+002
5.663240e+002, 1.885318e+002
5.668062e+002, 1.874555e+002
5.672883e+002, 1.871246e+002
5.677704e+002, 1.877802e+002
5.682525e+002, 1.884802e+002
5.687346e+002, 1.883824e+002
5.692167e+002, 1.877706e+002
5.696989e+002, 1.874195e+002
5.701810e+002, 1.874063e+002
5.706631e+002, 1.875636e+002
5.711452e+002, 1.878458e+002
5.716273e+002, 1.882040e+002
5.721094e+002, 1.884743e+002
5.725916e+002, 1.887060e+002
5.730737e+002, 1.887715e+002
5.735558e+002, 1.884233e+002
5.740379e+002, 1.880157e+002
5.745200e+002, 1.879599e+002
5.750021e+002, 1.882748e+002
5.754843e+002, 1.887246e+002
5.759664e+002, 1.891591e+002
5.764485e+002, 1.895287e+002
5.769306e+002, 1.894926e+002
5.774127e+002, 1.886282e+002
5.778948e+002, 1.880323e+002
5.783770e+002, 1.878406e+002
5.788591e+002, 1.879438e+002
5.793412e+002, 1.884581e+002
5.798233e+002, 1.892629e+002
5.803054e+002, 1.898264e+002
5.807875e+002, 1.895929e+002
5.812697e+002, 1.889040e+002
5.817518e+002, 1.886088e+002
5.822339e+002, 1.887288e+002
5.827161e+002, 1.890730e+002
5.831982e+002, 1.897891e+002
5.836803e+002, 1.904844e+002
5.841624e+002, 1.905816e+002
5.846445e+002, 1.900705e+002
5.851266e+002, 1.892840e+002
5.856088e+002, 1.878236e+002
5.860909e+002, 1.865007e+002
5.865730e+002, 1.862495e+002
5.870551e+002, 1.868217e+002
5.875372e+002, 1.871969e+002
5.880193e+002, 1.868250e+002
5.885015e+002, 1.860882e+002
5.889836e+002, 1.858262e+002
5.894657e+002, 1.861936e+002
5.899478e+002, 1.867230e+002
5.904299e+002, 1.877631e+002
5.909120e+002, 1.886124e+002
5.913942e+002, 1.886380e+002
5.918763e+002, 1.882406e+002
5.923584e+002, 1.883269e+002
5.928405e+002, 1.894109e+002
5.933226e+002, 1.908392e+002
5.938047e+002, 1.917891e+002
5.942869e+002, 1.922580e+002
5.947690e+002, 1.918705e+002
5.952511e+002, 1.900610e+002
5.957332e+002, 1.882592e+002
5.962153e+002, 1.879090e+002
5.966974e+002, 1.886303e+002
5.971796e+002, 1.892086e+002
5.976617e+002, 1.893383e+002
5.981438e+002, 1.894237e+002
5.986259e+002, 1.898234e+002
5.991080e+002, 1.902899e+002
5.995901e+002, 1.903190e+002
6.000723e+002, 1.898061e+002
6.005544e+002, 1.891793e+002
6.010365e+002, 1.889246e+002
6.015186e+002, 1.890585e+002
6.020007e+002, 1.888601e+002
6.024828e+002, 1.874889e+002
6.029650e+002, 1.868343e+002
6.034471e+002, 1.879146e+002
6.039292e+002, 1.894476e+002
6.044113e+002, 1.901076e+002
6.048934e+002, 1.896914e+002
6.053755e+002, 1.890320e+002
6.058577e+002, 1.888100e+002
6.063398e+002, 1.889297e+002
6.068219e+002, 1.889966e+002
6.073040e+002, 1.889623e+002
6.077861e+002, 1.891810e+002
6.082682e+002, 1.900765e+002
6.087504e+002, 1.911201e+002
6.092325e+002, 1.912983e+002
6.097146e+002, 1.903946e+002
6.101967e+002, 1.898362e+002
6.106788e+002, 1.903769e+002
6.111609e+002, 1.911271e+002
6.116431e+002, 1.912000e+002
6.121252e+002, 1.907429e+002
6.126073e+002, 1.904543e+002
6.130894e+002, 1.907084e+002
6.135715e+002, 1.912701e+002
6.140536e+002, 1.916665e+002
6.145358e+002, 1.919869e+002
6.150179e+002, 1.919139e+002
6.155000e+002, 1.910090e+002
6.159821e+002, 1.901527e+002
6.164642e+002, 1.895647e+002
6.169464e+002, 1.893225e+002
6.174285e+002, 1.896092e+002
6.179106e+002, 1.906188e+002
6.183927e+002, 1.916916e+002
6.188748e+002, 1.920479e+002
6.193569e+002, 1.917937e+002
6.198391e+002, 1.913727e+002
6.203212e+002, 1.907242e+002
6.208033e+002, 1.904793e+002
6.212854e+002, 1.913311e+002
6.217675e+002, 1.930671e+002
6.222496e+002, 1.943310e+002
6.227318e+002, 1.950054e+002
6.232139e+002, 1.953771e+002
6.236960e+002, 1.954091e+002
6.241781e+002, 1.952344e+002
6.246602e+002, 1.948880e+002
6.251423e+002, 1.944452e+002
6.256245e+002, 1.941456e+002
6.261066e+002, 1.942019e+002
6.265887e+002, 1.945307e+002
6.270708e+002, 1.947454e+002
6.275529e+002, 1.947615e+002
6.280350e+002, 1.948663e+002
6.285172e+002, 1.954441e+002
6.289993e+002, 1.958743e+002
6.294814e+002, 1.954906e+002
6.299635e+002, 1.944898e+002
6.304456e+002, 1.939250e+002
6.309277e+002, 1.944634e+002
6.314099e+002, 1.954918e+002
6.318920e+002, 1.965684e+002
6.323741e+002, 1.975949e+002
6.328562e+002, 1.980948e+002
6.333383e+002, 1.978757e+002
6.338204e+002, 1.973560e+002
6.343026e+002, 1.969456e+002
6.347847e+002, 1.965971e+002
6.352668e+002, 1.968586e+002
6.357489e+002, 1.984957e+002
6.362310e+002, 1.997382e+002
6.367131e+002, 1.999196e+002
6.371953e+002, 1.995020e+002
6.376774e+002, 1.989070e+002
6.381595e+002, 1.982924e+002
6.386416e+002, 1.978114e+002
6.391237e+002, 1.976457e+002
6.396058e+002, 1.977426e+002
6.400880e+002, 1.978098e+002
6.405701e+002, 1.977999e+002
6.410522e+002, 1.979482e+002
6.415343e+002, 1.983717e+002
6.420164e+002, 1.989913e+002
6.424985e+002, 1.998520e+002
6.429807e+002, 2.010127e+002
6.434628e+002, 2.015771e+002
6.439449e+002, 2.007174e+002
6.444270e+002, 1.996596e+002
6.449091e+002, 1.993674e+002
6.453912e+002, 1.997141e+002
6.458734e+002, 2.003154e+002
6.463555e+002, 2.010121e+002
6.468376e+002, 2.016245e+002
6.473197e+002, 2.018150e+002
6.478018e+002, 2.014603e+002
6.482839e+002, 2.013940e+002
6.487661e+002, 2.019992e+002
6.492482e+002, 2.024208e+002
6.497303e+002, 2.021004e+002
6.502124e+002, 2.015971e+002
6.506945e+002, 2.017134e+002
6.511766e+002, 2.026377e+002
6.516588e+002, 2.035251e+002
6.521409e+002, 2.035146e+002
6.526230e+002, 2.030794e+002
6.531051e+002, 2.033386e+002
6.535872e+002, 2.043279e+002
6.540693e+002, 2.050044e+002
6.545515e+002, 2.046934e+002
6.550336e+002, 2.039658e+002
6.555157e+002, 2.040788e+002
6.559978e+002, 2.057243e+002
6.564799e+002, 2.065661e+002
6.569620e+002, 2.058569e+002
6.574442e+002, 2.050671e+002
6.579263e+002, 2.049903e+002
6.584084e+002, 2.053958e+002
6.588905e+002, 2.057590e+002
6.593726e+002, 2.058677e+002
6.598547e+002, 2.059452e+002
6.603369e+002, 2.064655e+002
6.608190e+002, 2.073566e+002
6.613011e+002, 2.073816e+002
6.617832e+002, 2.060473e+002
6.622653e+002, 2.050736e+002
6.627474e+002, 2.057570e+002
6.632296e+002, 2.072821e+002
6.637117e+002, 2.080776e+002
6.641938e+002, 2.080825e+002
6.646759e+002, 2.074853e+002
6.651580e+002, 2.055425e+002
6.656401e+002, 2.036252e+002
6.661223e+002, 2.031034e+002
6.666044e+002, 2.037726e+002
6.670865e+002, 2.047591e+002
6.675686e+002, 2.056313e+002
6.680507e+002, 2.063456e+002
6.685328e+002, 2.068923e+002
6.690150e+002, 2.073873e+002
6.694971e+002, 2.071604e+002
6.699792e+002, 2.053502e+002
6.704613e+002, 2.039073e+002
6.709434e+002, 2.042895e+002
6.714255e+002, 2.053206e+002
6.719077e+002, 2.050125e+002
6.723898e+002, 2.026600e+002
6.728719e+002, 2.005027e+002
6.733540e+002, 2.001726e+002
6.738361e+002, 2.008371e+002
6.743182e+002, 2.012874e+002
6.748004e+002, 2.014332e+002
6.752825e+002, 2.015406e+002
6.757646e+002, 2.017438e+002
6.762467e+002, 2.020549e+002
6.767288e+002, 2.025590e+002
6.772109e+002, 2.036772e+002
6.776931e+002, 2.039834e+002
6.781752e+002, 2.025159e+002
6.786573e+002, 2.013148e+002
6.791394e+002, 2.015292e+002
6.796215e+002, 2.025128e+002
6.801036e+002, 2.031456e+002
6.805858e+002, 2.030355e+002
6.810679e+002, 2.027625e+002
6.815500e+002, 2.028336e+002
6.820321e+002, 2.031803e+002
6.825142e+002, 2.036909e+002
6.829963e+002, 2.043664e+002
6.834785e+002, 2.049004e+002
6.839606e+002, 2.051207e+002
6.844427e+002, 2.050949e+002
6.849248e+002, 2.049478e+002
6.854069e+002, 2.044895e+002
6.858890e+002, 2.043740e+002
6.863712e+002, 2.047198e+002
6.868533e+002, 2.053097e+002
6.873354e+002, 2.063812e+002
6.878175e+002, 2.075234e+002
6.882996e+002, 2.079564e+002
6.887817e+002, 2.073980e+002
6.892639e+002, 2.065891e+002
6.897460e+002, 2.062630e+002
6.902281e+002, 2.064328e+002
6.907102e+002, 2.073829e+002
6.911923e+002, 2.093416e+002
6.916744e+002, 2.110715e+002
6.921566e+002, 2.118815e+002
6.926387e+002, 2.121320e+002
6.931208e+002, 2.123989e+002
6.936029e+002, 2.125410e+002
6.940850e+002, 2.132753e+002
6.945671e+002, 2.153210e+002
6.950493e+002, 2.174134e+002
6.955314e+002, 2.186350e+002
6.960135e+002, 2.193083e+002
6.964956e+002, 2.201938e+002
6.969777e+002, 2.215547e+002
6.974598e+002, 2.229901e+002
6.979420e+002, 2.239558e+002
6.984241e+002, 2.244703e+002
6.989062e+002, 2.249507e+002
6.993883e+002, 2.252130e+002
6.998704e+002, 2.259821e+002
7.003525e+002, 2.280016e+002
7.008347e+002, 2.303901e+002
7.013168e+002, 2.318240e+002
7.017989e+002, 2.321818e+002
7.022810e+002, 2.329370e+002
7.027631e+002, 2.348432e+002
7.032452e+002, 2.369323e+002
7.037274e+002, 2.384689e+002
7.042095e+002, 2.396681e+002
7.046916e+002, 2.411908e+002
7.051737e+002, 2.431807e+002
7.056558e+002, 2.448051e+002
7.061379e+002, 2.448499e+002
7.066201e+002, 2.434528e+002
7.071022e+002, 2.433850e+002
7.075843e+002, 2.454862e+002
7.080664e+002, 2.469245e+002
7.085485e+002, 2.462766e+002
7.090306e+002, 2.449632e+002
7.095128e+002, 2.443410e+002
7.099949e+002, 2.443787e+002
7.104770e+002, 2.441302e+002
7.109591e+002, 2.429766e+002
7.114412e+002, 2.417418e+002
7.119233e+002, 2.414211e+002
7.124055e+002, 2.413577e+002
7.128876e+002, 2.400105e+002
7.133697e+002, 2.371288e+002
7.138518e+002, 2.342234e+002
7.143339e+002, 2.328628e+002
7.148160e+002, 2.327706e+002
7.152982e+002, 2.318387e+002
7.157803e+002, 2.295072e+002
7.162624e+002, 2.276509e+002
7.167445e+002, 2.271736e+002
7.172266e+002, 2.268459e+002
7.177087e+002, 2.256220e+002
7.181909e+002, 2.237535e+002
7.186730e+002, 2.223921e+002
7.191551e+002, 2.222285e+002
7.196372e+002, 2.222174e+002
7.201193e+002, 2.217277e+002
7.206014e+002, 2.208773e+002
7.210836e+002, 2.198490e+002
7.215657e+002, 2.186802e+002
7.220478e+002, 2.172752e+002
7.225299e+002, 2.155027e+002
7.230120e+002, 2.135767e+002
7.234941e+002, 2.123665e+002
7.239763e+002, 2.121760e+002
7.244584e+002, 2.118505e+002
7.249405e+002, 2.113053e+002
7.254226e+002, 2.105683e+002
7.259047e+002, 2.095112e+002
7.263868e+002, 2.083085e+002
7.268690e+002, 2.073498e+002
7.273511e+002, 2.068503e+002
7.278332e+002, 2.062592e+002
7.283153e+002, 2.051379e+002
7.287974e+002, 2.037997e+002
7.292795e+002, 2.025581e+002
7.297617e+002, 2.014936e+002
7.302438e+002, 2.008371e+002
7.307259e+002, 2.007590e+002
7.312080e+002, 2.007962e+002
7.316901e+002, 1.999146e+002
7.321722e+002, 1.978065e+002
7.326544e+002, 1.960631e+002
7.331365e+002, 1.945160e+002
7.336186e+002, 1.935819e+002
7.341007e+002, 1.940121e+002
7.345828e+002, 1.948221e+002
7.350649e+002, 1.946717e+002
7.355471e+002, 1.933125e+002
7.360292e+002, 1.919447e+002
7.365113e+002, 1.909569e+002
7.369934e+002, 1.903588e+002
7.374755e+002, 1.903118e+002
7.379576e+002, 1.906576e+002
7.384398e+002, 1.911038e+002
7.389219e+002, 1.915295e+002
7.394040e+002, 1.915514e+002
7.398861e+002, 1.904978e+002
7.403682e+002, 1.884012e+002
7.408503e+002, 1.876556e+002
7.413325e+002, 1.890285e+002
7.418146e+002, 1.901408e+002
7.422967e+002, 1.905025e+002
7.427788e+002, 1.901778e+002
7.432609e+002, 1.887577e+002
7.437430e+002, 1.864606e+002
7.442252e+002, 1.849583e+002
7.447073e+002, 1.852755e+002
7.451894e+002, 1.859807e+002
7.456715e+002, 1.862254e+002
7.461536e+002, 1.862316e+002
7.466357e+002, 1.864017e+002
7.471179e+002, 1.867701e+002
7.476000e+002, 1.870201e+002
7.480821e+002, 1.868999e+002
7.485642e+002, 1.864986e+002
7.490463e+002, 1.860737e+002
7.495284e+002, 1.855952e+002
7.500106e+002, 1.852413e+002
7.504927e+002, 1.850953e+002
7.509748e+002, 1.849976e+002
7.514569e+002, 1.848603e+002
7.519390e+002, 1.846883e+002
7.524211e+002, 1.844212e+002
7.529033e+002, 1.837645e+002
7.533854e+002, 1.836929e+002
7.538675e+002, 1.851866e+002
7.543496e+002, 1.869381e+002
7.548317e+002, 1.876947e+002
7.553138e+002, 1.876129e+002
7.557960e+002, 1.873540e+002
7.562781e+002, 1.872204e+002
7.567602e+002, 1.873434e+002
7.572423e+002, 1.880815e+002
7.577244e+002, 1.893994e+002
7.582065e+002, 1.901604e+002
7.586887e+002, 1.901212e+002
7.591708e+002, 1.903274e+002
7.596529e+002, 1.915246e+002
7.601350e+002, 1.929427e+002
7.606171e+002, 1.932166e+002
7.610992e+002, 1.922323e+002
7.615814e+002, 1.919364e+002
7.620635e+002, 1.929141e+002
7.625456e+002, 1.942364e+002
7.630277e+002, 1.958352e+002
7.635098e+002, 1.973501e+002
7.639919e+002, 1.982765e+002
7.644741e+002, 1.985958e+002
7.649562e+002, 1.987502e+002
7.654383e+002, 1.989656e+002
7.659204e+002, 1.993948e+002
7.664025e+002, 2.005358e+002
7.668846e+002, 2.023542e+002
7.673668e+002, 2.038794e+002
7.678489e+002, 2.047965e+002
7.683310e+002, 2.058128e+002
7.688131e+002, 2.076885e+002
7.692952e+002, 2.101686e+002
7.697773e+002, 2.118032e+002
7.702595e+002, 2.117739e+002
7.707416e+002, 2.121433e+002
7.712237e+002, 2.132368e+002
7.717058e+002, 2.145636e+002
7.721879e+002, 2.157271e+002
7.726700e+002, 2.168935e+002
7.731522e+002, 2.185469e+002
7.736343e+002, 2.209001e+002
7.741164e+002, 2.232745e+002
7.745985e+002, 2.250062e+002
7.750806e+002, 2.262897e+002
7.755627e+002, 2.275053e+002
7.760449e+002, 2.286869e+002
7.765270e+002, 2.298652e+002
7.770091e+002, 2.310166e+002
7.774912e+002, 2.323666e+002
7.779733e+002, 2.343081e+002
7.784554e+002, 2.369797e+002
7.789376e+002, 2.392211e+002
7.794197e+002, 2.405301e+002
7.799019e+002, 2.421087e+002
7.803840e+002, 2.446930e+002
7.808661e+002, 2.472924e+002
7.813482e+002, 2.488729e+002
7.818303e+002, 2.495415e+002
7.823124e+002, 2.503412e+002
7.827946e+002, 2.519334e+002
7.832767e+002, 2.535389e+002
7.837588e+002, 2.540473e+002
7.842409e+002, 2.542950e+002
7.847230e+002, 2.561201e+002
7.852051e+002, 2.595486e+002
7.856873e+002, 2.627376e+002
7.861694e+002, 2.643404e+002
7.866515e+002, 2.650632e+002
7.871336e+002, 2.668774e+002
7.876157e+002, 2.701259e+002
7.880978e+002, 2.724236e+002
7.885800e+002, 2.729035e+002
7.890621e+002, 2.736401e+002
7.895442e+002, 2.759664e+002
7.900263e+002, 2.791724e+002
7.905084e+002, 2.821949e+002
7.909905e+002, 2.849480e+002
7.914727e+002, 2.876812e+002
7.919548e+002, 2.900423e+002
7.924369e+002, 2.927967e+002
7.929190e+002, 2.970284e+002
7.934011e+002, 3.017888e+002
7.938832e+002, 3.052285e+002
7.943654e+002, 3.070920e+002
7.948475e+002, 3.092739e+002
7.953296e+002, 3.138754e+002
7.958117e+002, 3.196881e+002
7.962938e+002, 3.232643e+002
7.967759e+002, 3.246387e+002
7.972581e+002, 3.259571e+002
7.977402e+002, 3.276826e+002
7.982223e+002, 3.295622e+002
7.987044e+002, 3.315198e+002
7.991865e+002, 3.334318e+002
7.996686e+002, 3.345610e+002
8.001508e+002, 3.340726e+002
8.006329e+002, 3.339962e+002
8.011150e+002, 3.341920e+002
8.015971e+002, 3.349800e+002
8.020792e+002, 3.365811e+002
8.025613e+002, 3.388968e+002
8.030435e+002, 3.417922e+002
8.035256e+002, 3.452331e+002
8.040077e+002, 3.490594e+002
8.044898e+002, 3.528689e+002
8.049719e+002, 3.571400e+002
8.054540e+002, 3.628316e+002
8.059362e+002, 3.696909e+002
8.064183e+002, 3.765045e+002
8.069004e+002, 3.828474e+002
8.073825e+002, 3.895803e+002
8.078646e+002, 3.977118e+002
8.083467e+002, 4.071800e+002
8.088289e+002, 4.171055e+002
8.093110e+002, 4.271955e+002
8.097931e+002, 4.385627e+002
8.102752e+002, 4.513878e+002
8.107573e+002, 4.655996e+002
8.112394e+002, 4.814249e+002
8.117216e+002, 4.984922e+002
8.122037e+002, 5.152919e+002
8.126858e+002, 5.307357e+002
8.131679e+002, 5.476572e+002
8.136500e+002, 5.671614e+002
8.141321e+002, 5.883383e+002
8.146143e+002, 6.103555e+002
8.150964e+002, 6.332386e+002
8.155785e+002, 6.576327e+002
8.160606e+002, 6.837074e+002
8.165427e+002, 7.104953e+002
8.170248e+002, 7.360783e+002
8.175070e+002, 7.614948e+002
8.179891e+002, 7.903905e+002
8.184712e+002, 8.229229e+002
8.189533e+002, 8.581297e+002
8.194354e+002, 8.958924e+002
8.199175e+002, 9.347948e+002
8.203997e+002, 9.729684e+002
8.208818e+002, 1.010453e+003
8.213639e+002, 1.050006e+003
8.218460e+002, 1.094401e+003
8.223281e+002, 1.136739e+003
8.228102e+002, 1.177026e+003
8.232924e+002, 1.214679e+003
8.237745e+002, 1.251140e+003
8.242566e+002, 1.284439e+003
8.247387e+002, 1.309528e+003
8.252208e+002, 1.324851e+003
8.257029e+002, 1.332717e+003
8.261851e+002, 1.333039e+003
8.266672e+002, 1.327763e+003
8.271493e+002, 1.317502e+003
8.276314e+002, 1.303667e+003
8.281135e+002, 1.289851e+003
8.285956e+002, 1.277390e+003
8.290778e+002, 1.264698e+003
8.295599e+002, 1.249339e+003
8.300420e+002, 1.232002e+003
8.305241e+002, 1.217080e+003
8.310062e+002, 1.204754e+003
8.314883e+002, 1.194311e+003
8.319705e+002, 1.186013e+003
8.324526e+002, 1.178767e+003
8.329347e+002, 1.171868e+003
8.334168e+002, 1.165199e+003
8.338989e+002, 1.157806e+003
8.343810e+002, 1.148014e+003
8.348632e+002, 1.139954e+003
8.353453e+002, 1.133924e+003
8.358274e+002, 1.129756e+003
8.363095e+002, 1.128444e+003
8.367916e+002, 1.128578e+003
8.372737e+002, 1.127528e+003
8.377559e+002, 1.124450e+003
8.382380e+002, 1.121276e+003
8.387201e+002, 1.120345e+003
8.392022e+002, 1.119521e+003
8.396843e+002, 1.115858e+003
8.401664e+002, 1.109744e+003
8.406486e+002, 1.103080e+003
8.411307e+002, 1.096345e+003
8.416128e+002, 1.087303e+003
8.420949e+002, 1.073647e+003
8.425770e+002, 1.056009e+003
8.430591e+002, 1.037358e+003
8.435413e+002, 1.017755e+003
8.440234e+002, 9.965705e+002
8.445055e+002, 9.733167e+002
8.449876e+002, 9.489861e+002
8.454697e+002, 9.236090e+002
8.459518e+002, 8.976614e+002
8.464340e+002, 8.725282e+002
8.469161e+002, 8.479404e+002
8.473982e+002, 8.249183e+002
8.478803e+002, 8.044291e+002
8.483624e+002, 7.844731e+002
8.488445e+002, 7.633035e+002
8.493267e+002, 7.424130e+002
8.498088e+002, 7.237610e+002
8.502909e+002, 7.076512e+002
8.507730e+002, 6.934471e+002
8.512551e+002, 6.809589e+002
8.517372e+002, 6.699093e+002
8.522194e+002, 6.599839e+002
8.527015e+002, 6.511503e+002
8.531836e+002, 6.431928e+002
8.536657e+002, 6.361285e+002
8.541478e+002, 6.305731e+002
8.546299e+002, 6.269525e+002
8.551121e+002, 6.248775e+002
8.555942e+002, 6.235906e+002
8.560763e+002, 6.231924e+002
8.565584e+002, 6.226146e+002
8.570405e+002, 6.213080e+002
8.575226e+002, 6.211698e+002
8.580048e+002, 6.231270e+002
8.584869e+002, 6.265975e+002
8.589690e+002, 6.309841e+002
8.594511e+002, 6.363349e+002
8.599332e+002, 6.417115e+002
8.604153e+002, 6.475784e+002
8.608975e+002, 6.528527e+002
8.613796e+002, 6.564835e+002
8.618617e+002, 6.600269e+002
8.623438e+002, 6.650519e+002
8.628259e+002, 6.712152e+002
8.633080e+002, 6.772858e+002
8.637902e+002, 6.830361e+002
8.642723e+002, 6.874949e+002
8.647544e+002, 6.891832e+002
8.652365e+002, 6.894703e+002
8.657186e+002, 6.910817e+002
8.662007e+002, 6.933846e+002
8.666829e+002, 6.932149e+002
8.671650e+002, 6.894293e+002
8.676471e+002, 6.839591e+002
8.681292e+002, 6.793972e+002
8.686113e+002, 6.751097e+002
8.690934e+002, 6.668730e+002
8.695756e+002, 6.541650e+002
8.700577e+002, 6.415410e+002
8.705398e+002, 6.304390e+002
8.710219e+002, 6.185884e+002
8.715040e+002, 6.041112e+002
8.719861e+002, 5.875447e+002
8.724683e+002, 5.704609e+002
8.729504e+002, 5.524465e+002
8.734325e+002, 5.347148e+002
8.739146e+002, 5.172458e+002
8.743967e+002, 5.001915e+002
8.748788e+002, 4.834409e+002
8.753610e+002, 4.672258e+002
8.758431e+002, 4.519689e+002
8.763252e+002, 4.376425e+002
8.768073e+002, 4.239156e+002
8.772894e+002, 4.103293e+002
8.777715e+002, 3.974870e+002
8.782537e+002, 3.859850e+002
8.787358e+002, 3.755188e+002
8.792179e+002, 3.657913e+002
8.797000e+002, 3.566267e+002
8.801821e+002, 3.477838e+002
8.806642e+002, 3.391017e+002
8.811464e+002, 3.308101e+002
8.816285e+002, 3.231471e+002
8.821106e+002, 3.161730e+002
8.825927e+002, 3.103745e+002
8.830748e+002, 3.058415e+002
8.835569e+002, 3.011514e+002
8.840391e+002, 2.956923e+002
8.845212e+002, 2.901725e+002
8.850033e+002, 2.853954e+002
8.854854e+002, 2.813419e+002
8.859675e+002, 2.770483e+002
8.864496e+002, 2.720001e+002
8.869318e+002, 2.677850e+002
8.874139e+002, 2.654933e+002
8.878960e+002, 2.631500e+002
8.883781e+002, 2.597305e+002
8.888602e+002, 2.554532e+002
8.893423e+002, 2.506349e+002
8.898245e+002, 2.450972e+002
8.903066e+002, 2.398929e+002
8.907887e+002, 2.351301e+002
8.912708e+002, 2.309753e+002
8.917529e+002, 2.281541e+002
8.922350e+002, 2.256615e+002
8.927172e+002, 2.218387e+002
8.931993e+002, 2.167772e+002
8.936814e+002, 2.123540e+002
8.941635e+002, 2.098327e+002
8.946456e+002, 2.081889e+002
8.951277e+002, 2.063083e+002
8.956099e+002, 2.043622e+002
8.960920e+002, 2.028206e+002
8.965741e+002, 2.016660e+002
8.970562e+002, 2.005782e+002
8.975383e+002, 1.994091e+002
8.980204e+002, 1.979756e+002
8.985026e+002, 1.959040e+002
8.989847e+002, 1.932722e+002
8.994668e+002, 1.911394e+002
8.999489e+002, 1.895481e+002
9.004310e+002, 1.881411e+002
9.009131e+002, 1.868612e+002
9.013953e+002, 1.856727e+002
9.018774e+002, 1.845897e+002
9.023595e+002, 1.835652e+002
9.028416e+002, 1.823996e+002
9.033237e+002, 1.807705e+002
9.038058e+002, 1.795956e+002
9.042880e+002, 1.794415e+002
9.047701e+002, 1.790771e+002
9.052522e+002, 1.777235e+002
9.057343e+002, 1.760538e+002
9.062164e+002, 1.750156e+002
9.066985e+002, 1.746541e+002
9.071807e+002, 1.740445e+002
9.076628e+002, 1.723867e+002
9.081449e+002, 1.709497e+002
9.086270e+002, 1.706447e+002
9.091091e+002, 1.707808e+002
9.095912e+002, 1.706771e+002
9.100734e+002, 1.702687e+002
9.105555e+002, 1.696321e+002
9.110376e+002, 1.687856e+002
9.115197e+002, 1.680901e+002
9.120018e+002, 1.683170e+002
9.124839e+002, 1.688094e+002
9.129661e+002, 1.678053e+002
9.134482e+002, 1.656853e+002
9.139303e+002, 1.645079e+002
9.144124e+002, 1.648212e+002
9.148945e+002, 1.657470e+002
9.153766e+002, 1.666548e+002
9.158588e+002, 1.672785e+002
9.163409e+002, 1.665074e+002
9.168230e+002, 1.641027e+002
9.173051e+002, 1.627332e+002
9.177872e+002, 1.629871e+002
9.182693e+002, 1.630434e+002
9.187515e+002, 1.618334e+002
9.192336e+002, 1.601854e+002
9.197157e+002, 1.594212e+002
9.201978e+002, 1.596469e+002
9.206799e+002, 1.596741e+002
9.211620e+002, 1.590850e+002
9.216442e+002, 1.588799e+002
9.221263e+002, 1.596038e+002
9.226084e+002, 1.603665e+002
9.230905e+002, 1.605151e+002
9.235726e+002, 1.602495e+002
9.240547e+002, 1.601034e+002
9.245369e+002, 1.602184e+002
9.250190e+002, 1.602690e+002
9.255011e+002, 1.598936e+002
9.259832e+002, 1.596759e+002
9.264653e+002, 1.602288e+002
9.269474e+002, 1.610690e+002
9.274296e+002, 1.615012e+002
9.279117e+002, 1.614460e+002
9.283938e+002, 1.612261e+002
9.288759e+002, 1.609342e+002
9.293580e+002, 1.607805e+002
9.298401e+002, 1.612549e+002
9.303223e+002, 1.619222e+002
9.308044e+002, 1.619400e+002
9.312865e+002, 1.613243e+002
9.317686e+002, 1.603626e+002
9.322507e+002, 1.591937e+002
9.327328e+002, 1.582810e+002
9.332150e+002, 1.582477e+002
9.336971e+002, 1.588465e+002
9.341792e+002, 1.591860e+002
9.346613e+002, 1.592643e+002
9.351434e+002, 1.589729e+002
9.356255e+002, 1.582231e+002
9.361077e+002, 1.576086e+002
9.365898e+002, 1.575849e+002
9.370719e+002, 1.578263e+002
9.375540e+002, 1.576087e+002
9.380361e+002, 1.568822e+002
9.385182e+002, 1.559357e+002
9.390004e+002, 1.544793e+002
9.394825e+002, 1.533736e+002
9.399646e+002, 1.530146e+002
9.404467e+002, 1.529379e+002
9.409288e+002, 1.528146e+002
9.414109e+002, 1.526256e+002
9.418931e+002, 1.522697e+002
9.423752e+002, 1.515770e+002
9.428573e+002, 1.510254e+002
9.433394e+002, 1.506624e+002
9.438215e+002, 1.504626e+002
9.443036e+002, 1.504899e+002
9.447858e+002, 1.506324e+002
9.452679e+002, 1.508657e+002
9.457500e+002, 1.511300e+002
9.462321e+002, 1.510269e+002
9.467142e+002, 1.501310e+002
9.471964e+002, 1.491570e+002
9.476785e+002, 1.482476e+002
9.481606e+002, 1.476950e+002
9.486427e+002, 1.481766e+002
9.491248e+002, 1.492619e+002
9.496069e+002, 1.497716e+002
9.500891e+002, 1.492874e+002
9.505712e+002, 1.485782e+002
9.510533e+002, 1.483087e+002
9.515354e+002, 1.482848e+002
9.520175e+002, 1.482439e+002
9.524996e+002, 1.481725e+002
9.529818e+002, 1.479817e+002
9.534639e+002, 1.476871e+002
9.539460e+002, 1.475193e+002
9.544281e+002, 1.476267e+002
9.549102e+002, 1.479025e+002
9.553923e+002, 1.482126e+002
9.558745e+002, 1.485418e+002
9.563566e+002, 1.486576e+002
9.568387e+002, 1.485402e+002
9.573208e+002, 1.487132e+002
9.578029e+002, 1.494184e+002
9.582850e+002, 1.499825e+002
9.587672e+002, 1.497180e+002
9.592493e+002, 1.488706e+002
9.597314e+002, 1.484491e+002
9.602135e+002, 1.485758e+002
9.606956e+002, 1.486770e+002
9.611777e+002, 1.487146e+002
9.616599e+002, 1.487589e+002
9.621420e+002, 1.488466e+002
9.626241e+002, 1.489453e+002
9.631062e+002, 1.490171e+002
9.635883e+002, 1.490614e+002
9.640704e+002, 1.490889e+002
9.645526e+002, 1.491190e+002
9.650347e+002, 1.491026e+002
9.655168e+002, 1.488085e+002
9.659989e+002, 1.487062e+002
9.664810e+002, 1.491591e+002
9.669631e+002, 1.499184e+002
9.674453e+002, 1.507162e+002
9.679274e+002, 1.515376e+002
9.684095e+002, 1.518526e+002
9.688916e+002, 1.509897e+002
9.693737e+002, 1.502497e+002
9.698558e+002, 1.503995e+002
9.703380e+002, 1.507796e+002
9.708201e+002, 1.508129e+002
9.713022e+002, 1.505146e+002
9.717843e+002, 1.500185e+002
9.722664e+002, 1.493439e+002
9.727485e+002, 1.489182e+002
9.732307e+002, 1.493196e+002
9.737128e+002, 1.498410e+002
9.741949e+002, 1.496825e+002
9.746770e+002, 1.491940e+002
9.751591e+002, 1.491277e+002
9.756412e+002, 1.494392e+002
9.761234e+002, 1.492736e+002
9.766055e+002, 1.480879e+002
9.770876e+002, 1.468380e+002
9.775698e+002, 1.467973e+002
9.780519e+002, 1.474883e+002
9.785340e+002, 1.480771e+002
9.790161e+002, 1.484426e+002
9.794982e+002, 1.481350e+002
9.799803e+002, 1.471028e+002
9.804625e+002, 1.462021e+002
9.809446e+002, 1.461805e+002
9.814267e+002, 1.465015e+002
9.819088e+002, 1.458311e+002
9.823909e+002, 1.443153e+002
9.828730e+002, 1.435088e+002
9.833552e+002, 1.435285e+002
9.838373e+002, 1.431705e+002
9.843194e+002, 1.419380e+002
9.848015e+002, 1.405481e+002
9.852836e+002, 1.397465e+002
9.857657e+002, 1.394395e+002
9.862479e+002, 1.391858e+002
9.867300e+002, 1.390257e+002
9.872121e+002, 1.386895e+002
9.876942e+002, 1.380930e+002
9.881763e+002, 1.374881e+002
9.886584e+002, 1.369409e+002
9.891406e+002, 1.365305e+002
9.896227e+002, 1.364194e+002
9.901048e+002, 1.366023e+002
9.905869e+002, 1.365643e+002
9.910690e+002, 1.363561e+002
9.915511e+002, 1.358176e+002
9.920333e+002, 1.346071e+002
9.925154e+002, 1.334545e+002
9.929975e+002, 1.327011e+002
9.934796e+002, 1.322633e+002
9.939617e+002, 1.319907e+002
9.944438e+002, 1.318644e+002
9.949260e+002, 1.320902e+002
9.954081e+002, 1.332929e+002
9.958902e+002, 1.339957e+002
9.963723e+002, 1.335355e+002
9.968544e+002, 1.328245e+002
9.973365e+002, 1.325170e+002
9.978187e+002, 1.323994e+002
9.983008e+002, 1.318864e+002
9.987829e+002, 1.308147e+002
9.992650e+002, 1.301990e+002
9.997471e+002, 1.307799e+002
1.000229e+003, 1.313456e+002
1.000711e+003, 1.312435e+002
1.001193e+003, 1.309375e+002
1.001676e+003, 1.309523e+002
1.002158e+003, 1.311541e+002
1.002640e+003, 1.310416e+002
1.003122e+003, 1.304318e+002
1.003604e+003, 1.298694e+002
1.004086e+003, 1.297130e+002
1.004568e+003, 1.296695e+002
1.005050e+003, 1.294184e+002
1.005533e+003, 1.291824e+002
1.006015e+003, 1.294718e+002
1.006497e+003, 1.301024e+002
1.006979e+003, 1.302768e+002
1.007461e+003, 1.296194e+002
1.007943e+003, 1.286790e+002
1.008425e+003, 1.276898e+002
1.008907e+003, 1.268885e+002
1.009389e+003, 1.266644e+002
1.009872e+003, 1.268569e+002
1.010354e+003, 1.271786e+002
1.010836e+003, 1.275409e+002
1.011318e+003, 1.279210e+002
1.011800e+003, 1.283244e+002
1.012282e+003, 1.285658e+002
1.012764e+003, 1.282667e+002
1.013246e+003, 1.277011e+002
1.013729e+003, 1.274761e+002
1.014211e+003, 1.275334e+002
1.014693e+003, 1.276512e+002
1.015175e+003, 1.277458e+002
1.015657e+003, 1.276435e+002
1.016139e+003, 1.272155e+002
1.016621e+003, 1.265737e+002
1.017103e+003, 1.257294e+002
1.017585e+003, 1.248310e+002
1.018068e+003, 1.246637e+002
1.018550e+003, 1.251770e+002
1.019032e+003, 1.256894e+002
1.019514e+003, 1.260052e+002
1.019996e+003, 1.259808e+002
1.020478e+003, 1.254414e+002
1.020960e+003, 1.246893e+002
1.021442e+003, 1.244360e+002
1.021924e+003, 1.246675e+002
1.022407e+003, 1.251508e+002
1.022889e+003, 1.259264e+002
1.023371e+003, 1.258996e+002
1.023853e+003, 1.245824e+002
1.024335e+003, 1.233437e+002
1.024817e+003, 1.234705e+002
1.025299e+003, 1.244897e+002
1.025781e+003, 1.249256e+002
1.026264e+003, 1.247087e+002
1.026746e+003, 1.244687e+002
1.027228e+003, 1.241890e+002
1.027710e+003, 1.240733e+002
1.028192e+003, 1.242702e+002
1.028674e+003, 1.244075e+002
1.029156e+003, 1.240472e+002
1.029638e+003, 1.233910e+002
1.030120e+003, 1.233499e+002
1.030603e+003, 1.242934e+002
1.031085e+003, 1.243630e+002
1.031567e+003, 1.229503e+002
1.032049e+003, 1.221584e+002
1.032531e+003, 1.230443e+002
1.033013e+003, 1.242762e+002
1.033495e+003, 1.245053e+002
1.033977e+003, 1.239401e+002
1.034459e+003, 1.236394e+002
1.034942e+003, 1.237644e+002
1.035424e+003, 1.237769e+002
1.035906e+003, 1.237231e+002
1.036388e+003, 1.234637e+002
1.036870e+003, 1.227422e+002
1.037352e+003, 1.220120e+002
1.037834e+003, 1.217164e+002
1.038316e+003, 1.218075e+002
1.038799e+003, 1.220085e+002
1.039281e+003, 1.225966e+002
1.039763e+003, 1.227528e+002
1.040245e+003, 1.218241e+002
1.040727e+003, 1.213035e+002
1.041209e+003, 1.221854e+002
1.041691e+003, 1.232798e+002
1.042173e+003, 1.233196e+002
1.042656e+003, 1.225383e+002
1.043138e+003, 1.221848e+002
1.043620e+003, 1.226187e+002
1.044102e+003, 1.228484e+002
1.044584e+003, 1.226447e+002
1.045066e+003, 1.224405e+002
1.045548e+003, 1.224166e+002
1.046030e+003, 1.224457e+002
1.046512e+003, 1.225482e+002
1.046995e+003, 1.226130e+002
1.047477e+003, 1.221024e+002
1.047959e+003, 1.203136e+002
1.048441e+003, 1.194466e+002
1.048923e+003, 1.207798e+002
1.049405e+003, 1.219352e+002
1.049887e+003, 1.216910e+002
1.050369e+003, 1.209957e+002
1.050851e+003, 1.208167e+002
1.051334e+003, 1.210802e+002
1.051816e+003, 1.211955e+002
1.052298e+003, 1.209327e+002
1.052780e+003, 1.208855e+002
1.053262e+003, 1.215690e+002
1.053744e+003, 1.220359e+002
1.054226e+003, 1.215356e+002
1.054708e+003, 1.208470e+002
1.055191e+003, 1.207510e+002
1.055673e+003, 1.211908e+002
1.056155e+003, 1.217727e+002
1.056637e+003, 1.225332e+002
1.057119e+003, 1.230102e+002
1.057601e+003, 1.228532e+002
1.058083e+003, 1.226325e+002
1.058565e+003, 1.227380e+002
1.059047e+003, 1.228359e+002
1.059530e+003, 1.224657e+002
1.060012e+003, 1.217855e+002
1.060494e+003, 1.213938e+002
1.060976e+003, 1.215300e+002
1.061458e+003, 1.215004e+002
1.061940e+003, 1.208403e+002
1.062422e+003, 1.202147e+002
1.062904e+003, 1.198423e+002
1.063386e+003, 1.197796e+002
1.063869e+003, 1.203504e+002
1.064351e+003, 1.212251e+002
1.064833e+003, 1.214906e+002
1.065315e+003, 1.208306e+002
1.065797e+003, 1.202616e+002
1.066279e+003, 1.204520e+002
1.066761e+003, 1.205297e+002
1.067243e+003, 1.196894e+002
1.067726e+003, 1.187960e+002
1.068208e+003, 1.188538e+002
1.068690e+003, 1.195460e+002
1.069172e+003, 1.198929e+002
1.069654e+003, 1.196217e+002
1.070136e+003, 1.195910e+002
1.070618e+003, 1.205064e+002
1.071100e+003, 1.213390e+002
1.071583e+003, 1.215244e+002
1.072065e+003, 1.213903e+002
1.072547e+003, 1.212278e+002
1.073029e+003, 1.210126e+002
1.073511e+003, 1.205331e+002
1.073993e+003, 1.197497e+002
1.074475e+003, 1.192130e+002
1.074957e+003, 1.193814e+002
1.075439e+003, 1.195757e+002
1.075922e+003, 1.193898e+002
1.076404e+003, 1.191345e+002
1.076886e+003, 1.190925e+002
1.077368e+003, 1.191901e+002
1.077850e+003, 1.191992e+002
1.078332e+003, 1.190999e+002
1.078814e+003, 1.192229e+002
1.079296e+003, 1.200431e+002
1.079779e+003, 1.206510e+002
1.080261e+003, 1.203404e+002
1.080743e+003, 1.199036e+002
1.081225e+003, 1.199306e+002
1.081707e+003, 1.203097e+002
1.082189e+003, 1.208787e+002
1.082671e+003, 1.215594e+002
1.083153e+003, 1.221015e+002
1.083635e+003, 1.223112e+002
1.084118e+003, 1.225475e+002
1.084600e+003, 1.230400e+002
1.085082e+003, 1.235492e+002
1.085564e+003, 1.238582e+002
1.086046e+003, 1.240983e+002
1.086528e+003, 1.244950e+002
1.087010e+003, 1.250302e+002
1.087492e+003, 1.254414e+002
1.087974e+003, 1.255266e+002
1.088457e+003, 1.257975e+002
1.088939e+003, 1.264234e+002
1.089421e+003, 1.273533e+002
1.089903e+003, 1.288685e+002
1.090385e+003, 1.304505e+002
1.090867e+003, 1.313131e+002
1.091349e+003, 1.316813e+002
1.091831e+003, 1.326293e+002
1.092314e+003, 1.346128e+002
1.092796e+003, 1.364510e+002
1.093278e+003, 1.375973e+002
1.093760e+003, 1.386200e+002
1.094242e+003, 1.398294e+002
1.094724e+003, 1.410340e+002
1.095206e+003, 1.422139e+002
1.095688e+003, 1.431921e+002
1.096171e+003, 1.436048e+002
1.096653e+003, 1.433635e+002
1.097135e+003, 1.426822e+002
1.097617e+003, 1.413331e+002
1.098099e+003, 1.399336e+002
1.098581e+003, 1.391894e+002
1.099063e+003, 1.380446e+002
1.099545e+003, 1.351680e+002
1.100027e+003, 1.314613e+002
1.100510e+003, 1.287439e+002
1.100992e+003, 1.272726e+002
1.101474e+003, 1.258721e+002
1.101956e+003, 1.241789e+002
1.102438e+003, 1.226670e+002
1.102920e+003, 1.214047e+002
1.103402e+003, 1.204213e+002
1.103884e+003, 1.199916e+002
1.104366e+003, 1.197039e+002
1.104849e+003, 1.188565e+002
1.105331e+003, 1.174721e+002
1.105813e+003, 1.165219e+002
1.106295e+003, 1.163268e+002
1.106777e+003, 1.162909e+002
1.107259e+003, 1.165355e+002
1.107741e+003, 1.166811e+002
1.108223e+003, 1.163751e+002
1.108706e+003, 1.160186e+002
1.109188e+003, 1.163214e+002
1.109670e+003, 1.170301e+002
1.110152e+003, 1.166976e+002
1.110634e+003, 1.143351e+002
1.111116e+003, 1.129739e+002
1.111598e+003, 1.133776e+002
1.112080e+003, 1.139808e+002
1.112563e+003, 1.146111e+002
1.113045e+003, 1.150312e+002
1.113527e+003, 1.149280e+002
1.114009e+003, 1.145036e+002
1.114491e+003, 1.143300e+002
1.114973e+003, 1.145377e+002
1.115455e+003, 1.144333e+002
1.115937e+003, 1.138031e+002
1.116419e+003, 1.132210e+002
1.116901e+003, 1.125804e+002
1.117384e+003, 1.123180e+002
1.117866e+003, 1.128952e+002
1.118348e+003, 1.138476e+002
1.118830e+003, 1.144317e+002
1.119312e+003, 1.146433e+002
1.119794e+003, 1.145578e+002
1.120276e+003, 1.140308e+002
1.120758e+003, 1.135545e+002
1.121241e+003, 1.130723e+002
1.121723e+003, 1.128977e+002
1.122205e+003, 1.133099e+002
1.122687e+003, 1.138600e+002
1.123169e+003, 1.140571e+002
1.123651e+003, 1.139089e+002
1.124133e+003, 1.133486e+002
1.124615e+003, 1.121482e+002
1.125098e+003, 1.117150e+002
1.125580e+003, 1.122802e+002
1.126062e+003, 1.129019e+002
1.126544e+003, 1.133461e+002
1.127026e+003, 1.135158e+002
1.127508e+003, 1.133022e+002
1.127990e+003, 1.128169e+002
1.128472e+003, 1.122863e+002
1.128954e+003, 1.117034e+002
1.129437e+003, 1.113047e+002
1.129919e+003, 1.110755e+002
1.130401e+003, 1.113459e+002
1.130883e+003, 1.122364e+002
1.131365e+003, 1.130034e+002
1.131847e+003, 1.132015e+002
1.132329e+003, 1.130364e+002
1.132811e+003, 1.127589e+002
1.133293e+003, 1.124084e+002
1.133776e+003, 1.121397e+002
1.134258e+003, 1.119673e+002
1.134740e+003, 1.121011e+002
1.135222e+003, 1.125359e+002
1.135704e+003, 1.129596e+002
1.136186e+003, 1.132403e+002
1.136668e+003, 1.131884e+002
1.137150e+003, 1.124952e+002
1.137633e+003, 1.116623e+002
1.138115e+003, 1.118925e+002
1.138597e+003, 1.127834e+002
1.139079e+003, 1.130682e+002
1.139561e+003, 1.128100e+002
1.140043e+003, 1.126144e+002
1.140525e+003, 1.126196e+002
1.141007e+003, 1.125706e+002
1.141490e+003, 1.122972e+002
1.141972e+003, 1.119699e+002
1.142454e+003, 1.117182e+002
1.142936e+003, 1.115992e+002
1.143418e+003, 1.118228e+002
1.143900e+003, 1.122045e+002
1.144382e+003, 1.123065e+002
1.144864e+003, 1.121746e+002
1.145346e+003, 1.123116e+002
1.145828e+003, 1.128945e+002
1.146311e+003, 1.131333e+002
1.146793e+003, 1.120241e+002
1.147275e+003, 1.107503e+002
1.147757e+003, 1.103493e+002
1.148239e+003, 1.104483e+002
1.148721e+003, 1.108340e+002
1.149203e+003, 1.112776e+002
1.149685e+003, 1.113339e+002
1.150168e+003, 1.110084e+002
1.150650e+003, 1.110112e+002
1.151132e+003, 1.118895e+002
1.151614e+003, 1.125987e+002
1.152096e+003, 1.124731e+002
1.152578e+003, 1.121352e+002
1.153060e+003, 1.118044e+002
1.153542e+003, 1.116533e+002
1.154025e+003, 1.120659e+002
1.154507e+003, 1.127971e+002
1.154989e+003, 1.129443e+002
1.155471e+003, 1.121322e+002
1.155953e+003, 1.117378e+002
1.156435e+003, 1.126415e+002
1.156917e+003, 1.132432e+002
1.157399e+003, 1.127387e+002
1.157881e+003, 1.120658e+002
1.158364e+003, 1.118691e+002
1.158846e+003, 1.119412e+002
1.159328e+003, 1.119913e+002
1.159810e+003, 1.120129e+002
1.160292e+003, 1.116362e+002
1.160774e+003, 1.103206e+002
1.161256e+003, 1.096095e+002
1.161738e+003, 1.099923e+002
1.162220e+003, 1.102694e+002
1.162703e+003, 1.097783e+002
1.163185e+003, 1.093471e+002
1.163667e+003, 1.099121e+002
1.164149e+003, 1.110748e+002
1.164631e+003, 1.114557e+002
1.165113e+003, 1.108834e+002
1.165595e+003, 1.105760e+002
1.166077e+003, 1.105528e+002
1.166560e+003, 1.107581e+002
1.167042e+003, 1.112606e+002
1.167524e+003, 1.115863e+002
1.168006e+003, 1.114109e+002
1.168488e+003, 1.110803e+002
1.168970e+003, 1.111373e+002
1.169452e+003, 1.114736e+002
1.169934e+003, 1.114853e+002
1.170417e+003, 1.112058e+002
1.170899e+003, 1.111656e+002
1.171381e+003, 1.113960e+002
1.171863e+003, 1.115809e+002
1.172345e+003, 1.116115e+002
1.172827e+003, 1.115485e+002
1.173309e+003, 1.114495e+002
1.173791e+003, 1.112470e+002
1.174273e+003, 1.105662e+002
1.174755e+003, 1.098164e+002
1.175238e+003, 1.101850e+002
1.175720e+003, 1.112841e+002
1.176202e+003, 1.120571e+002
1.176684e+003, 1.123045e+002
1.177166e+003, 1.120426e+002
1.177648e+003, 1.112904e+002
1.178130e+003, 1.106929e+002
1.178612e+003, 1.109261e+002
1.179095e+003, 1.114166e+002
1.179577e+003, 1.118092e+002
1.180059e+003, 1.119516e+002
1.180541e+003, 1.113373e+002
1.181023e+003, 1.104574e+002
1.181505e+003, 1.104420e+002
1.181987e+003, 1.112855e+002
1.182469e+003, 1.116309e+002
1.182952e+003, 1.106338e+002
1.183434e+003, 1.099445e+002
1.183916e+003, 1.106528e+002
1.184398e+003, 1.114354e+002
1.184880e+003, 1.115374e+002
1.185362e+003, 1.113811e+002
1.185844e+003, 1.113421e+002
1.186326e+003, 1.114129e+002
1.186808e+003, 1.115126e+002
1.187291e+003, 1.116450e+002
1.187773e+003, 1.116931e+002
1.188255e+003, 1.114898e+002
1.188737e+003, 1.114525e+002
1.189219e+003, 1.118924e+002
1.189701e+003, 1.121186e+002
1.190183e+003, 1.116338e+002
1.190665e+003, 1.110595e+002
1.191147e+003, 1.112291e+002
1.191630e+003, 1.118241e+002
1.192112e+003, 1.113328e+002
1.192594e+003, 1.092922e+002
1.193076e+003, 1.086214e+002
1.193558e+003, 1.096041e+002
1.194040e+003, 1.105370e+002
1.194522e+003, 1.110674e+002
1.195004e+003, 1.112935e+002
1.195487e+003, 1.112278e+002
1.195969e+003, 1.111422e+002
1.196451e+003, 1.114818e+002
1.196933e+003, 1.120620e+002
1.197415e+003, 1.121409e+002
1.197897e+003, 1.118027e+002
1.198379e+003, 1.115659e+002
1.198861e+003, 1.114195e+002
1.199344e+003, 1.108887e+002
1.199826e+003, 1.099043e+002
1.200308e+003, 1.091563e+002
1.200790e+003, 1.090994e+002
1.201272e+003, 1.095528e+002
1.201754e+003, 1.108194e+002
1.202236e+003, 1.120310e+002
1.202718e+003, 1.115441e+002
1.203200e+003, 1.103418e+002
1.203682e+003, 1.102726e+002
1.204165e+003, 1.110729e+002
1.204647e+003, 1.113031e+002
1.205129e+003, 1.105945e+002
1.205611e+003, 1.099456e+002
1.206093e+003, 1.098409e+002
1.206575e+003, 1.099903e+002
1.207057e+003, 1.105418e+002
1.207539e+003, 1.109677e+002
1.208022e+003, 1.106032e+002
1.208504e+003, 1.101351e+002
1.208986e+003, 1.105596e+002
1.209468e+003, 1.116221e+002
1.209950e+003, 1.121921e+002
1.210432e+003, 1.120213e+002
1.210914e+003, 1.118858e+002
1.211396e+003, 1.119472e+002
1.211879e+003, 1.118759e+002
1.212361e+003, 1.115366e+002
1.212843e+003, 1.111964e+002
1.213325e+003, 1.109833e+002
1.213807e+003, 1.108439e+002
1.214289e+003, 1.107105e+002
1.214771e+003, 1.105942e+002
1.215253e+003, 1.105440e+002
1.215735e+003, 1.105572e+002
1.216218e+003, 1.107251e+002
1.216700e+003, 1.110810e+002
1.217182e+003, 1.111068e+002
1.217664e+003, 1.106668e+002
1.218146e+003, 1.102523e+002
1.218628e+003, 1.101428e+002
1.219110e+003, 1.103248e+002
1.219592e+003, 1.108786e+002
1.220074e+003, 1.115907e+002
1.220557e+003, 1.119495e+002
1.221039e+003, 1.120520e+002
1.221521e+003, 1.122378e+002
1.222003e+003, 1.124037e+002
1.222485e+003, 1.119560e+002
1.222967e+003, 1.109316e+002
1.223449e+003, 1.103630e+002
1.223931e+003, 1.108747e+002
1.224414e+003, 1.115254e+002
1.224896e+003, 1.115857e+002
1.225378e+003, 1.114832e+002
1.225860e+003, 1.114907e+002
1.226342e+003, 1.115815e+002
1.226824e+003, 1.119239e+002
1.227306e+003, 1.122325e+002
1.227788e+003, 1.118037e+002
1.228271e+003, 1.106308e+002
1.228753e+003, 1.099611e+002
1.229235e+003, 1.103276e+002
1.229717e+003, 1.107127e+002
1.230199e+003, 1.110472e+002
1.230681e+003, 1.112950e+002
1.231163e+003, 1.113460e+002
1.231645e+003, 1.114462e+002
1.232127e+003, 1.118813e+002
1.232609e+003, 1.123856e+002
1.233092e+003, 1.124212e+002
1.233574e+003, 1.119971e+002
1.234056e+003, 1.116056e+002
1.234538e+003, 1.112476e+002
1.235020e+003, 1.109050e+002
1.235502e+003, 1.105827e+002
1.235984e+003, 1.101092e+002
1.236466e+003, 1.094158e+002
1.236949e+003, 1.089547e+002
1.237431e+003, 1.090996e+002
1.237913e+003, 1.095509e+002
1.238395e+003, 1.100199e+002
1.238877e+003, 1.103309e+002
1.239359e+003, 1.097578e+002
1.239841e+003, 1.088035e+002
1.240323e+003, 1.087420e+002
1.240806e+003, 1.094635e+002
1.241288e+003, 1.102056e+002
1.241770e+003, 1.106992e+002
1.242252e+003, 1.108261e+002
1.242734e+003, 1.102848e+002
1.243216e+003, 1.100019e+002
1.243698e+003, 1.109469e+002
1.244180e+003, 1.119285e+002
1.244662e+003, 1.121308e+002
1.245145e+003, 1.119403e+002
1.245627e+003, 1.116956e+002
1.246109e+003, 1.114353e+002
1.246591e+003, 1.111163e+002
1.247073e+003, 1.107242e+002
1.247555e+003, 1.105239e+002
1.248037e+003, 1.107026e+002
1.248519e+003, 1.107304e+002
1.249001e+003, 1.104278e+002
1.249484e+003, 1.103096e+002
1.249966e+003, 1.106034e+002
1.250448e+003, 1.109919e+002
1.250930e+003, 1.112428e+002
1.251412e+003, 1.113911e+002
1.251894e+003, 1.115013e+002
1.252376e+003, 1.115724e+002
1.252858e+003, 1.116062e+002
1.253341e+003, 1.115962e+002
1.253823e+003, 1.113752e+002
1.254305e+003, 1.110041e+002
1.254787e+003, 1.111051e+002
1.255269e+003, 1.118034e+002
1.255751e+003, 1.123782e+002
1.256233e+003, 1.123578e+002
1.256715e+003, 1.120048e+002
1.257198e+003, 1.113807e+002
1.257680e+003, 1.107927e+002
1.258162e+003, 1.105206e+002
1.258644e+003, 1.105478e+002
1.259126e+003, 1.109445e+002
1.259608e+003, 1.115730e+002
1.260090e+003, 1.123282e+002
1.260572e+003, 1.131055e+002
1.261054e+003, 1.132968e+002
1.261536e+003, 1.123398e+002
1.262019e+003, 1.116826e+002
1.262501e+003, 1.119296e+002
1.262983e+003, 1.120518e+002
1.263465e+003, 1.115453e+002
1.263947e+003, 1.110680e+002
1.264429e+003, 1.110937e+002
1.264911e+003, 1.113089e+002
1.265393e+003, 1.112581e+002
1.265876e+003, 1.109616e+002
1.266358e+003, 1.104416e+002
1.266840e+003, 1.096538e+002
1.267322e+003, 1.097649e+002
1.267804e+003, 1.108077e+002
1.268286e+003, 1.109715e+002
1.268768e+003, 1.098976e+002
1.269250e+003, 1.092270e+002
1.269733e+003, 1.098748e+002
1.270215e+003, 1.108228e+002
1.270697e+003, 1.111157e+002
1.271179e+003, 1.108736e+002
1.271661e+003, 1.096873e+002
1.272143e+003, 1.085257e+002
1.272625e+003, 1.090990e+002
1.273107e+003, 1.105940e+002
1.273589e+003, 1.115488e+002
1.274072e+003, 1.117738e+002
1.274554e+003, 1.115695e+002
1.275036e+003, 1.109338e+002
1.275518e+003, 1.105947e+002
1.276000e+003, 1.111291e+002
1.276482e+003, 1.114623e+002
1.276964e+003, 1.111952e+002
1.277446e+003, 1.108201e+002
1.277929e+003, 1.103949e+002
1.278411e+003, 1.101257e+002
1.278893e+003, 1.102211e+002
1.279375e+003, 1.106305e+002
1.279857e+003, 1.113742e+002
1.280339e+003, 1.124765e+002
1.280821e+003, 1.119284e+002
1.281303e+003, 1.097007e+002
1.281786e+003, 1.085478e+002
1.282268e+003, 1.088333e+002
##END=



