##NAMES=Wermlandite
##RRUFFID=R100052
##IDEAL CHEMISTRY=Mg_8_Al_2_(OH)_18_(S^6+^O_4_)_2_&#183;12H_2_O
##LOCALITY=Langban, Filipstad, Varmland, Sweden
##OWNER=RRUFF
##SOURCE=William W Pinch
##DESCRIPTION=Pale greenish blue hexagonal plates
##STATUS=The identification of this mineral has been confirmed by single-crystal X-ray diffraction.
##URL=rruff.info/R100052
90.01007, 0.0000000E+00
90.49219, 11.45603
90.97430, 11.06766
91.45642, 10.92994
91.93854, 11.20489
92.42065, 11.68423
92.90277, 12.09714
93.38489, 12.44287
93.86700, 12.66680
94.34912, 12.63971
94.83124, 12.39642
95.31335, 12.13591
95.79547, 12.00327
96.27759, 11.96199
96.75970, 11.83384
97.24182, 11.54914
97.72394, 11.22410
98.20605, 11.17701
98.68817, 11.44670
99.17029, 11.67651
99.65240, 11.44893
100.1345, 10.70948
100.6166, 10.34295
101.0988, 10.62146
101.5809, 11.45667
102.0630, 12.16399
102.5451, 12.83507
103.0272, 13.22756
103.5093, 12.97424
103.9915, 11.79049
104.4736, 10.69776
104.9557, 9.944103
105.4378, 9.540366
105.9199, 9.441401
106.4020, 9.810529
106.8842, 10.40346
107.3663, 10.80808
107.8484, 10.97333
108.3305, 11.00377
108.8126, 10.90981
109.2947, 10.48893
109.7769, 10.28211
110.2590, 10.55092
110.7411, 11.07968
111.2232, 11.19132
111.7053, 10.30572
112.1874, 9.400586
112.6696, 8.921548
113.1517, 9.414237
113.6338, 9.792613
114.1159, 9.819449
114.5980, 9.551759
115.0801, 9.404882
115.5623, 9.601026
116.0444, 9.895376
116.5265, 10.09785
117.0086, 10.16064
117.4907, 10.12407
117.9728, 9.925414
118.4550, 9.557227
118.9371, 9.321711
119.4192, 9.513226
119.9013, 9.879725
120.3834, 10.09682
120.8655, 9.661634
121.3477, 9.265195
121.8298, 9.569733
122.3119, 10.77761
122.7940, 11.83793
123.2761, 11.79268
123.7582, 11.02227
124.2404, 10.37396
124.7225, 10.33361
125.2046, 10.65543
125.6867, 11.06392
126.1688, 11.55091
126.6509, 12.04251
127.1331, 12.34014
127.6152, 12.51300
128.0973, 12.90493
128.5794, 13.85500
129.0615, 15.20196
129.5436, 16.57569
130.0258, 17.92897
130.5079, 19.23725
130.9900, 20.33597
131.4721, 21.21607
131.9542, 22.37178
132.4363, 24.31023
132.9185, 26.95382
133.4006, 29.77073
133.8827, 32.65193
134.3648, 35.57388
134.8469, 38.53606
135.3290, 41.45764
135.8112, 44.79121
136.2933, 49.07643
136.7754, 54.36706
137.2575, 60.02626
137.7396, 65.88963
138.2217, 71.86201
138.7039, 78.19693
139.1860, 84.87804
139.6681, 91.96753
140.1502, 99.98158
140.6323, 109.2692
141.1144, 118.0547
141.5966, 125.5349
142.0787, 131.3361
142.5608, 137.3421
143.0429, 143.6935
143.5250, 150.1569
144.0071, 156.1488
144.4893, 161.4786
144.9714, 166.5618
145.4535, 171.4432
145.9356, 175.8140
146.4177, 180.7138
146.8998, 186.3192
147.3820, 192.4942
147.8641, 198.9340
148.3462, 205.5658
148.8283, 212.4482
149.3104, 219.6771
149.7925, 226.9289
150.2747, 234.9175
150.7568, 244.0616
151.2389, 254.2117
151.7210, 263.5236
152.2031, 271.6609
152.6852, 279.0785
153.1674, 286.1457
153.6495, 292.9830
154.1316, 299.2855
154.6137, 305.0644
155.0958, 310.3214
155.5779, 314.8677
156.0601, 318.6551
156.5422, 321.7462
157.0243, 324.1456
157.5064, 325.0126
157.9885, 325.9718
158.4706, 327.5713
158.9528, 329.9218
159.4349, 332.1685
159.9170, 333.7431
160.3991, 335.2012
160.8812, 337.1856
161.3633, 340.3015
161.8455, 343.6460
162.3276, 346.7796
162.8097, 349.5229
163.2918, 352.5402
163.7739, 356.2090
164.2560, 359.8937
164.7382, 360.9713
165.2203, 361.0884
165.7024, 361.2998
166.1845, 361.7467
166.6666, 362.4495
167.1487, 363.3770
167.6309, 364.7330
168.1130, 366.3163
168.5951, 367.6748
169.0772, 369.0172
169.5593, 369.8516
170.0414, 369.6565
170.5236, 368.0760
171.0057, 366.1141
171.4878, 364.2802
171.9699, 362.5906
172.4520, 361.1436
172.9341, 359.7961
173.4163, 358.7599
173.8984, 358.4500
174.3805, 359.4991
174.8626, 360.3783
175.3447, 359.2235
175.8268, 356.4296
176.3090, 353.8264
176.7911, 352.8128
177.2732, 352.7816
177.7553, 352.8258
178.2374, 352.9062
178.7195, 352.7424
179.2017, 351.7282
179.6838, 349.9477
180.1659, 348.3063
180.6480, 347.6962
181.1301, 347.7480
181.6122, 347.5494
182.0944, 346.5812
182.5765, 345.4129
183.0586, 345.1858
183.5407, 345.8909
184.0228, 346.5836
184.5049, 346.4414
184.9871, 345.5869
185.4692, 344.4276
185.9513, 342.8248
186.4334, 341.0963
186.9155, 340.0226
187.3976, 339.6432
187.8798, 339.5068
188.3619, 338.9821
188.8440, 338.1883
189.3261, 337.9683
189.8082, 339.0880
190.2903, 340.9902
190.7725, 341.6463
191.2546, 340.9795
191.7367, 339.5243
192.2188, 337.5083
192.7009, 334.9676
193.1830, 332.9800
193.6652, 332.2108
194.1473, 332.4192
194.6294, 332.0022
195.1115, 330.7726
195.5936, 329.5363
196.0757, 329.6149
196.5579, 331.0628
197.0400, 332.2137
197.5221, 332.2739
198.0042, 331.3266
198.4863, 330.6102
198.9684, 330.1886
199.4506, 329.8687
199.9327, 329.3188
200.4148, 328.4979
200.8969, 327.7964
201.3790, 327.3780
201.8611, 327.2497
202.3433, 327.1952
202.8254, 327.1961
203.3075, 327.2886
203.7896, 327.6321
204.2717, 328.3169
204.7538, 328.7785
205.2360, 328.7093
205.7181, 328.0441
206.2002, 327.4063
206.6823, 326.7725
207.1644, 326.1906
207.6465, 325.7986
208.1287, 325.6769
208.6108, 325.4865
209.0929, 325.0454
209.5750, 324.2908
210.0571, 323.5902
210.5392, 322.8101
211.0214, 322.2103
211.5035, 322.6362
211.9856, 324.7203
212.4677, 326.1005
212.9498, 325.2509
213.4319, 321.2486
213.9140, 319.0901
214.3962, 319.4206
214.8783, 321.2244
215.3604, 322.1672
215.8425, 322.0407
216.3246, 321.5341
216.8067, 320.8345
217.2889, 319.7469
217.7710, 319.1755
218.2531, 319.3238
218.7352, 319.8874
219.2173, 320.1106
219.6994, 319.7933
220.1816, 319.5085
220.6637, 319.5458
221.1458, 320.0700
221.6279, 320.4546
222.1100, 320.7160
222.5921, 320.8334
223.0743, 320.7086
223.5564, 320.1880
224.0385, 319.7152
224.5206, 319.5464
225.0027, 319.8745
225.4848, 319.9949
225.9670, 319.8490
226.4491, 319.5117
226.9312, 319.1211
227.4133, 318.5042
227.8954, 318.1173
228.3775, 318.2317
228.8597, 319.1339
229.3418, 319.8331
229.8239, 320.3577
230.3060, 320.6516
230.7881, 320.4968
231.2702, 319.5536
231.7524, 318.6497
232.2345, 318.1967
232.7166, 318.4473
233.1987, 318.5205
233.6808, 318.3502
234.1629, 318.0177
234.6451, 317.6947
235.1272, 317.2156
235.6093, 317.0117
236.0914, 317.3390
236.5735, 318.5589
237.0556, 319.5105
237.5378, 320.1482
238.0199, 320.5463
238.5020, 320.8922
238.9841, 321.2796
239.4662, 321.4953
239.9483, 321.4042
240.4305, 320.7795
240.9126, 320.3889
241.3947, 320.3200
241.8768, 320.4503
242.3589, 320.4641
242.8410, 320.2137
243.3232, 320.0590
243.8053, 320.2559
244.2874, 321.2979
244.7695, 321.3899
245.2516, 319.8926
245.7337, 317.6950
246.2159, 316.8582
246.6980, 318.0876
247.1801, 319.5777
247.6622, 320.6906
248.1443, 321.4119
248.6264, 321.7719
249.1086, 321.5557
249.5907, 321.0906
250.0728, 321.1095
250.5549, 322.0021
251.0370, 322.7156
251.5191, 322.6957
252.0013, 321.4557
252.4834, 321.1328
252.9655, 322.0216
253.4476, 323.6412
253.9297, 325.2438
254.4118, 327.1927
254.8940, 328.4006
255.3761, 328.2985
255.8582, 326.4440
256.3403, 324.9730
256.8224, 323.6940
257.3046, 322.9422
257.7867, 323.5259
258.2688, 326.3176
258.7509, 328.6236
259.2330, 329.4224
259.7151, 328.4379
260.1973, 327.6324
260.6794, 327.0014
261.1615, 326.5793
261.6436, 326.4376
262.1257, 326.6069
262.6078, 326.9818
263.0900, 327.5547
263.5721, 328.3461
264.0542, 329.1519
264.5363, 329.9439
265.0184, 330.7838
265.5005, 331.8257
265.9827, 333.1644
266.4648, 334.3918
266.9469, 335.4003
267.4290, 336.1845
267.9111, 336.7355
268.3932, 336.9790
268.8754, 337.0929
269.3575, 337.2587
269.8396, 337.4726
270.3217, 337.7634
270.8038, 338.1400
271.2859, 338.6063
271.7681, 339.1489
272.2502, 339.7794
272.7323, 340.4663
273.2144, 341.0563
273.6965, 341.4427
274.1786, 342.3908
274.6608, 344.4364
275.1429, 347.2748
275.6250, 348.5915
276.1071, 348.0514
276.5892, 346.9579
277.0714, 346.2924
277.5535, 346.0098
278.0356, 346.6183
278.5177, 348.6080
278.9998, 351.4661
279.4819, 352.8669
279.9641, 352.5369
280.4462, 351.9639
280.9283, 352.4987
281.4104, 354.1888
281.8925, 355.3552
282.3746, 355.5540
282.8568, 355.2113
283.3389, 355.5761
283.8210, 356.7125
284.3031, 358.0424
284.7852, 359.2443
285.2673, 360.3017
285.7495, 361.1276
286.2316, 361.6294
286.7137, 361.9941
287.1958, 362.6782
287.6779, 363.6892
288.1600, 364.6280
288.6422, 365.3843
289.1243, 365.9097
289.6064, 365.7179
290.0885, 364.5801
290.5706, 363.1951
291.0527, 362.8290
291.5349, 363.4160
292.0170, 363.9439
292.4991, 363.6544
292.9812, 362.8292
293.4633, 362.6441
293.9454, 363.3104
294.4276, 363.9935
294.9097, 363.0931
295.3918, 360.9882
295.8739, 359.7022
296.3560, 361.0094
296.8381, 363.7583
297.3203, 365.0987
297.8024, 364.8625
298.2845, 364.1909
298.7666, 364.3598
299.2487, 365.0896
299.7308, 365.5288
300.2130, 365.0359
300.6951, 364.1472
301.1772, 363.8460
301.6593, 364.1335
302.1414, 364.3560
302.6235, 363.5222
303.1057, 362.2313
303.5878, 361.7592
304.0699, 363.3427
304.5520, 365.3040
305.0341, 365.4477
305.5162, 363.9667
305.9984, 362.4732
306.4805, 362.2943
306.9626, 362.7813
307.4447, 363.0306
307.9268, 362.7002
308.4089, 362.1776
308.8911, 361.6341
309.3732, 361.1275
309.8553, 360.9068
310.3374, 361.3862
310.8195, 362.0963
311.3016, 362.5723
311.7838, 362.6929
312.2659, 362.6206
312.7480, 362.2965
313.2301, 361.8488
313.7122, 361.5830
314.1943, 361.9143
314.6765, 362.3098
315.1586, 362.3486
315.6407, 361.8691
316.1228, 361.4077
316.6049, 361.2520
317.0870, 361.2792
317.5692, 361.2885
318.0513, 361.0787
318.5334, 360.9298
319.0155, 361.1410
319.4976, 361.8488
319.9797, 362.0368
320.4619, 360.7016
320.9440, 358.8907
321.4261, 357.7934
321.9082, 358.1971
322.3903, 358.8482
322.8724, 359.5826
323.3546, 360.3956
323.8367, 360.6549
324.3188, 359.9432
324.8009, 358.8022
325.2830, 357.6580
325.7651, 356.2875
326.2473, 355.2276
326.7294, 354.6749
327.2115, 354.5743
327.6936, 354.4532
328.1757, 354.1323
328.6578, 353.9057
329.1400, 353.9270
329.6221, 354.6547
330.1042, 355.0004
330.5863, 354.6902
331.0684, 353.9795
331.5505, 353.6440
332.0327, 354.0130
332.5148, 354.3527
332.9969, 354.3372
333.4790, 353.7462
333.9611, 353.4137
334.4432, 353.5242
334.9254, 353.7815
335.4075, 353.6158
335.8896, 352.6847
336.3717, 352.0270
336.8538, 352.0431
337.3359, 352.8114
337.8180, 353.4699
338.3001, 354.0702
338.7823, 354.4904
339.2644, 354.4927
339.7465, 353.9427
340.2286, 353.5815
340.7107, 353.6517
341.1928, 354.0748
341.6750, 354.3077
342.1571, 354.3431
342.6392, 354.2216
343.1213, 353.9490
343.6034, 353.5232
344.0855, 352.9708
344.5677, 352.1348
345.0498, 351.3400
345.5319, 351.6055
346.0140, 352.9682
346.4961, 354.3429
346.9782, 355.0642
347.4604, 355.2132
347.9425, 355.0746
348.4246, 354.6129
348.9067, 354.0724
349.3888, 353.7775
349.8709, 353.7123
350.3531, 353.7729
350.8352, 353.8403
351.3173, 354.0151
351.7994, 354.5484
352.2815, 355.4671
352.7636, 356.5128
353.2458, 357.6318
353.7279, 358.6905
354.2100, 359.3974
354.6921, 359.4752
355.1742, 359.2555
355.6563, 358.9715
356.1385, 358.6425
356.6206, 358.4747
357.1027, 358.7848
357.5848, 359.2685
358.0669, 359.5556
358.5490, 359.4195
359.0312, 359.2509
359.5133, 359.2164
359.9954, 359.3326
360.4775, 359.6491
360.9596, 360.3712
361.4417, 361.1796
361.9239, 361.9110
362.4060, 362.6148
362.8881, 363.0117
363.3702, 362.7710
363.8523, 362.1993
364.3344, 361.7675
364.8166, 361.3441
365.2987, 361.3205
365.7808, 362.0313
366.2629, 363.6089
366.7450, 364.8990
367.2271, 365.7604
367.7093, 366.2458
368.1914, 366.4022
368.6735, 365.6781
369.1556, 365.2499
369.6377, 365.4178
370.1198, 366.1044
370.6020, 366.6385
371.0841, 366.9605
371.5662, 367.1871
372.0483, 367.4131
372.5304, 367.9445
373.0125, 367.8297
373.4947, 366.5094
373.9768, 364.7229
374.4589, 364.3851
374.9410, 366.3593
375.4231, 367.9951
375.9052, 368.0425
376.3874, 366.1732
376.8695, 365.4632
377.3516, 366.3480
377.8337, 367.6509
378.3158, 367.6383
378.7979, 366.0358
379.2801, 365.2695
379.7622, 366.3859
380.2443, 368.8110
380.7264, 369.8363
381.2085, 369.2917
381.6906, 368.4906
382.1728, 368.6050
382.6549, 369.4876
383.1370, 370.2020
383.6191, 370.5794
384.1012, 370.7451
384.5833, 370.9267
385.0655, 371.1057
385.5476, 371.1545
386.0297, 370.8545
386.5118, 370.4119
386.9939, 370.2556
387.4760, 370.4633
387.9582, 370.6662
388.4403, 370.2729
388.9224, 369.6247
389.4045, 369.4272
389.8866, 370.7553
390.3687, 372.1153
390.8509, 372.0325
391.3330, 370.6126
391.8151, 369.1124
392.2972, 367.9772
392.7793, 367.2657
393.2614, 367.0464
393.7436, 367.4569
394.2257, 368.1907
394.7078, 369.4654
395.1899, 371.0000
395.6720, 372.0552
396.1541, 372.4630
396.6363, 372.2923
397.1184, 371.3376
397.6005, 369.0641
398.0826, 367.6500
398.5647, 367.9429
399.0468, 369.0922
399.5290, 370.0666
400.0111, 370.8803
400.4932, 371.4218
400.9753, 371.5958
401.4574, 371.4031
401.9395, 371.2082
402.4217, 370.7315
402.9038, 370.5369
403.3859, 371.0743
403.8680, 372.7521
404.3501, 374.2154
404.8322, 375.4495
405.3144, 376.3667
405.7965, 376.6348
406.2786, 376.1155
406.7607, 375.4085
407.2428, 374.6170
407.7249, 373.7183
408.2071, 373.5356
408.6892, 374.1833
409.1713, 375.1967
409.6534, 376.0639
410.1355, 376.7848
410.6176, 377.4253
411.0998, 377.9893
411.5819, 378.5030
412.0640, 378.9544
412.5461, 379.3489
413.0282, 379.9252
413.5103, 381.2152
413.9925, 382.7682
414.4746, 383.5611
414.9567, 383.2476
415.4388, 382.6772
415.9209, 382.6501
416.4030, 383.0532
416.8852, 383.6055
417.3673, 384.1933
417.8494, 384.8466
418.3315, 385.6262
418.8136, 386.5290
419.2957, 387.4333
419.7779, 388.2320
420.2600, 389.0083
420.7421, 389.8327
421.2242, 390.7413
421.7063, 391.6989
422.1884, 392.8279
422.6706, 394.0373
423.1527, 395.0220
423.6348, 395.4922
424.1169, 395.8920
424.5990, 396.3900
425.0811, 396.8861
425.5633, 397.7573
426.0454, 399.4439
426.5275, 401.3279
427.0096, 402.6394
427.4917, 403.1092
427.9738, 403.3780
428.4560, 403.3985
428.9381, 403.2074
429.4202, 403.7158
429.9023, 405.1387
430.3844, 406.8391
430.8665, 408.3890
431.3487, 409.7872
431.8308, 411.0573
432.3129, 412.2631
432.7950, 413.2509
433.2771, 413.3890
433.7592, 412.6197
434.2414, 412.3524
434.7235, 413.6635
435.2056, 416.0601
435.6877, 417.4247
436.1698, 417.6830
436.6519, 417.7520
437.1341, 418.7278
437.6162, 420.2307
438.0983, 421.2284
438.5804, 421.1360
439.0625, 420.8650
439.5446, 421.7072
440.0268, 423.3473
440.5089, 424.6255
440.9910, 424.2200
441.4731, 423.5379
441.9552, 424.0097
442.4373, 426.0234
442.9195, 427.9159
443.4016, 428.7806
443.8837, 429.0689
444.3658, 429.3288
444.8479, 429.6550
445.3300, 430.0464
445.8122, 430.5081
446.2943, 431.0352
446.7764, 431.6212
447.2585, 432.3984
447.7406, 433.1285
448.2227, 433.6544
448.7049, 433.6101
449.1870, 434.0812
449.6691, 435.4768
450.1512, 437.1821
450.6333, 438.1665
451.1154, 438.1292
451.5976, 438.0128
452.0797, 437.9578
452.5618, 437.9868
453.0439, 438.5556
453.5260, 439.7814
454.0081, 441.1427
454.4903, 442.1404
454.9724, 442.7758
455.4545, 443.8174
455.9366, 445.4734
456.4187, 447.3124
456.9008, 448.5382
457.3830, 449.2238
457.8651, 449.8108
458.3472, 450.6290
458.8293, 451.4658
459.3114, 451.8943
459.7935, 451.9124
460.2757, 451.8477
460.7578, 451.7299
461.2399, 451.7603
461.7220, 452.3212
462.2041, 454.0265
462.6862, 455.4058
463.1684, 455.2783
463.6505, 454.0920
464.1326, 452.8853
464.6147, 452.0728
465.0968, 451.3351
465.5789, 450.5402
466.0611, 449.6718
466.5432, 448.7539
467.0253, 447.9345
467.5074, 446.9910
467.9895, 445.7426
468.4716, 444.1785
468.9538, 442.2480
469.4359, 439.5374
469.9180, 436.4848
470.4001, 434.5809
470.8822, 434.4537
471.3643, 434.4032
471.8465, 433.7650
472.3286, 432.5005
472.8107, 431.1552
473.2928, 429.8268
473.7749, 428.2480
474.2570, 425.7788
474.7392, 422.4351
475.2213, 420.0948
475.7034, 419.3350
476.1855, 419.6024
476.6676, 420.0635
477.1497, 420.6607
477.6319, 420.8575
478.1140, 419.9783
478.5961, 418.5972
479.0782, 417.6914
479.5603, 417.3429
480.0424, 417.1620
480.5246, 416.7939
481.0067, 416.4021
481.4888, 416.2186
481.9709, 416.3915
482.4530, 416.6986
482.9352, 416.9597
483.4173, 417.2490
483.8994, 417.8029
484.3815, 419.4494
484.8636, 420.7658
485.3457, 420.8077
485.8279, 418.9432
486.3100, 417.9862
486.7921, 418.6426
487.2742, 420.0563
487.7563, 421.5621
488.2384, 423.5678
488.7206, 424.9500
489.2027, 425.4006
489.6848, 425.1733
490.1669, 425.0981
490.6490, 425.1370
491.1311, 425.4594
491.6133, 426.3076
492.0954, 427.6732
492.5775, 428.3834
493.0596, 428.2289
493.5417, 428.3076
494.0238, 430.5462
494.5060, 434.3091
494.9881, 436.3734
495.4702, 435.2196
495.9523, 433.1129
496.4344, 433.3462
496.9165, 435.4559
497.3987, 437.6947
497.8808, 438.8301
498.3629, 439.8031
498.8450, 441.6655
499.3271, 444.5495
499.8092, 447.3054
500.2914, 449.1222
500.7735, 450.6217
501.2556, 452.4532
501.7377, 455.3109
502.2198, 457.8295
502.7019, 459.2210
503.1841, 460.0359
503.6662, 461.7937
504.1483, 465.8211
504.6304, 469.5563
505.1125, 472.1010
505.5946, 473.3261
506.0768, 475.0529
506.5589, 477.1436
507.0410, 479.9409
507.5231, 483.9909
508.0052, 489.5502
508.4873, 494.5656
508.9695, 498.6141
509.4516, 502.1967
509.9337, 506.1292
510.4158, 510.4058
510.8979, 514.9151
511.3800, 519.9382
511.8622, 525.0902
512.3443, 529.1273
512.8264, 532.1077
513.3085, 535.8115
513.7906, 542.1317
514.2728, 549.7666
514.7549, 557.0769
515.2370, 563.7550
515.7191, 570.0665
516.2012, 575.6673
516.6833, 581.1017
517.1655, 587.2979
517.6476, 595.5636
518.1297, 603.6376
518.6118, 610.4505
519.0939, 616.1423
519.5760, 622.4792
520.0582, 630.4045
520.5403, 638.3393
521.0224, 645.4164
521.5045, 651.1039
521.9866, 657.6611
522.4688, 665.5375
522.9509, 673.7813
523.4330, 681.3464
523.9151, 688.1525
524.3972, 694.7610
524.8793, 701.3655
525.3615, 707.6943
525.8436, 713.3419
526.3257, 718.3155
526.8078, 722.0036
527.2899, 723.5595
527.7720, 723.7062
528.2542, 724.1565
528.7363, 725.0105
529.2184, 725.4470
529.7005, 725.0894
530.1826, 723.7931
530.6647, 721.3076
531.1469, 717.3813
531.6290, 712.5916
532.1111, 707.0943
532.5932, 700.9971
533.0753, 694.5472
533.5574, 687.0802
534.0396, 679.9147
534.5217, 673.7776
535.0038, 668.8412
535.4859, 662.7682
535.9680, 654.7050
536.4501, 646.3336
536.9323, 638.6868
537.4144, 632.0890
537.8965, 624.9656
538.3786, 616.8844
538.8607, 608.8314
539.3428, 602.7399
539.8250, 598.7263
540.3071, 594.4016
540.7892, 589.0750
541.2713, 583.0685
541.7534, 577.3391
542.2355, 571.8575
542.7177, 566.3078
543.1998, 560.5646
543.6819, 554.5184
544.1640, 548.0473
544.6461, 541.1392
545.1282, 533.8353
545.6104, 525.7670
546.0925, 517.5544
546.5746, 509.8651
547.0567, 502.6407
547.5388, 496.3005
548.0209, 491.8241
548.5031, 488.3597
548.9852, 483.9332
549.4673, 476.9300
549.9494, 470.3289
550.4315, 464.8798
550.9136, 460.5792
551.3958, 456.6246
551.8779, 452.9842
552.3600, 449.7374
552.8421, 447.0942
553.3242, 445.1818
553.8063, 442.4993
554.2885, 438.7360
554.7706, 434.8853
555.2527, 432.4492
555.7348, 431.2193
556.2169, 429.8674
556.6990, 427.8951
557.1812, 425.7628
557.6633, 424.1568
558.1454, 422.9760
558.6275, 421.8346
559.1096, 420.3720
559.5917, 418.9669
560.0739, 418.2001
560.5560, 418.1227
561.0381, 417.4308
561.5202, 414.6582
562.0023, 411.6492
562.4844, 409.8101
562.9666, 410.4683
563.4487, 410.5829
563.9308, 409.5556
564.4129, 408.0790
564.8950, 407.3007
565.3771, 407.7793
565.8593, 407.6427
566.3414, 406.1302
566.8235, 403.7233
567.3056, 402.7302
567.7877, 403.3325
568.2698, 404.0531
568.7520, 403.9582
569.2341, 403.2524
569.7162, 402.7252
570.1983, 402.4162
570.6804, 402.1205
571.1625, 401.7413
571.6447, 401.2327
572.1268, 400.4799
572.6089, 399.3109
573.0910, 398.2043
573.5731, 397.3864
574.0552, 396.8514
574.5374, 396.5708
575.0195, 396.9540
575.5016, 397.1813
575.9837, 396.8915
576.4658, 396.1304
576.9479, 395.5092
577.4301, 395.1110
577.9122, 394.7859
578.3943, 394.4769
578.8764, 394.1904
579.3585, 393.8571
579.8406, 393.3974
580.3228, 393.0654
580.8049, 393.3151
581.2870, 394.0886
581.7691, 394.2553
582.2512, 393.3771
582.7333, 392.3827
583.2155, 393.1108
583.6975, 394.9574
584.1796, 396.0649
584.6617, 394.5156
585.1439, 392.5922
585.6260, 392.5335
586.1081, 394.0273
586.5902, 395.4819
587.0723, 396.6797
587.5544, 397.2093
588.0366, 396.5311
588.5187, 394.1001
589.0008, 392.6544
589.4829, 393.4554
589.9650, 394.7387
590.4471, 395.1491
590.9293, 394.0827
591.4114, 393.6174
591.8935, 394.1537
592.3756, 395.0634
592.8577, 395.1952
593.3398, 394.5170
593.8220, 393.5687
594.3041, 392.2377
594.7862, 390.9630
595.2683, 390.9761
595.7504, 392.1335
596.2325, 393.3846
596.7147, 394.4245
597.1968, 395.0093
597.6789, 394.6823
598.1610, 393.4003
598.6431, 392.1119
599.1252, 391.1084
599.6074, 390.4800
600.0895, 390.3214
600.5716, 390.8953
601.0537, 391.5163
601.5358, 392.2614
602.0179, 392.9284
602.5001, 393.2128
602.9822, 392.8479
603.4643, 392.6205
603.9464, 392.6502
604.4285, 392.9042
604.9106, 393.4743
605.3928, 394.4448
605.8749, 394.8732
606.3570, 393.8666
606.8391, 391.9814
607.3212, 391.0309
607.8033, 390.9946
608.2855, 391.3885
608.7676, 392.0167
609.2497, 392.7836
609.7318, 393.5879
610.2139, 394.4473
610.6960, 395.2145
611.1782, 395.9687
611.6603, 396.5195
612.1424, 396.6715
612.6245, 396.0740
613.1066, 395.4410
613.5887, 394.7286
614.0709, 394.0676
614.5530, 393.7540
615.0351, 394.0241
615.5172, 394.1633
615.9993, 394.0226
616.4814, 393.5978
616.9636, 392.5726
617.4457, 390.8415
617.9278, 389.7444
618.4099, 390.7460
618.8920, 392.9915
619.3741, 394.0557
619.8563, 393.8485
620.3384, 393.3793
620.8205, 393.3070
621.3026, 393.5194
621.7847, 393.9160
622.2668, 394.5596
622.7490, 395.1579
623.2311, 395.9320
623.7132, 396.4701
624.1953, 396.2466
624.6774, 393.5681
625.1595, 392.1388
625.6417, 393.0990
626.1238, 395.4809
626.6059, 396.4923
627.0880, 395.7616
627.5701, 394.7854
628.0522, 393.9092
628.5344, 393.2270
629.0165, 393.3741
629.4986, 394.3694
629.9807, 395.4084
630.4628, 395.9022
630.9449, 396.0448
631.4271, 396.2849
631.9092, 396.6675
632.3913, 396.7439
632.8734, 395.5414
633.3555, 394.1793
633.8376, 393.8891
634.3198, 395.5883
634.8019, 397.0849
635.2840, 397.9326
635.7661, 398.1929
636.2482, 397.9240
636.7303, 396.3874
637.2125, 395.6024
637.6946, 396.1366
638.1767, 397.4757
638.6588, 398.1179
639.1409, 397.9660
639.6230, 397.8727
640.1052, 398.3318
640.5873, 399.0565
641.0694, 399.1826
641.5515, 398.7402
642.0336, 397.9909
642.5157, 396.7068
642.9979, 395.4397
643.4800, 394.8871
643.9621, 395.1236
644.4442, 395.6369
644.9263, 396.4567
645.4084, 397.2773
645.8906, 397.8650
646.3727, 398.2890
646.8548, 398.2140
647.3369, 396.9066
647.8190, 395.5766
648.3011, 395.9041
648.7833, 398.6620
649.2654, 400.4152
649.7475, 400.4396
650.2296, 399.4453
650.7117, 398.7250
651.1938, 398.2818
651.6760, 398.2761
652.1581, 399.1786
652.6402, 400.2356
653.1223, 399.8954
653.6044, 398.5656
654.0865, 397.9435
654.5687, 399.8360
655.0508, 402.0884
655.5329, 403.3973
656.0150, 403.6424
656.4971, 403.3919
656.9792, 402.1723
657.4614, 400.9786
657.9435, 400.3275
658.4256, 400.2832
658.9077, 400.5898
659.3898, 401.3592
659.8719, 402.2732
660.3541, 403.0628
660.8362, 403.7212
661.3183, 404.1616
661.8004, 404.3610
662.2825, 404.3418
662.7646, 404.0603
663.2468, 403.5826
663.7289, 403.0644
664.2110, 402.5151
664.6931, 402.0114
665.1752, 401.4218
665.6573, 400.9283
666.1395, 400.9399
666.6216, 402.6480
667.1037, 403.7905
667.5858, 403.0363
668.0679, 400.7941
668.5500, 400.0215
669.0322, 401.3504
669.5143, 402.8936
669.9964, 403.8802
670.4785, 404.3312
670.9606, 404.6230
671.4427, 404.7551
671.9249, 404.6894
672.4070, 404.0638
672.8891, 403.2779
673.3712, 403.3767
673.8533, 404.5441
674.3354, 405.6159
674.8176, 405.4930
675.2997, 404.9673
675.7818, 404.8751
676.2639, 405.5623
676.7460, 406.3941
677.2281, 407.6051
677.7103, 408.7115
678.1924, 409.0518
678.6745, 408.1082
679.1566, 407.5911
679.6387, 407.9594
680.1208, 408.6540
680.6030, 408.1499
681.0851, 406.4638
681.5672, 405.4945
682.0493, 406.2734
682.5314, 407.8453
683.0135, 408.6039
683.4957, 408.7011
683.9778, 408.7164
684.4599, 409.0083
684.9420, 409.2960
685.4241, 409.3655
685.9063, 409.2244
686.3884, 409.0956
686.8705, 409.2694
687.3526, 409.2531
687.8347, 408.6583
688.3168, 407.2809
688.7990, 407.0418
689.2811, 408.5318
689.7632, 409.8519
690.2453, 409.0343
690.7274, 406.3255
691.2095, 405.1403
691.6917, 405.8127
692.1738, 407.1517
692.6559, 408.1000
693.1380, 408.7882
693.6201, 409.4542
694.1022, 410.2140
694.5844, 410.7619
695.0665, 410.8170
695.5486, 410.5804
696.0307, 410.3107
696.5128, 409.7423
696.9949, 409.5659
697.4771, 410.0053
697.9592, 410.7964
698.4413, 411.4374
698.9234, 411.9340
699.4055, 412.2565
699.8876, 412.3547
700.3698, 412.3185
700.8519, 412.5470
701.3340, 412.9460
701.8161, 412.8538
702.2982, 411.2079
702.7803, 409.3813
703.2625, 409.1220
703.7446, 410.1429
704.2267, 410.9375
704.7088, 410.7255
705.1909, 410.2233
705.6730, 409.7285
706.1552, 409.2549
706.6373, 408.8434
707.1194, 408.1169
707.6015, 407.9877
708.0836, 409.2924
708.5657, 412.1492
709.0479, 413.7446
709.5300, 413.9791
710.0121, 413.5012
710.4942, 412.4854
710.9763, 411.2535
711.4584, 410.4558
711.9406, 410.1464
712.4227, 410.5319
712.9048, 412.5512
713.3869, 414.9583
713.8690, 416.4518
714.3511, 416.4725
714.8333, 416.0427
715.3154, 414.8096
715.7975, 413.5175
716.2796, 413.0115
716.7617, 413.6192
717.2438, 414.1502
717.7260, 414.5645
718.2081, 414.7050
718.6902, 414.0713
719.1723, 412.7807
719.6544, 411.7847
720.1365, 411.4792
720.6187, 411.4419
721.1008, 410.9337
721.5829, 410.2988
722.0650, 410.3375
722.5471, 412.3743
723.0292, 414.1620
723.5114, 414.5195
723.9935, 413.7341
724.4756, 413.1600
724.9577, 413.1052
725.4398, 412.8456
725.9219, 412.0060
726.4041, 410.7764
726.8862, 410.3360
727.3683, 410.7367
727.8504, 411.3228
728.3325, 411.7043
728.8146, 412.0268
729.2968, 412.7738
729.7789, 413.8660
730.2610, 414.5627
730.7431, 413.9793
731.2252, 413.1387
731.7073, 412.7556
732.1895, 412.9140
732.6716, 413.2734
733.1537, 414.2848
733.6358, 414.9971
734.1179, 414.7588
734.6000, 413.2505
735.0822, 412.7135
735.5643, 413.3270
736.0464, 414.2654
736.5285, 415.0121
737.0106, 415.4865
737.4927, 415.1827
737.9749, 413.9662
738.4570, 412.8641
738.9391, 412.6603
739.4212, 413.1430
739.9033, 414.2864
740.3854, 416.7865
740.8676, 418.2066
741.3497, 417.0602
741.8318, 414.9448
742.3139, 413.4991
742.7960, 412.9926
743.2781, 412.4561
743.7603, 411.6725
744.2424, 411.0882
744.7245, 411.5660
745.2066, 412.9542
745.6887, 414.0524
746.1708, 414.5198
746.6530, 414.7384
747.1351, 415.0160
747.6172, 415.3793
748.0993, 415.8850
748.5814, 417.0816
749.0635, 417.8085
749.5457, 417.2076
750.0278, 415.9385
750.5099, 415.4365
750.9920, 416.1264
751.4741, 416.8578
751.9562, 417.5274
752.4384, 418.0465
752.9205, 418.0237
753.4026, 417.4822
753.8847, 417.1859
754.3668, 417.7050
754.8489, 418.3210
755.3311, 417.7170
755.8132, 416.3037
756.2953, 415.3008
756.7774, 415.3184
757.2595, 415.8267
757.7416, 416.9828
758.2238, 418.5337
758.7059, 419.2491
759.1880, 418.7784
759.6701, 417.9186
760.1522, 416.6044
760.6343, 415.0911
761.1165, 414.9518
761.5986, 416.2564
762.0807, 417.4554
762.5628, 417.6674
763.0449, 417.2329
763.5270, 416.3739
764.0092, 415.2632
764.4913, 414.8145
764.9734, 416.3741
765.4555, 418.0443
765.9376, 418.6017
766.4197, 417.9946
766.9019, 417.4772
767.3840, 417.0407
767.8661, 416.8412
768.3482, 417.0579
768.8303, 417.6631
769.3124, 417.8159
769.7946, 417.4841
770.2767, 417.1029
770.7588, 416.8406
771.2409, 416.7867
771.7230, 417.3690
772.2051, 418.5400
772.6873, 419.2043
773.1694, 417.6758
773.6515, 416.2104
774.1336, 416.7479
774.6157, 420.0432
775.0978, 421.4994
775.5800, 419.9478
776.0621, 417.9334
776.5442, 416.8585
777.0263, 416.7487
777.5084, 417.1164
777.9905, 418.0253
778.4727, 418.8004
778.9548, 418.5901
779.4369, 417.9459
779.9190, 417.9572
780.4011, 418.7697
780.8832, 419.3786
781.3654, 418.9419
781.8475, 418.2715
782.3296, 417.9811
782.8117, 418.2993
783.2938, 418.5341
783.7759, 418.6153
784.2581, 418.7242
784.7402, 419.1776
785.2223, 419.9791
785.7044, 419.7466
786.1865, 418.3024
786.6686, 416.9712
787.1508, 417.2804
787.6329, 418.4206
788.1150, 419.1764
788.5971, 419.3408
789.0792, 419.2517
789.5613, 418.6171
790.0435, 418.0884
790.5256, 418.2836
791.0077, 419.6875
791.4898, 420.4795
791.9719, 420.3295
792.4540, 420.1043
792.9362, 420.8426
793.4183, 422.4154
793.9004, 423.1178
794.3825, 422.7861
794.8646, 421.9589
795.3467, 420.5887
795.8289, 419.2811
796.3110, 418.9431
796.7931, 419.8989
797.2752, 421.0591
797.7573, 422.8123
798.2394, 424.0878
798.7216, 423.8824
799.2037, 421.1590
799.6858, 419.8552
800.1679, 420.4042
800.6500, 421.3848
801.1321, 421.3228
801.6143, 420.4248
802.0964, 419.6159
802.5785, 418.9607
803.0606, 418.7572
803.5427, 419.7552
804.0248, 421.1013
804.5070, 421.7904
804.9891, 421.3417
805.4712, 421.1491
805.9533, 421.8148
806.4354, 422.6221
806.9175, 423.1550
807.3997, 423.5327
807.8818, 422.9286
808.3639, 421.0652
808.8460, 419.2307
809.3281, 418.9125
809.8102, 419.6595
810.2924, 420.4749
810.7745, 421.2848
811.2566, 421.6087
811.7387, 420.3848
812.2208, 418.9571
812.7029, 418.6111
813.1851, 420.0602
813.6672, 421.1794
814.1493, 421.7947
814.6314, 422.1373
815.1135, 422.3499
815.5956, 422.4276
816.0778, 422.4713
816.5599, 422.4875
817.0420, 422.4381
817.5241, 422.1547
818.0062, 421.8325
818.4883, 421.8586
818.9705, 422.3433
819.4526, 422.6453
819.9347, 421.8777
820.4168, 421.2349
820.8989, 421.8512
821.3810, 424.3379
821.8632, 425.4359
822.3453, 424.6989
822.8274, 423.5522
823.3095, 423.2473
823.7916, 423.5770
824.2737, 423.3603
824.7559, 422.5375
825.2380, 421.6666
825.7201, 420.8651
826.2022, 420.4545
826.6843, 420.9821
827.1664, 422.6435
827.6486, 423.8991
828.1307, 424.2755
828.6128, 424.2662
829.0949, 423.9850
829.5770, 423.3911
830.0591, 423.2619
830.5413, 423.6661
831.0234, 424.1229
831.5055, 424.4242
831.9876, 424.4774
832.4697, 423.7378
832.9518, 422.2984
833.4340, 421.5708
833.9161, 423.1544
834.3982, 425.0746
834.8803, 426.1562
835.3624, 426.2514
835.8445, 426.0226
836.3267, 425.2873
836.8088, 424.5830
837.2909, 424.1183
837.7730, 423.9072
838.2551, 424.2650
838.7372, 425.1367
839.2194, 425.5827
839.7015, 424.1888
840.1836, 422.6731
840.6657, 423.0702
841.1478, 425.0861
841.6299, 426.6272
842.1121, 426.9638
842.5942, 426.7332
843.0763, 425.7549
843.5584, 424.3443
844.0405, 424.6165
844.5226, 426.8686
845.0048, 428.6049
845.4869, 428.5323
845.9690, 427.4149
846.4511, 426.4774
846.9332, 425.7459
847.4153, 425.3329
847.8975, 425.4200
848.3796, 425.7054
848.8617, 426.2224
849.3438, 426.8339
849.8259, 427.0935
850.3080, 426.8578
850.7902, 426.5928
851.2723, 426.4033
851.7544, 426.2560
852.2365, 425.9764
852.7186, 425.6322
853.2007, 425.6328
853.6829, 426.3155
854.1650, 427.0887
854.6471, 427.6089
855.1292, 427.8248
855.6113, 427.6488
856.0934, 426.3115
856.5756, 425.5868
857.0577, 425.8997
857.5398, 426.7064
858.0219, 427.2699
858.5040, 427.5807
858.9861, 427.7351
859.4683, 427.7001
859.9504, 427.6848
860.4325, 427.8288
860.9146, 428.2042
861.3967, 429.1323
861.8788, 431.2817
862.3610, 432.3499
862.8431, 430.0565
863.3252, 427.1734
863.8073, 426.4369
864.2894, 428.9393
864.7715, 430.1045
865.2537, 429.5987
865.7358, 428.6323
866.2179, 428.2938
866.7000, 428.4643
867.1821, 428.9610
867.6642, 429.7963
868.1464, 430.3246
868.6285, 429.9350
869.1106, 429.2147
869.5927, 428.5216
870.0748, 427.8291
870.5569, 427.5915
871.0391, 427.9879
871.5212, 428.4969
872.0033, 428.7755
872.4854, 428.8733
872.9675, 429.2522
873.4496, 429.8881
873.9318, 430.4276
874.4139, 430.5976
874.8960, 430.5791
875.3781, 430.5559
875.8602, 430.5069
876.3423, 430.2393
876.8245, 429.2744
877.3066, 428.6056
877.7887, 428.5223
878.2708, 428.9435
878.7529, 429.6414
879.2350, 430.6190
879.7172, 431.4524
880.1993, 431.9531
880.6814, 432.2143
881.1635, 432.1962
881.6456, 432.0405
882.1277, 432.0732
882.6099, 433.0604
883.0920, 433.4840
883.5741, 432.4580
884.0562, 430.8481
884.5383, 430.0022
885.0204, 430.0193
885.5026, 430.2174
885.9847, 430.5404
886.4668, 430.8097
886.9489, 430.4673
887.4310, 429.9443
887.9131, 430.3165
888.3953, 432.4103
888.8774, 433.7849
889.3595, 432.4841
889.8416, 430.4931
890.3237, 429.7972
890.8058, 431.1569
891.2880, 431.5713
891.7701, 430.7890
892.2522, 429.8257
892.7343, 429.7892
893.2164, 430.2717
893.6985, 429.9493
894.1807, 428.7375
894.6628, 427.9812
895.1449, 428.9459
895.6270, 430.3410
896.1091, 431.3635
896.5912, 431.9218
897.0734, 432.4160
897.5555, 432.9510
898.0376, 433.1291
898.5197, 432.5090
899.0018, 431.4594
899.4839, 431.5214
899.9661, 432.4946
900.4482, 433.2067
900.9303, 432.3869
901.4124, 431.6860
901.8945, 432.5686
902.3766, 434.4933
902.8588, 435.6245
903.3409, 435.4603
903.8230, 435.1295
904.3051, 434.8876
904.7872, 434.5197
905.2693, 433.2486
905.7515, 431.3164
906.2336, 430.1958
906.7157, 430.3972
907.1978, 431.2053
907.6799, 432.3298
908.1620, 433.5506
908.6442, 434.6381
909.1263, 435.8090
909.6084, 436.2785
910.0905, 435.7744
910.5726, 434.9453
911.0547, 434.3082
911.5369, 433.8644
912.0190, 433.6387
912.5011, 433.6473
912.9832, 433.5221
913.4653, 432.5652
913.9474, 431.6012
914.4296, 431.5202
914.9117, 432.4378
915.3938, 433.2531
915.8759, 433.7615
916.3580, 434.2031
916.8401, 434.8111
917.3223, 435.4270
917.8044, 434.7362
918.2865, 432.8571
918.7686, 431.7228
919.2507, 433.4054
919.7328, 435.4117
920.2150, 434.8572
920.6971, 432.7124
921.1792, 431.3785
921.6613, 432.3176
922.1434, 433.0378
922.6255, 433.0469
923.1077, 432.8006
923.5898, 433.1866
924.0719, 434.1557
924.5540, 434.9088
925.0361, 435.3412
925.5182, 435.2853
926.0004, 433.7858
926.4825, 432.0797
926.9646, 431.8333
927.4467, 434.1529
927.9288, 435.6089
928.4109, 435.5002
928.8931, 434.8793
929.3752, 434.2221
929.8573, 433.5446
930.3394, 434.0645
930.8215, 435.7802
931.3036, 437.2164
931.7858, 437.1392
932.2679, 436.3799
932.7500, 435.4735
933.2321, 434.5580
933.7142, 434.1862
934.1964, 435.3953
934.6785, 435.9011
935.1606, 434.7527
935.6427, 432.7229
936.1248, 432.3456
936.6069, 433.4760
937.0891, 434.3836
937.5712, 434.4884
938.0533, 434.1515
938.5354, 433.0700
939.0175, 431.9885
939.4996, 432.0284
939.9818, 435.4545
940.4639, 436.8312
940.9460, 434.7305
941.4281, 432.2472
941.9102, 433.2169
942.3923, 437.0973
942.8745, 438.4770
943.3566, 436.9160
943.8387, 434.9322
944.3208, 434.2941
944.8029, 434.3717
945.2850, 434.7725
945.7672, 435.4659
946.2493, 436.0663
946.7314, 436.6808
947.2135, 436.9402
947.6956, 436.5404
948.1777, 435.7494
948.6599, 435.5198
949.1420, 435.8076
949.6241, 436.4029
950.1062, 437.7254
950.5883, 438.7058
951.0704, 438.1910
951.5526, 436.9068
952.0347, 436.2657
952.5168, 436.7646
952.9989, 437.1302
953.4810, 437.2862
953.9631, 437.2513
954.4453, 436.9985
954.9274, 436.5718
955.4095, 435.9432
955.8916, 435.0593
956.3737, 434.7973
956.8558, 436.3834
957.3380, 438.3144
957.8201, 439.4334
958.3022, 439.6256
958.7843, 440.0668
959.2664, 441.0169
959.7485, 441.3446
960.2307, 440.1077
960.7128, 438.1256
961.1949, 437.4074
961.6770, 437.6682
962.1591, 437.9108
962.6412, 437.7707
963.1234, 437.4123
963.6055, 436.4980
964.0876, 435.5757
964.5697, 435.6033
965.0518, 436.8098
965.5339, 438.0856
966.0161, 439.4843
966.4982, 440.2490
966.9803, 438.6597
967.4624, 436.1217
967.9445, 435.1774
968.4266, 436.3867
968.9088, 437.5792
969.3909, 438.1357
969.8730, 438.2422
970.3551, 437.8531
970.8372, 437.0191
971.3193, 436.6182
971.8015, 436.6481
972.2836, 437.1220
972.7657, 438.4185
973.2478, 439.8318
973.7299, 440.6533
974.2120, 440.9249
974.6942, 440.7681
975.1763, 439.6892
975.6584, 438.9008
976.1405, 438.5819
976.6226, 438.5855
977.1047, 438.8204
977.5869, 439.2477
978.0690, 439.3427
978.5511, 438.9969
979.0332, 438.6596
979.5153, 438.4315
979.9974, 438.5780
980.4796, 439.6223
980.9617, 441.8286
981.4438, 442.9203
981.9259, 442.5122
982.4080, 441.6661
982.8901, 440.5872
983.3723, 439.5676
983.8544, 439.7614
984.3365, 440.9043
984.8186, 441.9016
985.3007, 442.1627
985.7828, 442.1994
986.2650, 442.0816
986.7471, 441.9581
987.2292, 442.0961
987.7113, 442.6119
988.1934, 442.9257
988.6755, 442.9459
989.1577, 442.9078
989.6398, 443.1797
990.1219, 443.5291
990.6040, 443.5651
991.0861, 443.2430
991.5682, 442.7195
992.0504, 441.8701
992.5325, 441.0236
993.0146, 440.1960
993.4967, 439.4995
993.9788, 439.7220
994.4609, 440.8657
994.9431, 441.5202
995.4252, 440.8062
995.9073, 439.8179
996.3894, 439.6558
996.8715, 440.0678
997.3536, 440.6340
997.8358, 441.9753
998.3179, 442.2477
998.8000, 440.8245
999.2821, 439.2466
999.7642, 439.1559
1000.246, 440.2621
1000.728, 440.9490
1001.211, 441.1520
1001.693, 441.4267
1002.175, 442.2704
1002.657, 443.1898
1003.139, 443.7563
1003.621, 444.0555
1004.103, 444.8604
1004.585, 446.4887
1005.068, 447.3251
1005.550, 446.6756
1006.032, 445.5264
1006.514, 445.4081
1006.996, 445.9985
1007.478, 446.7285
1007.960, 447.7016
1008.442, 448.1294
1008.924, 446.9843
1009.407, 445.9043
1009.889, 446.1454
1010.371, 447.7780
1010.853, 448.6982
1011.335, 448.9116
1011.817, 448.4313
1012.299, 445.6605
1012.781, 443.5449
1013.263, 446.4035
1013.746, 452.3896
1014.228, 454.7520
1014.710, 449.5909
1015.192, 446.3749
1015.674, 447.0175
1016.156, 449.2709
1016.638, 449.7900
1017.120, 449.0810
1017.603, 448.7377
1018.085, 449.0668
1018.567, 449.4127
1019.049, 449.6493
1019.531, 449.5201
1020.013, 448.5155
1020.495, 446.7156
1020.977, 446.5671
1021.459, 448.2846
1021.942, 449.7378
1022.424, 449.7503
1022.906, 449.1745
1023.388, 449.1232
1023.870, 449.3849
1024.352, 449.5429
1024.834, 449.3441
1025.316, 449.2370
1025.799, 449.3410
1026.281, 449.4540
1026.763, 449.1758
1027.245, 448.6605
1027.727, 449.1585
1028.209, 450.6866
1028.691, 451.8427
1029.173, 451.1202
1029.656, 450.1910
1030.138, 450.4989
1030.620, 451.6813
1031.102, 451.4896
1031.584, 449.3568
1032.066, 448.1855
1032.548, 448.8965
1033.030, 450.3457
1033.512, 450.9106
1033.995, 450.9922
1034.477, 451.3011
1034.959, 452.1001
1035.441, 452.6985
1035.923, 452.5380
1036.405, 452.5951
1036.887, 453.6074
1037.369, 455.3890
1037.851, 456.3564
1038.334, 456.5318
1038.816, 456.2309
1039.298, 454.9458
1039.780, 453.9390
1040.262, 453.9947
1040.744, 454.9606
1041.226, 456.5693
1041.708, 459.2055
1042.191, 461.3275
1042.673, 462.8786
1043.155, 463.8359
1043.637, 464.0312
1044.119, 463.6947
1044.601, 462.7247
1045.083, 461.2274
1045.565, 461.2333
1046.047, 464.9709
1046.530, 468.5513
1047.012, 470.6532
1047.494, 471.8029
1047.976, 473.4527
1048.458, 475.5498
1048.940, 477.4442
1049.422, 478.8567
1049.904, 480.3913
1050.386, 482.7578
1050.869, 485.3381
1051.351, 487.4181
1051.833, 488.8031
1052.315, 490.7887
1052.797, 493.5162
1053.279, 496.2084
1053.761, 498.3924
1054.243, 500.3158
1054.726, 502.2884
1055.208, 504.3678
1055.690, 506.7121
1056.172, 510.0083
1056.654, 512.6812
1057.136, 514.4706
1057.618, 515.7064
1058.100, 516.9323
1058.583, 518.0106
1059.065, 517.9686
1059.547, 516.7445
1060.029, 514.8176
1060.511, 512.5413
1060.993, 509.7061
1061.475, 505.9286
1061.957, 501.4497
1062.439, 497.2827
1062.922, 493.5145
1063.404, 489.4012
1063.886, 484.5808
1064.368, 479.9718
1064.850, 476.8465
1065.332, 474.5290
1065.814, 472.1659
1066.296, 469.6729
1066.778, 466.8112
1067.261, 462.9818
1067.743, 459.8466
1068.225, 458.4201
1068.707, 458.2346
1069.189, 458.0147
1069.671, 457.7331
1070.153, 457.2890
1070.635, 456.6456
1071.118, 455.8260
1071.600, 454.4177
1072.082, 453.1494
1072.564, 452.9861
1073.046, 454.0938
1073.528, 453.8670
1074.010, 452.1688
1074.492, 451.0335
1074.974, 452.5157
1075.457, 454.8493
1075.939, 457.0616
1076.421, 458.8135
1076.903, 458.9904
1077.385, 456.9445
1077.867, 454.9652
1078.349, 453.2625
1078.831, 452.2212
1079.313, 453.0030
1079.796, 454.5684
1080.278, 454.7426
1080.760, 453.1261
1081.242, 452.3820
1081.724, 454.6666
1082.206, 456.4814
1082.688, 456.3982
1083.170, 455.0573
1083.652, 454.3900
1084.135, 454.3163
1084.617, 454.5111
1085.099, 455.0316
1085.581, 455.3829
1086.063, 455.0492
1086.545, 454.5712
1087.027, 454.5187
1087.509, 454.9913
1087.992, 454.9977
1088.474, 454.5367
1088.956, 453.7137
1089.438, 452.2480
1089.920, 450.7495
1090.402, 449.7237
1090.884, 449.1504
1091.366, 449.0238
1091.849, 449.5767
1092.331, 449.9899
1092.813, 450.0706
1093.295, 450.3821
1093.777, 452.1683
1094.259, 454.3305
1094.741, 454.1960
1095.223, 451.9894
1095.705, 450.3070
1096.188, 450.5124
1096.670, 451.0877
1097.152, 451.9434
1097.634, 452.6527
1098.116, 452.3252
1098.598, 451.1206
1099.080, 449.6596
1099.562, 447.9486
1100.044, 447.1235
1100.527, 448.7832
1101.009, 450.8376
1101.491, 451.9632
1101.973, 452.2495
1102.455, 452.0576
1102.937, 451.3540
1103.419, 451.0355
1103.901, 451.4873
1104.384, 452.2090
1104.866, 452.9497
1105.348, 453.5056
1105.830, 453.5703
1106.312, 452.9353
1106.794, 452.4790
1107.276, 452.1880
1107.758, 452.1169
1108.240, 452.4342
1108.723, 452.8746
1109.205, 452.9515
1109.687, 452.7893
1110.169, 452.6750
1110.651, 452.6934
1111.133, 452.7957
1111.615, 452.9997
1112.097, 453.2557
1112.579, 453.4908
1113.062, 453.7455
1113.544, 454.3803
1114.026, 455.2794
1114.508, 455.6098
1114.990, 454.0800
1115.472, 452.9333
1115.954, 452.7881
1116.436, 453.6172
1116.919, 456.1440
1117.401, 460.1526
1117.883, 461.6029
1118.365, 459.9845
1118.847, 457.5817
1119.329, 455.3283
1119.811, 453.5896
1120.293, 452.6137
1120.776, 452.3848
1121.258, 453.1556
1121.740, 455.1254
1122.222, 456.0872
1122.704, 455.3434
1123.186, 454.2047
1123.668, 453.7122
1124.150, 453.7793
1124.632, 454.6410
1125.115, 456.4980
1125.597, 456.7240
1126.079, 454.6148
1126.561, 453.2294
1127.043, 454.0815
1127.525, 455.7952
1128.007, 456.2639
1128.489, 455.9184
1128.971, 455.4005
1129.454, 454.5812
1129.936, 454.5245
1130.418, 455.8905
1130.900, 456.8562
1131.382, 455.8386
1131.864, 453.8422
1132.346, 454.2089
1132.828, 456.1894
1133.311, 457.4112
1133.793, 455.9725
1134.275, 454.9563
1134.757, 455.2733
1135.239, 455.9748
1135.721, 456.2385
1136.203, 456.1353
1136.685, 456.3242
1137.167, 456.7766
1137.650, 457.1390
1138.132, 457.2746
1138.614, 457.1993
1139.096, 456.8062
1139.578, 456.2642
1140.060, 455.5769
1140.542, 454.7247
1141.024, 455.4904
1141.506, 458.0545
1141.989, 459.9316
1142.471, 458.4174
1142.953, 456.3430
1143.435, 455.5218
1143.917, 455.8361
1144.399, 456.7302
1144.881, 458.3861
1145.363, 459.1777
1145.846, 458.7739
1146.328, 457.7592
1146.810, 456.0785
1147.292, 454.5473
1147.774, 454.0057
1148.256, 454.5406
1148.738, 455.2794
1149.220, 456.2510
1149.703, 457.2716
1150.185, 458.3478
1150.667, 459.2814
1151.149, 459.8823
1151.631, 460.1472
1152.113, 459.9557
1152.595, 459.1794
1153.077, 458.8268
1153.559, 459.0898
1154.042, 459.3876
1154.524, 459.4487
1155.006, 459.4612
1155.488, 459.9921
1155.970, 460.6786
1156.452, 460.6765
1156.934, 459.2793
1157.416, 458.8184
1157.898, 459.9988
1158.381, 461.2516
1158.863, 461.8878
1159.345, 461.8676
1159.827, 460.6113
1160.309, 458.6192
1160.791, 457.2817
1161.273, 457.4188
1161.755, 457.7219
1162.238, 457.9697
1162.720, 458.2534
1163.202, 458.6993
1163.684, 459.2516
1164.166, 459.6519
1164.648, 459.8880
1165.130, 459.8866
1165.612, 459.3494
1166.094, 458.8929
1166.577, 458.6994
1167.059, 458.6586
1167.541, 458.5238
1168.023, 458.3754
1168.505, 459.4318
1168.987, 461.5146
1169.469, 462.8424
1169.951, 461.4452
1170.433, 460.1176
1170.916, 460.4433
1171.398, 461.3458
1171.880, 461.3140
1172.362, 460.4262
1172.844, 460.2939
1173.326, 461.0278
1173.808, 461.8739
1174.290, 462.5289
1174.773, 462.9275
1175.255, 463.0049
1175.737, 462.8116
1176.219, 462.2970
1176.701, 461.4574
1177.183, 460.9127
1177.665, 460.7379
1178.147, 460.8749
1178.630, 461.5992
1179.112, 462.3170
1179.594, 462.6228
1180.076, 462.5674
1180.558, 462.3079
1181.040, 461.8297
1181.522, 461.1909
1182.004, 460.2965
1182.486, 459.9545
1182.969, 461.7874
1183.451, 463.7216
1183.933, 463.7134
1184.415, 462.0622
1184.897, 461.2802
1185.379, 461.4064
1185.861, 461.9694
1186.343, 462.9602
1186.825, 463.8652
1187.308, 464.2856
1187.790, 464.3074
1188.272, 463.8659
1188.754, 463.0038
1189.236, 462.4305
1189.718, 462.1861
1190.200, 461.9300
1190.682, 461.4488
1191.165, 461.2399
1191.647, 462.2565
1192.129, 463.5595
1192.611, 464.1042
1193.093, 463.7502
1193.575, 463.1880
1194.057, 462.3375
1194.539, 461.8524
1195.021, 462.1512
1195.504, 462.5613
1195.986, 461.9039
1196.468, 461.1163
1196.950, 461.5884
1197.432, 463.7084
1197.914, 465.1161
1198.396, 465.7377
1198.878, 466.1167
1199.360, 466.4919
1199.843, 466.7753
1200.325, 466.7929
1200.807, 466.6867
1201.289, 466.6848
1201.771, 466.8969
1202.253, 466.7724
1202.735, 466.2296
1203.217, 465.9462
1203.700, 466.5894
1204.182, 467.3484
1204.664, 466.9670
1205.146, 466.1897
1205.628, 466.3289
1206.110, 468.0108
1206.592, 468.7784
1207.074, 468.4990
1207.557, 468.1539
1208.039, 468.6382
1208.521, 469.1156
1209.003, 468.2670
1209.485, 466.8542
1209.967, 466.3544
1210.449, 467.2824
1210.931, 468.0067
1211.413, 468.5895
1211.896, 468.5542
1212.378, 466.8167
1212.860, 464.9539
1213.342, 464.6977
1213.824, 465.5839
1214.306, 466.7813
1214.788, 468.5332
1215.270, 469.3685
1215.752, 469.1747
1216.235, 468.7455
1216.717, 468.6510
1217.199, 468.6255
1217.681, 468.2687
1218.163, 467.8099
1218.645, 467.8660
1219.127, 468.7822
1219.609, 468.7279
1220.092, 467.5074
1220.574, 466.4790
1221.056, 466.8947
1221.538, 467.8305
1222.020, 468.7991
1222.502, 469.5221
1222.984, 469.4141
1223.466, 468.2282
1223.948, 467.3506
1224.431, 466.8549
1224.913, 466.7550
1225.395, 467.1930
1225.877, 467.9079
1226.359, 468.9570
1226.841, 470.0463
1227.323, 470.5005
1227.805, 470.2136
1228.287, 470.0512
1228.770, 470.0852
1229.252, 470.0439
1229.734, 469.2648
1230.216, 468.7599
1230.698, 469.7648
1231.180, 471.4676
1231.662, 471.9131
1232.144, 470.9827
1232.627, 470.4370
1233.109, 470.4248
1233.591, 470.6032
1234.073, 471.0598
1234.555, 471.2704
1235.037, 470.8026
1235.519, 469.8776
1236.001, 468.6281
1236.484, 467.0666
1236.966, 466.9684
1237.448, 468.4911
1237.930, 470.2085
1238.412, 471.8901
1238.894, 472.6981
1239.376, 471.3042
1239.858, 469.1820
1240.340, 468.9100
1240.823, 470.2812
1241.305, 470.7187
1241.787, 470.0159
1242.269, 469.5977
1242.751, 470.5548
1243.233, 471.8026
1243.715, 473.2420
1244.197, 474.3570
1244.679, 474.0198
1245.162, 472.5663
1245.644, 471.8987
1246.126, 472.1306
1246.608, 472.2227
1247.090, 471.3144
1247.572, 470.5569
1248.054, 470.2084
1248.536, 470.2943
1249.019, 470.9727
1249.501, 472.1048
1249.983, 473.5478
1250.465, 475.1808
1250.947, 475.9984
1251.429, 474.4244
1251.911, 473.6033
1252.393, 474.3872
1252.875, 475.7836
1253.358, 476.5733
1253.840, 476.9194
1254.322, 477.2584
1254.804, 477.5819
1255.286, 477.4613
1255.768, 476.4064
1256.250, 475.5502
1256.732, 475.0853
1257.214, 474.8399
1257.697, 474.6490
1258.179, 474.5167
1258.661, 474.2988
1259.143, 474.0863
1259.625, 474.6048
1260.107, 476.4889
1260.589, 477.5191
1261.071, 477.2622
1261.554, 476.5998
1262.036, 476.3727
1262.518, 476.3407
1263.000, 476.3906
1263.482, 476.3887
1263.964, 475.7125
1264.446, 473.9628
1264.928, 473.3108
1265.411, 474.1112
1265.893, 475.3569
1266.375, 476.5818
1266.857, 477.4657
1267.339, 477.4721
1267.821, 476.9246
1268.303, 476.7990
1268.785, 477.0983
1269.267, 477.8913
1269.750, 479.2066
1270.232, 480.2528
1270.714, 480.4080
1271.196, 480.1500
1271.678, 479.5291
1272.160, 478.8230
1272.642, 478.4810
1273.124, 478.4819
1273.606, 478.5878
1274.089, 478.7538
1274.571, 478.5519
1275.053, 477.2015
1275.535, 476.0974
1276.017, 475.7693
1276.499, 475.9006
1276.981, 476.2362
1277.463, 476.6681
1277.946, 476.6608
1278.428, 476.2676
1278.910, 476.1081
1279.392, 476.7834
1279.874, 477.1879
1280.356, 476.8690
1280.838, 476.7272
1281.320, 478.4433
1281.802, 480.7662
1282.285, 480.6525
1282.767, 478.6085
1283.249, 477.4018
1283.731, 478.6582
1284.213, 478.8071
1284.695, 477.2517
1285.177, 475.8183
1285.659, 476.5201
1286.141, 478.0614
1286.624, 478.9955
1287.106, 479.3779
1287.588, 479.5513
1288.070, 479.7427
1288.552, 478.7611
1289.034, 476.4015
1289.516, 474.6669
1289.998, 475.5178
1290.481, 477.1825
1290.963, 478.8200
1291.445, 479.9981
1291.927, 479.9877
1292.409, 478.6718
1292.891, 478.2918
1293.373, 478.8355
1293.855, 479.2809
1294.338, 478.5171
1294.820, 478.1064
1295.302, 479.1532
1295.784, 480.5976
1296.266, 481.6667
1296.748, 482.3555
1297.230, 482.1628
1297.712, 481.4515
1298.194, 481.6962
1298.677, 485.0557
1299.159, 486.8006
1299.641, 485.5376
1300.123, 484.0255
1300.605, 484.7733
1301.087, 486.5211
1301.569, 485.6754
1302.051, 483.3618
1302.533, 482.1529
1303.016, 482.2900
##END=



