##NAMES=Westerveldite
##RRUFFID=R060507
##IDEAL CHEMISTRY=FeAs
##LOCALITY=Kvanefjeld, Ilimaussaq, Greenland
##OWNER=RRUFF
##SOURCE=Michael Scott
##DESCRIPTION=Metallic silver massive, associated with elongated dark-green diopside.
##STATUS=The identification of this mineral has been confirmed by single-crystal X-ray diffraction.
##URL=rruff.info/R060507
126.831, 683.392
127.313, 718.833
127.796, 756.951
128.278, 799.134
128.760, 849.882
129.242, 916.069
129.724, 1004.566
130.206, 1084.957
130.688, 1145.371
131.170, 1208.225
131.652, 1297.931
132.135, 1411.457
132.617, 1515.508
133.099, 1559.547
133.581, 1494.318
134.063, 1475.374
134.545, 1544.009
135.027, 1623.458
135.509, 1660.686
135.992, 1643.031
136.474, 1591.038
136.956, 1537.667
137.438, 1480.545
137.920, 1426.309
138.402, 1368.581
138.884, 1316.559
139.366, 1281.318
139.848, 1266.307
140.331, 1261.975
140.813, 1248.958
141.295, 1208.785
141.777, 1183.054
142.259, 1176.071
142.741, 1182.789
143.223, 1196.781
143.705, 1215.282
144.188, 1241.422
144.670, 1285.000
145.152, 1370.095
145.634, 1440.871
146.116, 1479.748
146.598, 1501.694
147.080, 1508.686
147.562, 1543.264
148.044, 1594.319
148.527, 1641.382
149.009, 1684.653
149.491, 1712.803
149.973, 1760.478
150.455, 1800.328
150.937, 1839.858
151.419, 1885.981
151.901, 1903.536
152.383, 1918.677
152.866, 1928.710
153.348, 1939.942
153.830, 1960.682
154.312, 1985.719
154.794, 1999.760
155.276, 1994.264
155.758, 1971.286
156.240, 1942.137
156.723, 1897.354
157.205, 1856.815
157.687, 1834.098
158.169, 1826.004
158.651, 1817.181
159.133, 1797.587
159.615, 1771.791
160.097, 1755.356
160.579, 1756.306
161.062, 1758.484
161.544, 1751.397
162.026, 1735.714
162.508, 1717.127
162.990, 1697.539
163.472, 1677.606
163.954, 1658.979
164.436, 1638.750
164.919, 1622.498
165.401, 1616.343
165.883, 1620.025
166.365, 1625.438
166.847, 1627.134
167.329, 1627.588
167.811, 1633.003
168.293, 1654.185
168.775, 1672.177
169.258, 1661.033
169.740, 1619.095
170.222, 1588.369
170.704, 1607.702
171.186, 1652.327
171.668, 1672.665
172.150, 1643.923
172.632, 1601.779
173.115, 1594.611
173.597, 1628.602
174.079, 1639.087
174.561, 1548.378
175.043, 1530.035
175.525, 1561.353
176.007, 1580.617
176.489, 1588.473
176.971, 1550.758
177.454, 1571.091
177.936, 1566.205
178.418, 1547.438
178.900, 1521.643
179.382, 1497.897
179.864, 1475.878
180.346, 1458.904
180.828, 1453.271
181.311, 1460.962
181.793, 1470.073
182.275, 1476.484
182.757, 1479.633
183.239, 1477.507
183.721, 1466.755
184.203, 1452.842
184.685, 1442.652
185.167, 1436.158
185.650, 1433.508
186.132, 1440.563
186.614, 1450.226
187.096, 1452.393
187.578, 1437.828
188.060, 1420.544
188.542, 1424.984
189.024, 1457.931
189.507, 1485.158
189.989, 1469.603
190.471, 1443.505
190.953, 1429.322
191.435, 1441.647
191.917, 1447.538
192.399, 1447.339
192.881, 1422.815
193.363, 1429.703
193.846, 1424.002
194.328, 1417.785
194.810, 1429.094
195.292, 1408.108
195.774, 1419.139
196.256, 1417.389
196.738, 1421.489
197.220, 1410.306
197.702, 1387.447
198.185, 1361.710
198.667, 1346.207
199.149, 1347.041
199.631, 1355.160
200.113, 1358.278
200.595, 1355.294
201.077, 1352.575
201.559, 1351.149
202.042, 1352.068
202.524, 1358.292
203.006, 1373.472
203.488, 1388.090
203.970, 1389.567
204.452, 1376.480
204.934, 1358.783
205.416, 1332.632
205.898, 1307.203
206.381, 1292.759
206.863, 1293.736
207.345, 1299.760
207.827, 1298.018
208.309, 1287.305
208.791, 1279.123
209.273, 1281.169
209.755, 1285.777
210.238, 1286.501
210.720, 1282.484
211.202, 1273.508
211.684, 1255.400
212.166, 1227.195
212.648, 1207.505
213.130, 1209.439
213.612, 1218.581
214.094, 1218.556
214.577, 1204.705
215.059, 1196.435
215.541, 1182.268
216.023, 1189.432
216.505, 1191.418
216.987, 1188.505
217.469, 1166.018
217.951, 1168.807
218.434, 1161.465
218.916, 1153.709
219.398, 1160.055
219.880, 1140.415
220.362, 1145.154
220.844, 1141.782
221.326, 1134.479
221.808, 1127.814
222.290, 1121.889
222.773, 1116.290
223.255, 1112.987
223.737, 1110.675
224.219, 1100.631
224.701, 1074.903
225.183, 1048.979
225.665, 1038.138
226.147, 1041.816
226.629, 1047.865
227.112, 1049.858
227.594, 1048.943
228.076, 1050.238
228.558, 1058.147
229.040, 1061.655
229.522, 1044.421
230.004, 1009.964
230.486, 985.295
230.969, 992.075
231.451, 1015.783
231.933, 1023.476
232.415, 1007.358
232.897, 985.076
233.379, 971.756
233.861, 965.518
234.343, 960.857
234.825, 954.085
235.307, 948.547
235.790, 952.893
236.272, 970.700
236.754, 983.550
237.236, 969.819
237.718, 937.287
238.200, 912.588
238.682, 902.913
239.165, 902.626
239.647, 909.925
240.129, 925.270
240.611, 934.715
241.093, 923.846
241.575, 898.568
242.057, 883.267
242.539, 887.473
243.021, 896.478
243.503, 899.215
243.986, 896.008
244.468, 891.243
244.950, 886.614
245.432, 882.640
245.914, 880.750
246.396, 884.670
246.878, 886.855
247.361, 880.805
247.843, 868.940
248.325, 860.412
248.807, 860.644
249.289, 866.263
249.771, 866.916
250.253, 859.385
250.735, 852.501
251.217, 849.723
251.699, 849.800
252.182, 851.011
252.664, 853.284
253.146, 854.618
253.628, 849.565
254.110, 833.542
254.592, 821.304
255.074, 817.023
255.556, 817.579
256.039, 819.446
256.521, 821.619
257.003, 823.968
257.485, 826.443
257.967, 829.735
258.449, 831.374
258.931, 830.825
259.413, 828.853
259.896, 825.653
260.378, 821.419
260.860, 817.327
261.342, 815.193
261.824, 816.898
262.306, 812.618
262.788, 794.380
263.270, 777.349
263.752, 773.051
264.235, 779.933
264.717, 786.161
265.199, 780.195
265.681, 760.165
266.163, 751.893
266.645, 766.378
267.127, 779.784
267.609, 782.446
268.091, 776.994
268.574, 770.589
269.056, 767.955
269.538, 768.692
270.020, 769.310
270.502, 770.297
270.984, 770.597
271.466, 768.128
271.948, 765.384
272.431, 767.333
272.913, 776.947
273.395, 788.967
273.877, 787.348
274.359, 759.135
274.841, 738.356
275.323, 731.972
275.805, 732.484
276.288, 733.539
276.770, 733.066
277.252, 732.425
277.734, 734.745
278.216, 742.693
278.698, 745.268
279.180, 735.401
279.662, 724.290
280.144, 718.656
280.626, 719.205
281.109, 721.842
281.591, 723.286
282.073, 723.593
282.555, 721.225
283.037, 711.655
283.519, 703.962
284.001, 703.766
284.483, 709.779
284.966, 716.676
285.448, 722.979
285.930, 727.756
286.412, 726.289
286.894, 717.060
287.376, 704.133
287.858, 684.658
288.340, 668.832
288.823, 687.507
289.305, 697.807
289.787, 700.183
290.269, 670.897
290.751, 682.495
291.233, 677.709
291.715, 672.251
292.197, 689.603
292.679, 664.923
293.162, 681.913
293.644, 682.269
294.126, 690.239
294.608, 681.722
295.090, 678.298
295.572, 691.364
296.054, 695.300
296.536, 684.886
297.018, 676.052
297.501, 675.531
297.983, 684.042
298.465, 695.995
298.947, 699.768
299.429, 691.533
299.911, 679.374
300.393, 674.187
300.875, 677.586
301.358, 678.700
301.840, 671.023
302.322, 663.947
302.804, 669.400
303.286, 687.092
303.768, 702.776
304.250, 703.099
304.732, 686.596
305.215, 674.861
305.697, 667.047
306.179, 664.035
306.661, 670.622
307.143, 682.532
307.625, 689.187
308.107, 683.346
308.589, 668.313
309.071, 661.513
309.553, 674.702
310.036, 682.662
310.518, 679.503
311.000, 670.905
311.482, 662.378
311.964, 656.110
312.446, 653.012
312.928, 656.245
313.410, 673.459
313.893, 680.299
314.375, 665.591
314.857, 649.227
315.339, 645.470
315.821, 655.094
316.303, 667.835
316.785, 671.973
317.267, 666.402
317.750, 666.421
318.232, 648.744
318.714, 669.149
319.196, 680.309
319.678, 682.723
320.160, 650.191
320.642, 662.784
321.124, 657.293
321.606, 651.060
322.089, 670.005
322.571, 642.555
323.053, 661.100
323.535, 661.285
324.017, 669.873
324.499, 660.265
324.981, 656.277
325.463, 670.491
325.945, 674.626
326.428, 662.924
326.910, 672.046
327.392, 652.258
327.874, 648.369
328.356, 661.088
328.838, 671.744
329.320, 669.227
329.802, 659.618
330.284, 654.082
330.767, 654.993
331.249, 659.405
331.731, 665.591
332.213, 673.939
332.695, 677.541
333.177, 669.023
333.659, 660.821
334.142, 666.120
334.624, 682.439
335.106, 693.708
335.588, 687.554
336.070, 666.287
336.552, 654.348
337.034, 654.830
337.516, 659.588
337.998, 672.375
338.480, 686.652
338.963, 692.177
339.445, 684.593
339.927, 670.326
340.409, 662.979
340.891, 667.584
341.373, 670.401
341.855, 668.637
342.337, 667.008
342.819, 670.139
343.302, 677.688
343.784, 684.426
344.266, 684.930
344.748, 678.849
345.230, 671.460
345.712, 655.787
346.194, 647.240
346.677, 655.287
347.159, 674.188
347.641, 692.924
348.123, 706.661
348.605, 715.706
349.087, 721.312
349.569, 724.341
350.051, 720.406
350.533, 698.976
351.016, 673.696
351.498, 659.755
351.980, 660.829
352.462, 667.193
352.944, 674.499
353.426, 681.623
353.908, 681.831
354.390, 669.749
354.872, 657.914
355.355, 666.207
355.837, 653.164
356.319, 670.646
356.801, 680.718
357.283, 683.778
357.765, 658.828
358.247, 670.048
358.729, 666.773
359.211, 662.903
359.694, 679.214
360.176, 658.338
360.658, 674.329
361.140, 675.603
361.622, 683.613
362.104, 677.037
362.586, 674.967
363.069, 687.486
363.551, 691.927
364.033, 683.673
364.515, 692.110
364.997, 670.725
365.479, 675.510
365.961, 691.586
366.443, 684.065
366.925, 692.769
367.408, 695.294
367.890, 669.736
368.372, 693.017
368.854, 695.177
369.336, 675.650
369.818, 697.257
370.300, 680.720
370.782, 677.798
371.264, 684.634
371.747, 681.805
372.229, 680.878
372.711, 679.527
373.193, 677.700
373.675, 676.163
374.157, 676.425
374.639, 676.010
375.121, 670.989
375.603, 660.340
376.086, 652.347
376.568, 650.463
377.050, 654.373
377.532, 665.859
378.014, 686.285
378.496, 705.722
378.978, 716.009
379.460, 716.292
379.943, 709.648
380.425, 683.989
380.907, 662.654
381.389, 662.709
381.871, 678.093
382.353, 685.065
382.835, 667.654
383.317, 647.461
383.799, 632.643
384.282, 661.793
384.764, 680.270
385.246, 688.648
385.728, 656.677
386.210, 676.810
386.692, 676.060
387.174, 674.455
387.656, 701.919
388.138, 675.818
388.621, 702.821
389.103, 704.744
389.585, 711.919
390.067, 705.656
390.549, 690.653
391.031, 678.052
391.513, 672.267
391.996, 672.704
392.478, 680.739
392.960, 697.740
393.442, 711.138
393.924, 717.393
394.406, 717.454
394.888, 712.058
395.370, 700.705
395.852, 688.518
396.335, 673.728
396.817, 660.926
397.299, 661.622
397.781, 678.500
398.263, 694.572
398.745, 692.874
399.227, 674.161
399.709, 670.104
400.191, 699.540
400.674, 723.983
401.156, 719.723
401.638, 698.140
402.120, 682.754
402.602, 684.132
403.084, 694.781
403.566, 698.865
404.048, 694.649
404.530, 686.223
405.013, 662.388
405.495, 643.664
405.977, 648.413
406.459, 673.256
406.941, 698.096
407.423, 705.943
407.905, 699.040
408.387, 695.255
408.870, 697.365
409.352, 697.595
409.834, 690.049
410.316, 680.305
410.798, 675.463
411.280, 677.980
411.762, 683.449
412.244, 688.712
412.727, 693.576
413.209, 696.441
413.691, 696.010
414.173, 695.201
414.655, 697.413
415.137, 702.345
415.619, 708.390
416.101, 719.490
416.583, 728.383
417.065, 725.727
417.548, 713.927
418.030, 705.671
418.512, 709.235
418.994, 720.647
419.476, 724.379
419.958, 711.491
420.440, 702.159
420.922, 699.052
421.405, 699.081
421.887, 699.081
422.369, 698.693
422.851, 700.379
423.333, 708.500
423.815, 723.825
424.297, 729.938
424.779, 720.219
425.262, 709.267
425.744, 700.179
426.226, 693.954
426.708, 692.224
427.190, 696.171
427.672, 703.372
428.154, 713.845
428.636, 727.089
429.118, 730.882
429.601, 718.005
430.083, 699.643
430.565, 687.152
431.047, 680.086
431.529, 680.320
432.011, 694.937
432.493, 712.753
432.975, 724.661
433.457, 729.774
433.940, 727.332
434.422, 715.477
434.904, 696.914
435.386, 684.143
435.868, 677.487
436.350, 676.235
436.832, 683.766
437.314, 694.776
437.797, 706.375
438.279, 716.989
438.761, 723.019
439.243, 718.547
439.725, 702.928
440.207, 695.645
440.689, 701.572
441.171, 709.652
441.654, 715.751
442.136, 721.083
442.618, 728.901
443.100, 742.549
443.582, 752.468
444.064, 744.097
444.546, 719.989
445.028, 701.521
445.510, 693.843
445.992, 693.432
446.475, 697.963
446.957, 707.138
447.439, 717.003
447.921, 733.649
448.403, 745.292
448.885, 737.319
449.367, 715.367
449.849, 699.165
450.332, 699.927
450.814, 712.711
451.296, 723.360
451.778, 732.031
452.260, 738.039
452.742, 743.585
453.224, 744.983
453.706, 735.979
454.189, 718.891
454.671, 704.615
455.153, 703.796
455.635, 713.408
456.117, 715.993
456.599, 706.918
457.081, 701.727
457.563, 710.709
458.045, 725.398
458.528, 737.765
459.010, 747.120
459.492, 751.724
459.974, 746.850
460.456, 736.813
460.938, 732.181
461.420, 735.085
461.902, 739.190
462.384, 738.603
462.867, 733.372
463.349, 731.321
463.831, 732.564
464.313, 736.539
464.795, 747.679
465.277, 759.993
465.759, 763.249
466.241, 754.230
466.724, 740.689
467.206, 734.556
467.688, 738.268
468.170, 739.577
468.652, 740.028
469.134, 736.176
469.616, 723.235
470.098, 705.360
470.581, 690.477
471.063, 681.984
471.545, 678.558
472.027, 679.969
472.509, 685.960
472.991, 691.019
473.473, 693.394
473.955, 694.554
474.437, 697.097
474.919, 701.223
475.402, 702.190
475.884, 698.764
476.366, 692.193
476.848, 679.762
477.330, 664.466
477.812, 656.438
478.294, 661.975
478.776, 674.927
479.259, 677.746
479.741, 661.604
480.223, 650.933
480.705, 651.564
481.187, 653.060
481.669, 645.900
482.151, 632.461
482.633, 624.618
483.116, 634.769
483.598, 654.039
484.080, 655.906
484.562, 636.939
485.044, 617.614
485.526, 597.528
486.008, 612.917
486.490, 619.695
486.972, 618.325
487.455, 584.400
487.937, 592.512
488.419, 583.778
488.901, 574.353
489.383, 588.382
489.865, 559.193
490.347, 572.849
490.829, 569.402
491.311, 573.783
491.794, 561.214
492.276, 553.880
492.758, 563.502
493.240, 544.877
493.722, 545.209
494.204, 558.381
494.686, 569.653
495.168, 563.582
495.651, 544.481
496.133, 535.915
496.615, 541.845
497.097, 546.408
497.579, 541.359
498.061, 531.396
498.543, 522.279
499.025, 513.952
499.508, 508.153
499.990, 508.837
500.472, 511.193
500.954, 505.319
501.436, 491.152
501.918, 482.825
502.400, 493.607
502.882, 519.773
503.364, 529.662
503.846, 504.266
504.329, 485.901
504.811, 484.079
505.293, 488.051
505.775, 488.278
506.257, 483.073
506.739, 476.079
507.221, 469.661
507.703, 464.161
508.186, 462.351
508.668, 465.389
509.150, 467.910
509.632, 452.554
510.114, 469.202
510.596, 478.082
511.078, 479.610
511.560, 451.769
512.042, 461.852
512.525, 456.737
513.007, 450.999
513.489, 466.420
513.971, 442.850
514.453, 457.936
514.935, 457.591
515.417, 464.308
515.899, 455.733
516.382, 451.882
516.864, 463.327
517.346, 466.303
517.828, 455.967
518.310, 463.133
518.792, 439.029
519.274, 442.365
519.756, 457.541
520.239, 447.974
520.721, 455.420
521.203, 440.525
521.685, 434.290
522.167, 431.215
522.649, 425.198
523.131, 413.680
523.613, 408.306
524.096, 418.086
524.578, 432.504
525.060, 442.753
525.542, 447.216
526.024, 443.797
526.506, 429.826
526.988, 409.526
527.470, 399.781
527.952, 406.147
528.435, 413.662
528.917, 425.412
529.399, 434.105
529.881, 432.288
530.363, 421.672
530.845, 412.309
531.327, 411.042
531.809, 414.643
532.291, 418.649
532.774, 423.050
533.256, 423.463
533.738, 416.750
534.220, 407.267
534.702, 401.882
535.184, 400.745
535.666, 402.120
536.148, 411.094
536.630, 417.871
537.113, 413.052
537.595, 400.784
538.077, 391.646
538.559, 391.051
539.041, 395.970
539.523, 401.913
540.005, 410.843
540.487, 411.742
540.969, 394.596
541.452, 378.916
541.934, 377.305
542.416, 385.879
542.898, 393.742
543.380, 394.989
543.862, 397.150
544.344, 413.306
544.826, 435.918
545.309, 439.871
545.791, 417.254
546.273, 389.039
546.755, 379.018
547.237, 389.209
547.719, 397.175
548.201, 403.749
548.683, 407.442
549.166, 404.321
549.648, 399.683
550.130, 401.343
550.612, 410.955
551.094, 420.288
551.576, 420.557
552.058, 412.724
552.540, 401.319
553.023, 384.092
553.505, 371.786
553.987, 371.940
554.469, 380.951
554.951, 389.995
555.433, 401.866
555.915, 407.347
556.397, 393.820
556.879, 378.671
557.362, 386.185
557.844, 412.721
558.326, 430.218
558.808, 417.514
559.290, 384.153
559.772, 365.116
560.254, 364.289
560.736, 368.595
561.218, 380.688
561.701, 393.708
562.183, 404.556
562.665, 412.774
563.147, 417.247
563.629, 393.567
564.111, 384.251
564.593, 368.251
565.075, 379.572
565.557, 384.260
566.040, 382.674
566.522, 356.019
567.004, 361.736
567.486, 354.478
567.968, 353.645
568.450, 354.764
568.932, 358.748
569.414, 363.536
569.896, 367.224
570.379, 363.921
570.861, 352.155
571.343, 347.970
571.825, 336.755
572.307, 352.512
572.789, 361.722
573.271, 364.737
573.753, 343.001
574.236, 353.226
574.718, 350.642
575.200, 347.533
575.682, 362.256
576.164, 344.120
576.646, 358.560
577.128, 359.996
577.610, 367.384
578.093, 361.884
578.575, 360.365
579.057, 371.738
579.539, 375.972
580.021, 368.989
580.503, 376.755
580.985, 358.169
581.467, 362.707
581.950, 377.223
582.432, 370.887
582.914, 378.889
583.396, 381.430
583.878, 359.157
584.360, 369.671
584.842, 374.156
585.324, 386.589
585.806, 390.714
586.289, 382.468
586.771, 372.066
587.253, 371.448
587.735, 380.854
588.217, 383.131
588.699, 372.308
589.181, 362.903
589.663, 358.352
590.145, 356.626
590.628, 356.652
591.110, 358.063
591.592, 358.346
592.074, 353.002
592.556, 346.996
593.038, 348.903
593.520, 358.222
594.002, 369.676
594.484, 382.184
594.967, 391.750
595.449, 390.590
595.931, 373.856
596.413, 359.428
596.895, 344.835
597.377, 334.749
597.859, 334.019
598.341, 338.372
598.823, 340.364
599.306, 337.058
599.788, 334.054
600.270, 339.528
600.752, 350.712
601.234, 354.363
601.716, 347.687
602.198, 345.569
602.680, 360.149
603.162, 385.682
603.645, 401.150
604.127, 407.941
604.609, 403.691
605.091, 374.147
605.573, 344.779
606.055, 336.704
606.537, 346.298
607.019, 357.929
607.502, 363.192
607.984, 363.876
608.466, 359.947
608.948, 351.443
609.430, 355.918
609.912, 383.095
610.394, 409.500
610.876, 415.116
611.359, 401.886
611.841, 386.737
612.323, 364.056
612.805, 346.885
613.287, 340.365
613.769, 340.728
614.251, 346.159
614.733, 354.894
615.216, 362.293
615.698, 364.413
616.180, 362.857
616.662, 363.979
617.144, 369.304
617.626, 368.098
618.108, 352.084
618.590, 335.186
619.072, 334.072
619.555, 346.511
620.037, 354.652
620.519, 350.851
621.001, 347.076
621.483, 351.759
621.965, 359.616
622.447, 361.808
622.929, 356.649
623.411, 349.691
623.894, 345.942
624.376, 345.373
624.858, 340.723
625.340, 327.538
625.822, 343.445
626.304, 352.290
626.786, 354.453
627.268, 329.919
627.750, 339.858
628.233, 335.982
628.715, 331.540
629.197, 346.331
629.679, 325.680
630.161, 340.166
630.643, 340.627
631.125, 347.506
631.607, 337.614
632.089, 345.628
632.572, 367.253
633.054, 381.775
633.536, 388.281
634.018, 389.668
634.500, 384.962
634.982, 376.720
635.464, 365.754
635.946, 351.572
636.429, 343.880
636.911, 347.313
637.393, 357.118
637.875, 339.183
638.357, 359.206
638.839, 370.016
639.321, 372.106
639.803, 339.363
640.286, 351.600
640.768, 345.811
641.250, 339.283
641.732, 357.850
642.214, 330.174
642.696, 345.882
643.178, 344.613
643.660, 344.336
644.143, 343.794
644.625, 341.395
645.107, 328.887
645.589, 320.850
646.071, 336.414
646.553, 365.765
647.035, 382.651
647.517, 377.246
647.999, 365.767
648.482, 363.787
648.964, 370.169
649.446, 352.607
649.928, 366.394
650.410, 372.573
650.892, 371.550
651.374, 341.756
651.856, 349.114
652.338, 341.583
652.821, 333.441
653.303, 346.028
653.785, 334.237
654.267, 340.477
654.749, 357.319
655.231, 368.144
655.713, 366.856
656.195, 362.451
656.677, 356.842
657.160, 350.833
657.642, 338.638
658.124, 356.115
658.606, 366.390
659.088, 369.849
659.570, 346.080
660.052, 357.470
660.534, 354.770
661.016, 351.492
661.499, 367.832
661.981, 361.100
662.463, 367.605
662.945, 375.786
663.427, 377.245
663.909, 369.534
664.391, 359.936
664.873, 356.875
665.356, 359.629
665.838, 347.239
666.320, 363.008
666.802, 371.942
667.284, 374.408
667.766, 351.033
668.248, 361.026
668.730, 357.647
669.213, 353.719
669.695, 368.409
670.177, 348.792
670.659, 363.187
671.141, 364.004
671.623, 371.036
672.105, 364.612
672.587, 362.345
673.070, 362.148
673.552, 362.650
674.034, 355.103
674.516, 339.109
674.998, 332.185
675.480, 343.182
675.962, 359.824
676.444, 365.469
676.926, 358.037
677.409, 354.755
677.891, 340.583
678.373, 353.066
678.855, 359.078
679.337, 358.968
679.819, 334.398
680.301, 341.413
680.783, 335.770
681.265, 329.608
681.748, 341.068
682.230, 331.804
682.712, 340.893
683.194, 351.202
683.676, 348.673
684.158, 342.353
684.640, 341.932
685.122, 347.187
685.604, 349.691
686.087, 345.977
686.569, 344.669
687.051, 350.524
687.533, 356.300
688.015, 358.087
688.497, 354.963
688.979, 344.629
689.461, 313.304
689.943, 290.156
690.426, 311.425
690.908, 355.651
691.390, 379.375
691.872, 375.704
692.354, 362.872
692.836, 351.425
693.318, 349.040
693.800, 332.028
694.283, 352.211
694.765, 363.365
695.247, 365.976
695.729, 334.455
696.211, 347.008
696.693, 341.898
697.175, 336.064
697.657, 354.820
698.140, 328.263
698.622, 346.630
699.104, 347.063
699.586, 343.341
700.068, 349.727
700.550, 359.075
701.032, 364.773
701.514, 365.150
701.997, 353.771
702.479, 331.764
702.961, 319.336
703.443, 318.794
703.925, 326.789
704.407, 346.800
704.889, 370.579
705.371, 377.121
705.853, 356.960
706.336, 343.221
706.818, 336.844
707.300, 337.473
707.782, 352.611
708.264, 371.810
708.746, 377.269
709.228, 364.007
709.710, 349.170
710.192, 347.071
710.675, 353.122
711.157, 361.727
711.639, 371.375
712.121, 371.437
712.603, 356.535
713.085, 340.602
713.567, 344.017
714.049, 368.821
714.531, 383.128
715.014, 381.162
715.496, 377.600
715.978, 375.954
716.460, 374.453
716.942, 372.798
717.424, 370.464
717.906, 363.666
718.388, 340.824
718.870, 323.901
719.353, 335.454
719.835, 358.801
720.317, 358.108
720.799, 334.405
721.281, 330.418
721.763, 316.822
722.245, 337.729
722.727, 350.260
723.210, 354.866
723.692, 327.810
724.174, 341.639
724.656, 339.083
725.138, 335.856
725.620, 355.438
726.102, 348.194
726.584, 350.675
727.067, 356.448
727.549, 364.750
728.031, 369.989
728.513, 365.463
728.995, 355.773
729.477, 351.601
729.959, 357.485
730.441, 362.404
730.924, 353.969
731.406, 338.642
731.888, 326.782
732.370, 319.627
732.852, 320.284
733.334, 330.573
733.816, 346.134
734.298, 361.610
734.780, 377.740
735.263, 384.720
735.745, 376.989
736.227, 370.164
736.709, 369.960
737.191, 372.573
737.673, 375.428
738.155, 378.310
738.637, 378.066
739.119, 368.847
739.602, 362.137
740.084, 367.739
740.566, 377.012
741.048, 378.164
741.530, 370.518
742.012, 361.108
742.494, 350.860
742.976, 364.396
743.458, 372.158
743.941, 374.457
744.423, 354.930
744.905, 363.587
745.387, 360.949
745.869, 357.848
746.351, 370.471
746.833, 354.119
747.315, 366.493
747.797, 367.400
748.280, 373.555
748.762, 368.346
749.244, 366.647
749.726, 376.316
750.208, 379.690
750.690, 367.396
751.172, 368.173
751.654, 364.678
752.137, 361.124
752.619, 361.265
753.101, 364.500
753.583, 371.174
754.065, 380.561
754.547, 384.967
755.029, 372.711
755.511, 350.088
755.994, 346.148
756.476, 362.390
756.958, 372.733
757.440, 368.542
757.922, 361.306
758.404, 361.733
758.886, 369.250
759.368, 377.145
759.851, 390.137
760.333, 396.752
760.815, 395.089
761.297, 387.947
761.779, 371.146
762.261, 351.185
762.743, 342.522
763.225, 351.734
763.707, 365.750
764.190, 360.288
764.672, 365.101
765.154, 346.605
765.636, 365.333
766.118, 375.026
766.600, 376.168
767.082, 343.152
767.564, 354.245
768.046, 351.737
768.529, 344.902
769.011, 331.391
769.493, 328.379
769.975, 345.657
770.457, 367.832
770.939, 376.777
771.421, 372.193
771.903, 368.164
772.385, 363.071
772.868, 360.707
773.350, 353.500
773.832, 335.342
774.314, 356.096
774.796, 367.405
775.278, 369.776
775.760, 336.438
776.242, 349.210
776.724, 343.504
777.207, 337.039
777.689, 356.301
778.171, 345.307
778.653, 333.014
779.135, 345.212
779.617, 362.955
780.099, 354.036
780.581, 323.576
781.064, 319.923
781.546, 346.461
782.028, 371.552
782.510, 384.871
782.992, 389.003
783.474, 385.366
783.956, 373.520
784.438, 367.457
784.920, 375.407
785.403, 377.648
785.885, 363.708
786.367, 350.071
786.849, 349.846
787.331, 360.219
787.813, 370.673
788.295, 381.138
788.778, 385.009
789.260, 371.233
789.742, 354.742
790.224, 352.719
790.706, 362.168
791.188, 371.892
791.670, 377.132
792.152, 378.021
792.634, 369.780
793.117, 357.575
793.599, 364.854
794.081, 390.776
794.563, 402.691
795.045, 387.827
795.527, 365.663
796.009, 357.823
796.491, 363.454
796.973, 369.604
797.456, 380.823
797.938, 382.532
798.420, 361.517
798.902, 341.653
799.384, 341.297
799.866, 354.243
800.348, 364.243
800.830, 369.744
801.312, 371.447
801.795, 368.220
802.277, 362.480
802.759, 355.072
803.241, 346.672
803.723, 336.186
804.205, 323.773
804.687, 317.337
805.169, 328.470
805.652, 346.356
806.134, 355.363
806.616, 356.743
807.098, 353.980
807.580, 348.296
808.062, 343.025
808.544, 340.588
809.026, 341.672
809.508, 352.109
809.991, 374.788
810.473, 380.231
810.955, 358.848
811.437, 335.617
811.919, 323.132
812.401, 320.769
812.883, 328.551
813.365, 354.500
813.847, 368.694
814.330, 363.757
814.812, 356.313
815.294, 340.459
815.776, 362.433
816.258, 375.224
816.740, 379.327
817.222, 348.717
817.705, 362.932
818.187, 359.182
818.669, 354.696
819.151, 375.219
819.633, 349.658
820.115, 369.785
820.597, 371.674
821.079, 381.909
821.561, 374.071
822.044, 371.815
822.526, 372.341
823.008, 383.182
823.490, 383.572
823.972, 379.498
824.454, 372.924
824.936, 367.065
825.418, 366.743
825.901, 371.569
826.383, 365.382
826.865, 344.742
827.347, 370.093
827.829, 384.280
828.311, 387.903
828.793, 349.322
829.275, 365.238
829.757, 359.315
830.240, 352.496
830.722, 376.083
831.204, 343.640
831.686, 366.745
832.168, 367.676
832.650, 378.756
833.132, 363.321
833.614, 362.908
834.096, 343.967
834.579, 368.212
835.061, 381.974
835.543, 385.816
836.025, 350.028
836.507, 365.414
836.989, 360.292
837.471, 354.328
837.953, 376.917
838.435, 346.893
838.918, 369.029
839.400, 370.344
839.882, 381.188
840.364, 367.134
840.846, 367.083
841.328, 354.068
841.810, 339.510
842.292, 342.798
842.774, 363.603
843.257, 371.239
843.739, 361.410
844.221, 355.081
844.703, 360.544
845.185, 366.280
845.667, 360.412
846.149, 345.275
846.631, 335.779
847.114, 329.300
847.596, 332.852
848.078, 358.899
848.560, 381.727
849.042, 385.699
849.524, 379.793
850.006, 379.362
850.488, 387.209
850.971, 391.177
851.453, 384.645
851.935, 375.613
852.417, 368.893
852.899, 362.478
853.381, 350.018
853.863, 334.171
854.345, 328.369
854.828, 342.112
855.310, 362.307
855.792, 380.063
856.274, 392.339
856.756, 392.884
857.238, 382.062
857.720, 358.797
858.202, 323.116
858.684, 295.752
859.167, 305.890
859.649, 344.604
860.131, 373.174
860.613, 391.608
861.095, 394.746
861.577, 379.527
862.059, 358.048
862.541, 336.770
863.023, 320.331
863.506, 327.099
863.988, 369.263
864.470, 395.583
864.952, 400.284
865.434, 397.387
865.916, 387.259
866.398, 376.479
866.880, 377.951
867.362, 392.911
867.845, 392.585
868.327, 354.842
868.809, 330.342
869.291, 341.628
869.773, 359.677
870.255, 362.771
870.737, 354.441
871.219, 347.021
871.701, 342.838
872.184, 343.232
872.666, 353.471
873.148, 364.100
873.630, 369.016
874.112, 368.394
874.594, 361.457
875.076, 349.371
875.558, 338.358
876.041, 332.097
876.523, 329.945
877.005, 333.736
877.487, 340.132
877.969, 339.157
878.451, 332.680
878.933, 337.589
879.415, 362.517
879.898, 389.153
880.380, 390.436
880.862, 371.358
881.344, 353.480
881.826, 337.080
882.308, 330.803
882.790, 337.565
883.272, 349.433
883.755, 360.946
884.237, 370.056
884.719, 366.693
885.201, 345.912
885.683, 340.118
886.165, 358.889
886.647, 372.585
887.129, 365.808
887.611, 349.096
888.094, 334.943
888.576, 351.765
889.058, 361.069
889.540, 363.257
890.022, 337.019
890.504, 347.488
890.986, 343.246
891.468, 338.401
891.950, 354.036
892.433, 331.933
892.915, 347.243
893.397, 347.618
893.879, 354.829
894.361, 344.181
894.843, 360.249
895.325, 372.987
895.807, 374.772
896.289, 367.123
896.772, 362.998
897.254, 373.043
897.736, 378.730
898.218, 359.155
898.700, 336.505
899.182, 337.756
899.664, 355.741
900.146, 369.639
900.628, 372.537
901.111, 371.962
901.593, 373.115
902.075, 375.380
902.557, 380.043
903.039, 384.618
903.521, 381.477
904.003, 370.955
904.485, 361.961
904.968, 359.677
905.450, 361.545
905.932, 364.614
906.414, 368.475
906.896, 370.747
907.378, 371.723
907.860, 376.285
908.342, 386.133
908.825, 394.764
909.307, 395.979
909.789, 391.265
910.271, 384.456
910.753, 375.066
911.235, 371.559
911.717, 375.539
912.199, 381.453
912.682, 387.060
913.164, 392.417
913.646, 398.975
914.128, 406.949
914.610, 400.065
915.092, 367.891
915.574, 348.261
916.056, 354.253
916.538, 364.303
917.021, 364.818
917.503, 358.176
917.985, 349.324
918.467, 333.124
918.949, 329.729
919.431, 354.969
919.913, 372.508
920.395, 365.085
920.877, 352.284
921.360, 332.673
921.842, 355.868
922.324, 368.672
922.806, 371.643
923.288, 335.333
923.770, 349.747
924.252, 343.833
924.734, 337.086
925.216, 358.639
925.699, 328.043
926.181, 349.147
926.663, 349.613
927.145, 345.296
927.627, 346.013
928.109, 364.470
928.591, 383.477
929.073, 386.945
929.555, 377.782
930.038, 363.074
930.520, 344.974
931.002, 334.842
931.484, 345.574
931.966, 361.939
932.448, 373.704
932.930, 380.093
933.412, 378.032
933.895, 369.626
934.377, 361.959
934.859, 358.103
935.341, 359.188
935.823, 369.184
936.305, 383.001
936.787, 397.438
937.269, 408.110
937.752, 399.240
938.234, 371.110
938.716, 349.295
939.198, 352.889
939.680, 367.605
940.162, 371.580
940.644, 368.327
941.126, 367.856
941.609, 370.325
942.091, 372.635
942.573, 373.630
943.055, 374.385
943.537, 381.913
944.019, 380.572
944.501, 369.398
944.983, 380.506
945.465, 386.205
945.948, 386.786
946.430, 366.920
946.912, 373.457
947.394, 371.853
947.876, 373.359
948.358, 374.779
948.840, 363.279
949.322, 337.372
949.804, 329.470
950.287, 347.720
950.769, 366.471
951.251, 369.252
951.733, 364.684
952.215, 370.490
952.697, 387.475
953.179, 392.331
953.661, 382.381
954.143, 371.691
954.626, 363.369
955.108, 354.629
955.590, 340.421
956.072, 327.184
956.554, 336.398
957.036, 378.371
957.518, 396.802
958.000, 380.897
958.482, 367.637
958.965, 371.089
959.447, 376.406
959.929, 368.186
960.411, 350.052
960.893, 340.322
961.375, 341.581
961.857, 345.871
962.339, 357.851
962.822, 365.213
963.304, 359.423
963.786, 350.534
964.268, 350.842
964.750, 359.346
965.232, 362.681
965.714, 354.676
966.196, 351.443
966.679, 358.659
967.161, 364.811
967.643, 362.216
968.125, 357.586
968.607, 361.964
969.089, 375.573
969.571, 380.091
970.053, 365.314
970.536, 355.112
971.018, 346.862
971.500, 350.005
971.982, 337.595
972.464, 354.275
972.946, 363.893
973.428, 366.830
973.910, 343.072
974.392, 353.784
974.875, 350.682
975.357, 354.420
975.839, 355.369
976.321, 369.679
976.803, 389.143
977.285, 401.653
977.767, 405.867
978.249, 401.273
978.731, 375.764
979.214, 357.248
979.696, 357.633
980.178, 366.504
980.660, 381.075
981.142, 395.783
981.624, 399.105
982.106, 387.298
982.588, 375.019
983.070, 356.672
983.553, 350.954
984.035, 383.846
984.517, 418.540
984.999, 415.534
985.481, 385.214
985.963, 364.358
986.445, 363.867
986.927, 360.873
987.409, 334.351
987.892, 318.522
988.374, 346.939
988.856, 383.708
989.338, 387.156
989.820, 364.045
990.302, 348.959
990.784, 353.012
991.266, 358.684
991.749, 360.765
992.231, 360.304
992.713, 353.474
993.195, 347.589
993.677, 353.142
994.159, 367.621
994.641, 378.616
995.123, 381.931
995.606, 382.681
996.088, 380.577
996.570, 379.450
997.052, 380.293
997.534, 384.590
998.016, 384.888
998.498, 389.096
998.980, 379.232
999.463, 391.574
999.945, 398.525
1000.427, 400.376
1000.909, 381.849
1001.391, 389.636
1001.873, 386.877
1002.355, 383.686
1002.837, 395.177
1003.319, 379.613
1003.802, 390.871
1004.284, 389.461
1004.766, 390.405
1005.248, 392.977
1005.730, 394.179
1006.212, 394.662
1006.694, 395.059
1007.176, 395.806
1007.658, 394.969
1008.141, 382.129
1008.623, 398.783
1009.105, 408.278
1009.587, 410.998
1010.069, 386.651
1010.551, 397.255
1011.033, 393.853
1011.515, 397.385
1011.997, 393.684
1012.480, 406.531
1012.962, 414.866
1013.444, 409.094
1013.926, 396.301
1014.408, 372.369
1014.890, 349.862
1015.372, 346.906
1015.854, 361.348
1016.337, 364.108
1016.819, 349.195
1017.301, 364.599
1017.783, 372.644
1018.265, 373.725
1018.747, 346.985
1019.229, 356.170
1019.711, 350.957
1020.193, 345.155
1020.676, 359.393
1021.158, 336.700
1021.640, 350.623
1022.122, 349.930
1022.604, 355.926
1023.086, 347.437
1023.568, 343.421
1024.050, 341.635
1024.533, 337.972
1025.015, 341.555
1025.497, 356.230
1025.979, 366.316
1026.461, 369.866
1026.943, 365.468
1027.425, 340.076
1027.907, 315.788
1028.390, 320.134
1028.872, 346.534
1029.354, 363.564
1029.836, 361.970
1030.318, 362.055
1030.800, 372.834
1031.282, 379.299
1031.764, 370.849
1032.246, 359.334
1032.729, 357.189
1033.211, 361.644
1033.693, 359.906
1034.175, 343.495
1034.657, 342.307
1035.139, 374.850
1035.621, 402.459
1036.103, 411.957
1036.585, 413.631
1037.068, 418.647
1037.550, 422.488
1038.032, 407.290
1038.514, 356.633
1038.996, 337.992
1039.478, 383.296
1039.960, 415.198
1040.442, 410.703
1040.925, 395.440
1041.407, 381.245
1041.889, 371.526
1042.371, 376.361
1042.853, 400.925
1043.335, 413.180
1043.817, 404.967
1044.299, 400.990
1044.781, 410.479
1045.264, 417.277
1045.746, 408.370
1046.228, 392.808
1046.710, 389.974
1047.192, 401.939
1047.674, 396.428
1048.156, 362.900
1048.638, 344.759
1049.120, 352.791
1049.603, 367.172
1050.085, 378.723
1050.567, 387.117
1051.049, 391.967
1051.531, 393.231
1052.013, 388.956
1052.495, 377.114
1052.977, 372.933
1053.460, 379.535
1053.942, 388.417
1054.424, 396.991
1054.906, 399.534
1055.388, 386.728
1055.870, 363.202
1056.352, 353.412
1056.834, 357.422
1057.317, 361.951
1057.799, 365.816
1058.281, 368.770
1058.763, 370.631
1059.245, 373.136
1059.727, 378.744
1060.209, 384.712
1060.691, 381.938
1061.173, 372.535
1061.656, 369.952
1062.138, 374.213
1062.620, 377.555
1063.102, 377.819
1063.584, 380.199
1064.066, 389.988
1064.548, 399.155
1065.030, 389.589
1065.512, 370.568
1065.995, 368.814
1066.477, 379.558
1066.959, 381.999
1067.441, 372.974
1067.923, 364.533
1068.405, 363.621
1068.887, 367.270
1069.369, 376.548
1069.852, 385.020
1070.334, 379.942
1070.816, 368.147
1071.298, 362.771
1071.780, 364.676
1072.262, 369.052
1072.744, 374.081
1073.226, 376.534
1073.708, 372.953
1074.191, 366.792
1074.673, 357.271
1075.155, 349.789
1075.637, 353.982
1076.119, 365.136
1076.601, 370.296
1077.083, 366.196
1077.565, 362.824
1078.047, 368.589
1078.530, 371.419
1079.012, 357.981
1079.494, 346.690
1079.976, 357.707
1080.458, 378.190
1080.940, 386.779
1081.422, 381.459
1081.904, 373.932
1082.386, 360.856
1082.869, 355.178
1083.351, 361.518
1083.833, 373.230
1084.315, 394.380
1084.797, 414.044
1085.279, 418.063
1085.761, 408.981
1086.243, 404.158
1086.726, 405.379
1087.208, 407.272
1087.690, 413.270
1088.172, 413.677
1088.654, 402.757
1089.136, 389.772
1089.618, 380.056
1090.100, 375.154
1090.583, 381.221
1091.065, 401.366
1091.547, 399.819
1092.029, 368.434
1092.511, 354.499
1092.993, 370.433
1093.475, 387.490
1093.957, 389.056
1094.439, 384.061
1094.922, 386.520
1095.404, 393.863
1095.886, 389.203
1096.368, 373.712
1096.850, 367.253
1097.332, 371.646
1097.814, 378.756
1098.296, 385.357
1098.778, 385.991
1099.261, 374.031
1099.743, 356.603
1100.225, 346.628
1100.707, 342.096
1101.189, 337.433
1101.671, 333.519
1102.153, 335.030
1102.635, 342.391
1103.118, 351.851
1103.600, 362.005
1104.082, 368.875
1104.564, 366.713
1105.046, 360.973
1105.528, 355.839
1106.010, 352.682
1106.492, 347.911
1106.974, 347.071
1107.457, 338.311
1107.939, 349.817
1108.421, 356.403
1108.903, 358.334
1109.385, 341.668
1109.867, 349.016
1110.349, 346.740
1110.831, 344.070
1111.313, 349.499
1111.796, 352.336
1112.278, 375.770
1112.760, 385.702
1113.242, 357.279
1113.724, 345.388
1114.206, 371.847
1114.688, 396.004
1115.170, 403.781
1115.653, 400.453
1116.135, 386.635
1116.617, 371.979
1117.099, 389.550
1117.581, 399.298
1118.063, 401.643
1118.545, 374.415
1119.027, 385.375
1119.510, 381.031
1119.992, 376.060
1120.474, 392.394
1120.956, 369.468
1121.438, 385.465
1121.920, 385.924
1122.402, 393.495
1122.884, 385.667
1123.366, 382.595
1123.849, 381.893
1124.331, 387.702
1124.813, 393.078
1125.295, 398.678
1125.777, 406.893
1126.259, 411.031
1126.741, 392.032
1127.223, 365.616
1127.705, 365.733
1128.188, 383.331
1128.670, 393.659
1129.152, 392.367
1129.634, 386.080
1130.116, 376.560
1130.598, 372.208
1131.080, 388.978
1131.562, 401.948
1132.045, 391.970
1132.527, 377.885
1133.009, 389.278
1133.491, 394.487
1133.973, 393.843
1134.455, 369.818
1134.937, 375.984
1135.419, 370.052
1135.901, 363.623
1136.384, 374.034
1136.866, 353.409
1137.348, 363.558
1137.830, 361.424
1138.312, 364.910
1138.794, 356.223
1139.276, 351.296
1139.758, 358.547
1140.240, 359.056
1140.723, 342.772
1141.205, 356.570
1141.687, 358.989
1142.169, 357.158
1142.651, 355.460
1143.133, 352.278
1143.615, 343.568
1144.097, 332.020
1144.580, 329.098
1145.062, 334.627
1145.544, 351.285
1146.026, 376.509
1146.508, 396.845
1146.990, 406.928
1147.472, 399.730
1147.954, 363.738
1148.437, 327.925
1148.919, 332.052
1149.401, 353.026
1149.883, 361.625
1150.365, 363.947
1150.847, 376.978
1151.329, 396.702
1151.811, 401.966
1152.293, 385.135
1152.776, 363.323
1153.258, 328.625
1153.740, 311.344
1154.222, 340.484
1154.704, 375.001
1155.186, 389.827
1155.668, 388.878
1156.150, 375.091
1156.632, 350.297
1157.115, 337.212
1157.597, 339.704
1158.079, 338.533
1158.561, 328.648
1159.043, 347.975
1159.525, 360.211
1160.007, 365.737
1160.489, 344.456
1160.972, 357.797
1161.454, 357.259
1161.936, 356.153
1162.418, 374.359
1162.900, 356.977
1163.382, 372.983
1163.864, 355.455
1164.346, 354.453
1164.828, 371.893
1165.311, 383.455
1165.793, 358.811
1166.275, 352.009
1166.757, 338.802
1167.239, 367.723
1167.721, 386.417
1168.203, 395.436
1168.685, 365.797
1169.167, 386.075
1169.650, 386.361
1170.132, 396.539
1170.614, 395.032
1171.096, 395.256
1171.578, 393.033
1172.060, 385.303
1172.542, 376.371
1173.024, 363.683
1173.507, 354.972
1173.989, 354.962
1174.471, 366.469
1174.953, 371.423
1175.435, 354.792
1175.917, 375.784
1176.399, 387.642
1176.881, 390.860
1177.364, 359.553
1177.846, 372.827
1178.328, 368.234
1178.810, 362.910
1179.292, 372.621
1179.774, 388.151
1180.256, 381.583
1180.738, 362.227
1181.220, 368.111
1181.703, 392.191
1182.185, 393.713
1182.667, 366.060
1183.149, 341.324
1183.631, 337.247
1184.113, 341.480
1184.595, 334.438
1185.077, 342.650
1185.559, 341.411
1186.042, 362.208
1186.524, 377.643
1187.006, 388.018
1187.488, 385.528
1187.970, 388.213
1188.452, 381.031
1188.934, 338.810
1189.416, 319.341
1189.899, 337.878
1190.381, 356.037
1190.863, 362.035
1191.345, 362.838
1191.827, 362.356
1192.309, 363.078
1192.791, 348.257
1193.273, 374.313
1193.755, 390.447
1194.238, 397.199
1194.720, 366.432
1195.202, 384.104
1195.684, 382.363
1196.166, 379.827
1196.648, 404.315
1197.130, 379.005
1197.612, 403.065
1198.094, 403.808
1198.577, 411.829
1199.059, 394.311
1199.541, 368.293
1200.023, 359.740
1200.505, 366.482
1200.987, 375.440
1201.469, 383.989
1201.951, 391.846
1202.434, 404.929
1202.916, 408.020
1203.398, 388.010
1203.880, 372.143
1204.362, 373.255
1204.844, 376.203
1205.326, 365.372
1205.808, 350.297
1206.291, 356.282
1206.773, 382.035
1207.255, 390.736
1207.737, 383.032
1208.219, 375.406
1208.701, 370.597
1209.183, 374.446
1209.665, 388.359
1210.147, 401.271
1210.630, 404.750
1211.112, 402.576
1211.594, 398.400
1212.076, 391.568
1212.558, 377.438
1213.040, 362.851
1213.522, 360.496
1214.004, 365.040
1214.486, 359.082
1214.969, 339.176
1215.451, 326.220
1215.933, 322.033
1216.415, 329.974
1216.897, 361.569
1217.379, 388.638
1217.861, 402.391
1218.343, 408.769
1218.826, 411.492
1219.308, 411.602
1219.790, 411.287
1220.272, 410.339
1220.754, 405.926
1221.236, 398.691
1221.718, 396.643
1222.200, 398.776
1222.682, 391.839
1223.165, 373.193
1223.647, 360.807
1224.129, 380.676
1224.611, 392.715
1225.093, 397.345
1225.575, 372.377
1226.057, 385.630
1226.539, 383.565
1227.021, 380.872
1227.504, 399.509
1227.986, 378.845
1228.468, 395.048
1228.950, 392.092
1229.432, 403.385
1229.914, 406.300
1230.396, 397.331
1230.878, 391.729
1231.361, 401.310
1231.843, 377.794
1232.325, 345.681
1232.807, 379.868
1233.289, 397.961
1233.771, 367.509
1234.253, 404.836
1234.735, 378.532
1235.218, 370.300
1235.700, 370.765
1236.182, 343.126
1236.664, 380.026
1237.146, 401.259
1237.628, 407.668
1238.110, 354.851
1238.592, 378.512
1239.074, 371.524
1239.557, 363.282
1240.039, 380.831
1240.521, 398.495
1241.003, 429.280
1241.485, 441.729
1241.967, 439.803
1242.449, 435.800
1242.931, 430.243
1243.413, 411.582
1243.896, 377.717
1244.378, 361.254
1244.860, 366.123
1245.342, 377.692
1245.824, 389.894
1246.306, 390.994
1246.788, 369.260
1247.270, 345.737
1247.753, 348.489
1248.235, 360.887
1248.717, 364.771
1249.199, 365.113
1249.681, 370.330
1250.163, 377.273
1250.645, 374.369
1251.127, 362.034
1251.609, 365.262
1252.092, 407.937
1252.574, 424.246
1253.056, 398.828
1253.538, 378.048
1254.020, 372.165
1254.502, 372.567
1254.984, 374.908
1255.466, 380.034
1255.948, 391.430
1256.431, 401.228
1256.913, 378.416
1257.395, 342.626
1257.877, 356.765
1258.359, 400.350
1258.841, 415.088
1259.323, 399.734
1259.805, 387.124
1260.288, 387.699
1260.770, 384.254
1261.252, 361.358
1261.734, 344.721
1262.216, 342.947
1262.698, 348.443
##END=



