##NAMES=Wheatleyite
##RRUFFID=R160084
##IDEAL CHEMISTRY=Na_2_Cu^2+^((C_2_)^6+^O_4_)_2_&#183;2H_2_O
##LOCALITY=Rowley mine, Maricopa County, Arizona, USA
##OWNER=RRUFF
##SOURCE=Danielle Sotomayor and Keith Wentz
##DESCRIPTION=Aggregates of parallel pale blue thin bladed crystals, associated with blue to dark blue tabular antipinite
##STATUS=The identification of this mineral has been confirmed by single-crystal X-ray diffraction.
##URL=rruff.info/R160084
8.813672e+001, 8.932548e+002
8.861884e+001, 9.124349e+002
8.910095e+001, 9.267278e+002
8.958307e+001, 9.364656e+002
9.006519e+001, 9.446721e+002
9.054730e+001, 9.525110e+002
9.102942e+001, 9.614594e+002
9.151154e+001, 9.700399e+002
9.199365e+001, 9.765069e+002
9.247577e+001, 9.814045e+002
9.295789e+001, 9.859576e+002
9.344000e+001, 9.909166e+002
9.392212e+001, 9.953899e+002
9.440424e+001, 9.993224e+002
9.488635e+001, 1.004114e+003
9.536847e+001, 1.009778e+003
9.585059e+001, 1.015759e+003
9.633270e+001, 1.021969e+003
9.681482e+001, 1.028541e+003
9.729694e+001, 1.035302e+003
9.777905e+001, 1.042268e+003
9.826117e+001, 1.050211e+003
9.874329e+001, 1.059139e+003
9.922540e+001, 1.069012e+003
9.970752e+001, 1.080767e+003
1.001896e+002, 1.094952e+003
1.006718e+002, 1.109232e+003
1.011539e+002, 1.120199e+003
1.016360e+002, 1.127003e+003
1.021181e+002, 1.134012e+003
1.026002e+002, 1.142496e+003
1.030823e+002, 1.152558e+003
1.035645e+002, 1.163369e+003
1.040466e+002, 1.175074e+003
1.045287e+002, 1.187552e+003
1.050108e+002, 1.200906e+003
1.054929e+002, 1.215313e+003
1.059750e+002, 1.230367e+003
1.064572e+002, 1.246007e+003
1.069393e+002, 1.263408e+003
1.074214e+002, 1.279510e+003
1.079035e+002, 1.293796e+003
1.083856e+002, 1.306937e+003
1.088677e+002, 1.320547e+003
1.093499e+002, 1.336125e+003
1.098320e+002, 1.351362e+003
1.103141e+002, 1.365265e+003
1.107962e+002, 1.376334e+003
1.112783e+002, 1.388095e+003
1.117604e+002, 1.401057e+003
1.122426e+002, 1.415219e+003
1.127247e+002, 1.429626e+003
1.132068e+002, 1.444440e+003
1.136889e+002, 1.459334e+003
1.141710e+002, 1.473928e+003
1.146531e+002, 1.487960e+003
1.151353e+002, 1.501779e+003
1.156174e+002, 1.515563e+003
1.160995e+002, 1.529248e+003
1.165816e+002, 1.543239e+003
1.170637e+002, 1.558030e+003
1.175458e+002, 1.572988e+003
1.180280e+002, 1.587619e+003
1.185101e+002, 1.601402e+003
1.189922e+002, 1.614871e+003
1.194743e+002, 1.627820e+003
1.199564e+002, 1.640144e+003
1.204385e+002, 1.653198e+003
1.209207e+002, 1.667838e+003
1.214028e+002, 1.683760e+003
1.218849e+002, 1.700368e+003
1.223670e+002, 1.718736e+003
1.228491e+002, 1.737261e+003
1.233312e+002, 1.753824e+003
1.238134e+002, 1.767873e+003
1.242955e+002, 1.781520e+003
1.247776e+002, 1.797223e+003
1.252597e+002, 1.814338e+003
1.257418e+002, 1.830720e+003
1.262239e+002, 1.844807e+003
1.267061e+002, 1.857386e+003
1.271882e+002, 1.869508e+003
1.276703e+002, 1.881489e+003
1.281524e+002, 1.893121e+003
1.286345e+002, 1.904365e+003
1.291166e+002, 1.915136e+003
1.295988e+002, 1.924814e+003
1.300809e+002, 1.932340e+003
1.305630e+002, 1.938145e+003
1.310451e+002, 1.944199e+003
1.315272e+002, 1.950923e+003
1.320093e+002, 1.957930e+003
1.324915e+002, 1.964510e+003
1.329736e+002, 1.970605e+003
1.334557e+002, 1.976268e+003
1.339378e+002, 1.980897e+003
1.344199e+002, 1.984501e+003
1.349020e+002, 1.989344e+003
1.353842e+002, 1.996412e+003
1.358663e+002, 2.005039e+003
1.363484e+002, 2.012549e+003
1.368305e+002, 2.018652e+003
1.373126e+002, 2.024185e+003
1.377947e+002, 2.029926e+003
1.382769e+002, 2.035911e+003
1.387590e+002, 2.041935e+003
1.392411e+002, 2.048284e+003
1.397232e+002, 2.055057e+003
1.402053e+002, 2.059457e+003
1.406874e+002, 2.060937e+003
1.411696e+002, 2.060946e+003
1.416517e+002, 2.061429e+003
1.421338e+002, 2.062826e+003
1.426159e+002, 2.063956e+003
1.430980e+002, 2.064475e+003
1.435801e+002, 2.064295e+003
1.440623e+002, 2.064457e+003
1.445444e+002, 2.065543e+003
1.450265e+002, 2.066806e+003
1.455086e+002, 2.066724e+003
1.459907e+002, 2.063475e+003
1.464728e+002, 2.061470e+003
1.469550e+002, 2.062452e+003
1.474371e+002, 2.068359e+003
1.479192e+002, 2.072926e+003
1.484013e+002, 2.076197e+003
1.488834e+002, 2.078129e+003
1.493655e+002, 2.078599e+003
1.498477e+002, 2.075427e+003
1.503298e+002, 2.072636e+003
1.508119e+002, 2.071736e+003
1.512940e+002, 2.074197e+003
1.517761e+002, 2.076323e+003
1.522583e+002, 2.077429e+003
1.527404e+002, 2.078020e+003
1.532225e+002, 2.079565e+003
1.537046e+002, 2.082453e+003
1.541867e+002, 2.086108e+003
1.546688e+002, 2.090280e+003
1.551510e+002, 2.095588e+003
1.556331e+002, 2.100697e+003
1.561152e+002, 2.105220e+003
1.565973e+002, 2.109329e+003
1.570794e+002, 2.113588e+003
1.575615e+002, 2.119111e+003
1.580437e+002, 2.124290e+003
1.585258e+002, 2.128128e+003
1.590079e+002, 2.127884e+003
1.594900e+002, 2.128920e+003
1.599721e+002, 2.133720e+003
1.604542e+002, 2.141593e+003
1.609364e+002, 2.148509e+003
1.614185e+002, 2.152038e+003
1.619006e+002, 2.154485e+003
1.623827e+002, 2.157697e+003
1.628648e+002, 2.162438e+003
1.633469e+002, 2.167849e+003
1.638291e+002, 2.173907e+003
1.643112e+002, 2.180475e+003
1.647933e+002, 2.186766e+003
1.652754e+002, 2.193054e+003
1.657575e+002, 2.198623e+003
1.662396e+002, 2.202719e+003
1.667218e+002, 2.202208e+003
1.672039e+002, 2.202278e+003
1.676860e+002, 2.207200e+003
1.681681e+002, 2.216829e+003
1.686502e+002, 2.226240e+003
1.691323e+002, 2.231623e+003
1.696145e+002, 2.234956e+003
1.700966e+002, 2.238892e+003
1.705787e+002, 2.245281e+003
1.710608e+002, 2.252267e+003
1.715429e+002, 2.258454e+003
1.720250e+002, 2.263863e+003
1.725072e+002, 2.268331e+003
1.729893e+002, 2.271871e+003
1.734714e+002, 2.274491e+003
1.739535e+002, 2.276195e+003
1.744356e+002, 2.276995e+003
1.749177e+002, 2.276873e+003
1.753999e+002, 2.276078e+003
1.758820e+002, 2.274677e+003
1.763641e+002, 2.271698e+003
1.768462e+002, 2.265576e+003
1.773283e+002, 2.257020e+003
1.778104e+002, 2.247856e+003
1.782926e+002, 2.238551e+003
1.787747e+002, 2.229319e+003
1.792568e+002, 2.220486e+003
1.797389e+002, 2.212097e+003
1.802210e+002, 2.204201e+003
1.807031e+002, 2.197259e+003
1.811853e+002, 2.191062e+003
1.816674e+002, 2.185098e+003
1.821495e+002, 2.179028e+003
1.826316e+002, 2.173034e+003
1.831137e+002, 2.167728e+003
1.835958e+002, 2.163144e+003
1.840780e+002, 2.159166e+003
1.845601e+002, 2.155491e+003
1.850422e+002, 2.152252e+003
1.855243e+002, 2.149690e+003
1.860064e+002, 2.148593e+003
1.864885e+002, 2.148458e+003
1.869707e+002, 2.147136e+003
1.874528e+002, 2.144128e+003
1.879349e+002, 2.141033e+003
1.884170e+002, 2.140455e+003
1.888991e+002, 2.142286e+003
1.893812e+002, 2.144643e+003
1.898634e+002, 2.147042e+003
1.903455e+002, 2.149287e+003
1.908276e+002, 2.150078e+003
1.913097e+002, 2.148991e+003
1.917918e+002, 2.147086e+003
1.922739e+002, 2.146156e+003
1.927561e+002, 2.146190e+003
1.932382e+002, 2.146561e+003
1.937203e+002, 2.146766e+003
1.942024e+002, 2.146848e+003
1.946845e+002, 2.147830e+003
1.951666e+002, 2.150099e+003
1.956488e+002, 2.152777e+003
1.961309e+002, 2.154083e+003
1.966130e+002, 2.153922e+003
1.970951e+002, 2.153319e+003
1.975772e+002, 2.152325e+003
1.980593e+002, 2.150926e+003
1.985415e+002, 2.151575e+003
1.990236e+002, 2.155126e+003
1.995057e+002, 2.159997e+003
1.999878e+002, 2.162218e+003
2.004699e+002, 2.161289e+003
2.009520e+002, 2.160216e+003
2.014342e+002, 2.161060e+003
2.019163e+002, 2.164067e+003
2.023984e+002, 2.165877e+003
2.028805e+002, 2.165902e+003
2.033626e+002, 2.164928e+003
2.038447e+002, 2.164918e+003
2.043269e+002, 2.166007e+003
2.048090e+002, 2.167547e+003
2.052911e+002, 2.169171e+003
2.057732e+002, 2.170858e+003
2.062553e+002, 2.172827e+003
2.067374e+002, 2.175168e+003
2.072196e+002, 2.177756e+003
2.077017e+002, 2.180466e+003
2.081838e+002, 2.183664e+003
2.086659e+002, 2.186007e+003
2.091480e+002, 2.186329e+003
2.096301e+002, 2.183970e+003
2.101123e+002, 2.182628e+003
2.105944e+002, 2.182484e+003
2.110765e+002, 2.183491e+003
2.115586e+002, 2.185937e+003
2.120407e+002, 2.190754e+003
2.125228e+002, 2.194915e+003
2.130050e+002, 2.196231e+003
2.134871e+002, 2.193507e+003
2.139692e+002, 2.192511e+003
2.144513e+002, 2.194264e+003
2.149334e+002, 2.197649e+003
2.154155e+002, 2.199190e+003
2.158977e+002, 2.197957e+003
2.163798e+002, 2.196634e+003
2.168619e+002, 2.196759e+003
2.173440e+002, 2.198862e+003
2.178261e+002, 2.200626e+003
2.183082e+002, 2.201745e+003
2.187904e+002, 2.202476e+003
2.192725e+002, 2.203710e+003
2.197546e+002, 2.205854e+003
2.202367e+002, 2.207750e+003
2.207188e+002, 2.208705e+003
2.212009e+002, 2.208301e+003
2.216831e+002, 2.208176e+003
2.221652e+002, 2.208462e+003
2.226473e+002, 2.209086e+003
2.231294e+002, 2.209742e+003
2.236115e+002, 2.210309e+003
2.240936e+002, 2.211224e+003
2.245758e+002, 2.212771e+003
2.250579e+002, 2.215210e+003
2.255400e+002, 2.217752e+003
2.260221e+002, 2.220509e+003
2.265042e+002, 2.223369e+003
2.269863e+002, 2.225884e+003
2.274685e+002, 2.227901e+003
2.279506e+002, 2.229859e+003
2.284327e+002, 2.231884e+003
2.289148e+002, 2.233777e+003
2.293969e+002, 2.236179e+003
2.298790e+002, 2.239006e+003
2.303612e+002, 2.242331e+003
2.308433e+002, 2.246502e+003
2.313254e+002, 2.252363e+003
2.318075e+002, 2.257784e+003
2.322896e+002, 2.261534e+003
2.327717e+002, 2.262016e+003
2.332539e+002, 2.264812e+003
2.337360e+002, 2.271141e+003
2.342181e+002, 2.279258e+003
2.347002e+002, 2.285120e+003
2.351823e+002, 2.287425e+003
2.356644e+002, 2.289301e+003
2.361466e+002, 2.291902e+003
2.366287e+002, 2.295309e+003
2.371108e+002, 2.299192e+003
2.375929e+002, 2.303753e+003
2.380750e+002, 2.308647e+003
2.385571e+002, 2.313077e+003
2.390393e+002, 2.316632e+003
2.395214e+002, 2.320420e+003
2.400035e+002, 2.325204e+003
2.404856e+002, 2.332240e+003
2.409677e+002, 2.336615e+003
2.414498e+002, 2.337515e+003
2.419320e+002, 2.336254e+003
2.424141e+002, 2.335061e+003
2.428962e+002, 2.333852e+003
2.433783e+002, 2.332959e+003
2.438604e+002, 2.332604e+003
2.443425e+002, 2.333040e+003
2.448247e+002, 2.333278e+003
2.453068e+002, 2.333666e+003
2.457889e+002, 2.333668e+003
2.462710e+002, 2.332322e+003
2.467531e+002, 2.328954e+003
2.472352e+002, 2.325361e+003
2.477174e+002, 2.322082e+003
2.481995e+002, 2.319256e+003
2.486816e+002, 2.316005e+003
2.491637e+002, 2.311943e+003
2.496458e+002, 2.307679e+003
2.501279e+002, 2.304101e+003
2.506101e+002, 2.301167e+003
2.510922e+002, 2.298893e+003
2.515743e+002, 2.297484e+003
2.520564e+002, 2.297094e+003
2.525385e+002, 2.296163e+003
2.530206e+002, 2.294215e+003
2.535028e+002, 2.292151e+003
2.539849e+002, 2.291145e+003
2.544670e+002, 2.291530e+003
2.549491e+002, 2.292253e+003
2.554312e+002, 2.293136e+003
2.559133e+002, 2.294186e+003
2.563955e+002, 2.295369e+003
2.568776e+002, 2.297066e+003
2.573597e+002, 2.298469e+003
2.578418e+002, 2.298464e+003
2.583239e+002, 2.296017e+003
2.588061e+002, 2.294615e+003
2.592882e+002, 2.295313e+003
2.597703e+002, 2.298067e+003
2.602524e+002, 2.299695e+003
2.607345e+002, 2.299691e+003
2.612166e+002, 2.299299e+003
2.616988e+002, 2.299696e+003
2.621809e+002, 2.301206e+003
2.626630e+002, 2.302625e+003
2.631451e+002, 2.303904e+003
2.636272e+002, 2.304991e+003
2.641093e+002, 2.304977e+003
2.645915e+002, 2.303065e+003
2.650736e+002, 2.301507e+003
2.655557e+002, 2.302660e+003
2.660378e+002, 2.307868e+003
2.665199e+002, 2.310825e+003
2.670020e+002, 2.309762e+003
2.674842e+002, 2.305764e+003
2.679663e+002, 2.304629e+003
2.684484e+002, 2.307279e+003
2.689305e+002, 2.310635e+003
2.694126e+002, 2.312501e+003
2.698947e+002, 2.312501e+003
2.703769e+002, 2.312601e+003
2.708590e+002, 2.312806e+003
2.713411e+002, 2.313305e+003
2.718232e+002, 2.314970e+003
2.723053e+002, 2.318254e+003
2.727874e+002, 2.321291e+003
2.732696e+002, 2.322672e+003
2.737517e+002, 2.321986e+003
2.742338e+002, 2.322302e+003
2.747159e+002, 2.323900e+003
2.751980e+002, 2.326517e+003
2.756801e+002, 2.329914e+003
2.761623e+002, 2.334472e+003
2.766444e+002, 2.338188e+003
2.771265e+002, 2.339757e+003
2.776086e+002, 2.339035e+003
2.780907e+002, 2.338624e+003
2.785728e+002, 2.338770e+003
2.790550e+002, 2.338994e+003
2.795371e+002, 2.338094e+003
2.800192e+002, 2.335843e+003
2.805013e+002, 2.334297e+003
2.809834e+002, 2.334456e+003
2.814655e+002, 2.336277e+003
2.819477e+002, 2.338706e+003
2.824298e+002, 2.341902e+003
2.829119e+002, 2.345135e+003
2.833940e+002, 2.347123e+003
2.838761e+002, 2.347798e+003
2.843582e+002, 2.348778e+003
2.848404e+002, 2.351112e+003
2.853225e+002, 2.354359e+003
2.858046e+002, 2.355649e+003
2.862867e+002, 2.354646e+003
2.867688e+002, 2.353145e+003
2.872509e+002, 2.353288e+003
2.877331e+002, 2.354962e+003
2.882152e+002, 2.356585e+003
2.886973e+002, 2.357732e+003
2.891794e+002, 2.358493e+003
2.896615e+002, 2.359134e+003
2.901436e+002, 2.359705e+003
2.906258e+002, 2.360020e+003
2.911079e+002, 2.359939e+003
2.915900e+002, 2.359503e+003
2.920721e+002, 2.358718e+003
2.925542e+002, 2.357354e+003
2.930363e+002, 2.355926e+003
2.935185e+002, 2.355627e+003
2.940006e+002, 2.356456e+003
2.944827e+002, 2.357538e+003
2.949648e+002, 2.357833e+003
2.954469e+002, 2.357794e+003
2.959290e+002, 2.359048e+003
2.964112e+002, 2.362394e+003
2.968933e+002, 2.366256e+003
2.973754e+002, 2.367767e+003
2.978575e+002, 2.367273e+003
2.983396e+002, 2.367077e+003
2.988217e+002, 2.368913e+003
2.993039e+002, 2.372042e+003
2.997860e+002, 2.375126e+003
3.002681e+002, 2.378120e+003
3.007502e+002, 2.380625e+003
3.012323e+002, 2.381867e+003
3.017144e+002, 2.382124e+003
3.021966e+002, 2.382314e+003
3.026787e+002, 2.382875e+003
3.031608e+002, 2.383684e+003
3.036429e+002, 2.384573e+003
3.041250e+002, 2.385514e+003
3.046071e+002, 2.386616e+003
3.050893e+002, 2.388074e+003
3.055714e+002, 2.389772e+003
3.060535e+002, 2.391405e+003
3.065356e+002, 2.393516e+003
3.070177e+002, 2.395127e+003
3.074998e+002, 2.394864e+003
3.079820e+002, 2.392695e+003
3.084641e+002, 2.390539e+003
3.089462e+002, 2.389438e+003
3.094283e+002, 2.389283e+003
3.099104e+002, 2.389942e+003
3.103925e+002, 2.392555e+003
3.108747e+002, 2.395065e+003
3.113568e+002, 2.395567e+003
3.118389e+002, 2.394384e+003
3.123210e+002, 2.393793e+003
3.128031e+002, 2.395367e+003
3.132852e+002, 2.398001e+003
3.137674e+002, 2.400685e+003
3.142495e+002, 2.403301e+003
3.147316e+002, 2.405660e+003
3.152137e+002, 2.407867e+003
3.156958e+002, 2.409756e+003
3.161779e+002, 2.410796e+003
3.166601e+002, 2.409591e+003
3.171422e+002, 2.408176e+003
3.176243e+002, 2.407786e+003
3.181064e+002, 2.408516e+003
3.185885e+002, 2.410496e+003
3.190706e+002, 2.415055e+003
3.195528e+002, 2.420792e+003
3.200349e+002, 2.425013e+003
3.205170e+002, 2.426176e+003
3.209991e+002, 2.426276e+003
3.214812e+002, 2.425698e+003
3.219633e+002, 2.423877e+003
3.224455e+002, 2.423710e+003
3.229276e+002, 2.427330e+003
3.234097e+002, 2.432414e+003
3.238918e+002, 2.436110e+003
3.243739e+002, 2.437333e+003
3.248560e+002, 2.437803e+003
3.253382e+002, 2.437668e+003
3.258203e+002, 2.436848e+003
3.263024e+002, 2.436580e+003
3.267845e+002, 2.437380e+003
3.272666e+002, 2.438565e+003
3.277487e+002, 2.439600e+003
3.282309e+002, 2.440919e+003
3.287130e+002, 2.441563e+003
3.291951e+002, 2.440921e+003
3.296772e+002, 2.439207e+003
3.301593e+002, 2.438594e+003
3.306414e+002, 2.439323e+003
3.311236e+002, 2.440895e+003
3.316057e+002, 2.443147e+003
3.320878e+002, 2.446934e+003
3.325699e+002, 2.449752e+003
3.330520e+002, 2.451012e+003
3.335341e+002, 2.451288e+003
3.340163e+002, 2.452315e+003
3.344984e+002, 2.454888e+003
3.349805e+002, 2.456817e+003
3.354626e+002, 2.456778e+003
3.359447e+002, 2.453696e+003
3.364268e+002, 2.453111e+003
3.369090e+002, 2.456151e+003
3.373911e+002, 2.460565e+003
3.378732e+002, 2.462526e+003
3.383553e+002, 2.461323e+003
3.388374e+002, 2.460253e+003
3.393195e+002, 2.460380e+003
3.398017e+002, 2.461682e+003
3.402838e+002, 2.463240e+003
3.407659e+002, 2.465336e+003
3.412480e+002, 2.467048e+003
3.417301e+002, 2.467117e+003
3.422122e+002, 2.465409e+003
3.426944e+002, 2.464000e+003
3.431765e+002, 2.463156e+003
3.436586e+002, 2.463009e+003
3.441407e+002, 2.464506e+003
3.446228e+002, 2.467787e+003
3.451049e+002, 2.470863e+003
3.455871e+002, 2.471681e+003
3.460692e+002, 2.470656e+003
3.465513e+002, 2.470686e+003
3.470334e+002, 2.472342e+003
3.475155e+002, 2.474781e+003
3.479977e+002, 2.476530e+003
3.484798e+002, 2.477695e+003
3.489619e+002, 2.479052e+003
3.494440e+002, 2.481929e+003
3.499261e+002, 2.485229e+003
3.504082e+002, 2.485832e+003
3.508904e+002, 2.483152e+003
3.513725e+002, 2.480460e+003
3.518546e+002, 2.481722e+003
3.523367e+002, 2.485746e+003
3.528188e+002, 2.489382e+003
3.533009e+002, 2.491320e+003
3.537831e+002, 2.492111e+003
3.542652e+002, 2.491869e+003
3.547473e+002, 2.490671e+003
3.552294e+002, 2.490054e+003
3.557115e+002, 2.491984e+003
3.561936e+002, 2.494916e+003
3.566758e+002, 2.496754e+003
3.571579e+002, 2.496158e+003
3.576400e+002, 2.495265e+003
3.581221e+002, 2.495815e+003
3.586042e+002, 2.497426e+003
3.590863e+002, 2.498712e+003
3.595685e+002, 2.498121e+003
3.600506e+002, 2.497495e+003
3.605327e+002, 2.498396e+003
3.610148e+002, 2.501708e+003
3.614969e+002, 2.504912e+003
3.619790e+002, 2.507162e+003
3.624612e+002, 2.508592e+003
3.629433e+002, 2.509469e+003
3.634254e+002, 2.508752e+003
3.639075e+002, 2.508449e+003
3.643896e+002, 2.509733e+003
3.648717e+002, 2.512961e+003
3.653539e+002, 2.515355e+003
3.658360e+002, 2.515697e+003
3.663181e+002, 2.515231e+003
3.668002e+002, 2.515108e+003
3.672823e+002, 2.514925e+003
3.677644e+002, 2.515626e+003
3.682466e+002, 2.518015e+003
3.687287e+002, 2.521854e+003
3.692108e+002, 2.524406e+003
3.696929e+002, 2.525243e+003
3.701750e+002, 2.525200e+003
3.706571e+002, 2.524575e+003
3.711393e+002, 2.522064e+003
3.716214e+002, 2.521376e+003
3.721035e+002, 2.523576e+003
3.725856e+002, 2.527304e+003
3.730677e+002, 2.529267e+003
3.735498e+002, 2.528402e+003
3.740320e+002, 2.527879e+003
3.745141e+002, 2.529041e+003
3.749962e+002, 2.532151e+003
3.754783e+002, 2.534711e+003
3.759604e+002, 2.536848e+003
3.764425e+002, 2.538202e+003
3.769247e+002, 2.537909e+003
3.774068e+002, 2.535582e+003
3.778889e+002, 2.533984e+003
3.783710e+002, 2.533805e+003
3.788531e+002, 2.534872e+003
3.793352e+002, 2.536958e+003
3.798174e+002, 2.540269e+003
3.802995e+002, 2.543057e+003
3.807816e+002, 2.543198e+003
3.812637e+002, 2.541135e+003
3.817458e+002, 2.540699e+003
3.822279e+002, 2.542781e+003
3.827101e+002, 2.545944e+003
3.831922e+002, 2.547868e+003
3.836743e+002, 2.548731e+003
3.841564e+002, 2.549619e+003
3.846385e+002, 2.551406e+003
3.851206e+002, 2.553590e+003
3.856028e+002, 2.555128e+003
3.860849e+002, 2.555952e+003
3.865670e+002, 2.556461e+003
3.870491e+002, 2.556769e+003
3.875312e+002, 2.557050e+003
3.880133e+002, 2.557672e+003
3.884955e+002, 2.559170e+003
3.889776e+002, 2.560711e+003
3.894597e+002, 2.561536e+003
3.899418e+002, 2.561692e+003
3.904239e+002, 2.561489e+003
3.909060e+002, 2.560204e+003
3.913882e+002, 2.559110e+003
3.918703e+002, 2.559487e+003
3.923524e+002, 2.562132e+003
3.928345e+002, 2.565137e+003
3.933166e+002, 2.567969e+003
3.937987e+002, 2.570503e+003
3.942809e+002, 2.572446e+003
3.947630e+002, 2.573372e+003
3.952451e+002, 2.573985e+003
3.957272e+002, 2.574438e+003
3.962093e+002, 2.574640e+003
3.966914e+002, 2.575294e+003
3.971736e+002, 2.577145e+003
3.976557e+002, 2.579192e+003
3.981378e+002, 2.580513e+003
3.986199e+002, 2.580065e+003
3.991020e+002, 2.579897e+003
3.995841e+002, 2.580288e+003
4.000663e+002, 2.581165e+003
4.005484e+002, 2.582123e+003
4.010305e+002, 2.583289e+003
4.015126e+002, 2.584410e+003
4.019947e+002, 2.585488e+003
4.024768e+002, 2.587044e+003
4.029590e+002, 2.587242e+003
4.034411e+002, 2.585260e+003
4.039232e+002, 2.582601e+003
4.044053e+002, 2.582189e+003
4.048874e+002, 2.584940e+003
4.053695e+002, 2.587310e+003
4.058517e+002, 2.588101e+003
4.063338e+002, 2.587438e+003
4.068159e+002, 2.586861e+003
4.072980e+002, 2.586311e+003
4.077801e+002, 2.586114e+003
4.082622e+002, 2.586697e+003
4.087444e+002, 2.588020e+003
4.092265e+002, 2.589328e+003
4.097086e+002, 2.590446e+003
4.101907e+002, 2.591452e+003
4.106728e+002, 2.592264e+003
4.111549e+002, 2.592923e+003
4.116371e+002, 2.594208e+003
4.121192e+002, 2.596754e+003
4.126013e+002, 2.600195e+003
4.130834e+002, 2.604102e+003
4.135655e+002, 2.608558e+003
4.140476e+002, 2.612292e+003
4.145298e+002, 2.613907e+003
4.150119e+002, 2.613920e+003
4.154940e+002, 2.613403e+003
4.159761e+002, 2.612259e+003
4.164582e+002, 2.611171e+003
4.169403e+002, 2.610890e+003
4.174225e+002, 2.611309e+003
4.179046e+002, 2.611726e+003
4.183867e+002, 2.611527e+003
4.188688e+002, 2.611306e+003
4.193509e+002, 2.611649e+003
4.198330e+002, 2.613058e+003
4.203152e+002, 2.614265e+003
4.207973e+002, 2.614833e+003
4.212794e+002, 2.614906e+003
4.217615e+002, 2.614734e+003
4.222436e+002, 2.613505e+003
4.227257e+002, 2.612907e+003
4.232079e+002, 2.613766e+003
4.236900e+002, 2.616331e+003
4.241721e+002, 2.618645e+003
4.246542e+002, 2.620354e+003
4.251363e+002, 2.621890e+003
4.256184e+002, 2.623596e+003
4.261006e+002, 2.625675e+003
4.265827e+002, 2.627513e+003
4.270648e+002, 2.629137e+003
4.275469e+002, 2.630437e+003
4.280290e+002, 2.630905e+003
4.285111e+002, 2.629918e+003
4.289933e+002, 2.629191e+003
4.294754e+002, 2.629547e+003
4.299575e+002, 2.631123e+003
4.304396e+002, 2.632508e+003
4.309217e+002, 2.633618e+003
4.314038e+002, 2.634648e+003
4.318860e+002, 2.635829e+003
4.323681e+002, 2.637168e+003
4.328502e+002, 2.638696e+003
4.333323e+002, 2.640763e+003
4.338144e+002, 2.642858e+003
4.342965e+002, 2.643239e+003
4.347787e+002, 2.641970e+003
4.352608e+002, 2.640714e+003
4.357429e+002, 2.641047e+003
4.362250e+002, 2.642323e+003
4.367071e+002, 2.642751e+003
4.371892e+002, 2.641993e+003
4.376714e+002, 2.641086e+003
4.381535e+002, 2.640885e+003
4.386356e+002, 2.641388e+003
4.391177e+002, 2.642585e+003
4.395998e+002, 2.645065e+003
4.400819e+002, 2.647784e+003
4.405641e+002, 2.649598e+003
4.410462e+002, 2.650592e+003
4.415283e+002, 2.652036e+003
4.420104e+002, 2.655976e+003
4.424925e+002, 2.659844e+003
4.429746e+002, 2.661136e+003
4.434568e+002, 2.657257e+003
4.439389e+002, 2.654499e+003
4.444210e+002, 2.654877e+003
4.449031e+002, 2.657662e+003
4.453852e+002, 2.661488e+003
4.458673e+002, 2.669538e+003
4.463495e+002, 2.675263e+003
4.468316e+002, 2.675620e+003
4.473137e+002, 2.669465e+003
4.477958e+002, 2.666084e+003
4.482779e+002, 2.667159e+003
4.487600e+002, 2.669700e+003
4.492422e+002, 2.671597e+003
4.497243e+002, 2.672757e+003
4.502064e+002, 2.673486e+003
4.506885e+002, 2.673604e+003
4.511706e+002, 2.673416e+003
4.516527e+002, 2.673644e+003
4.521349e+002, 2.674191e+003
4.526170e+002, 2.675459e+003
4.530991e+002, 2.678094e+003
4.535812e+002, 2.682000e+003
4.540633e+002, 2.683931e+003
4.545454e+002, 2.683576e+003
4.550276e+002, 2.682745e+003
4.555097e+002, 2.683480e+003
4.559918e+002, 2.685517e+003
4.564739e+002, 2.687347e+003
4.569560e+002, 2.688627e+003
4.574381e+002, 2.689531e+003
4.579203e+002, 2.690212e+003
4.584024e+002, 2.690726e+003
4.588845e+002, 2.691338e+003
4.593666e+002, 2.692419e+003
4.598488e+002, 2.693603e+003
4.603309e+002, 2.694395e+003
4.608130e+002, 2.694738e+003
4.612951e+002, 2.694991e+003
4.617772e+002, 2.695622e+003
4.622593e+002, 2.696239e+003
4.627415e+002, 2.696365e+003
4.632236e+002, 2.694589e+003
4.637057e+002, 2.693598e+003
4.641878e+002, 2.695218e+003
4.646699e+002, 2.698665e+003
4.651520e+002, 2.701199e+003
4.656342e+002, 2.700840e+003
4.661163e+002, 2.700447e+003
4.665984e+002, 2.701531e+003
4.670805e+002, 2.705250e+003
4.675626e+002, 2.707392e+003
4.680447e+002, 2.706900e+003
4.685269e+002, 2.705421e+003
4.690090e+002, 2.704493e+003
4.694911e+002, 2.703807e+003
4.699732e+002, 2.704346e+003
4.704553e+002, 2.706642e+003
4.709374e+002, 2.710214e+003
4.714196e+002, 2.713097e+003
4.719017e+002, 2.715152e+003
4.723838e+002, 2.716784e+003
4.728659e+002, 2.718110e+003
4.733480e+002, 2.719107e+003
4.738301e+002, 2.720082e+003
4.743123e+002, 2.721048e+003
4.747944e+002, 2.721869e+003
4.752765e+002, 2.722338e+003
4.757586e+002, 2.722491e+003
4.762407e+002, 2.722504e+003
4.767228e+002, 2.722199e+003
4.772050e+002, 2.722066e+003
4.776871e+002, 2.723448e+003
4.781692e+002, 2.725964e+003
4.786513e+002, 2.727665e+003
4.791334e+002, 2.725959e+003
4.796155e+002, 2.723573e+003
4.800977e+002, 2.723903e+003
4.805798e+002, 2.727748e+003
4.810619e+002, 2.731349e+003
4.815440e+002, 2.731874e+003
4.820261e+002, 2.731117e+003
4.825082e+002, 2.731163e+003
4.829904e+002, 2.733563e+003
4.834725e+002, 2.735888e+003
4.839546e+002, 2.737200e+003
4.844367e+002, 2.737753e+003
4.849188e+002, 2.738663e+003
4.854009e+002, 2.739740e+003
4.858831e+002, 2.741480e+003
4.863652e+002, 2.744302e+003
4.868473e+002, 2.748742e+003
4.873294e+002, 2.752006e+003
4.878115e+002, 2.753731e+003
4.882936e+002, 2.754519e+003
4.887758e+002, 2.754853e+003
4.892579e+002, 2.754410e+003
4.897400e+002, 2.754468e+003
4.902221e+002, 2.755415e+003
4.907042e+002, 2.756857e+003
4.911863e+002, 2.757654e+003
4.916685e+002, 2.757802e+003
4.921506e+002, 2.757489e+003
4.926327e+002, 2.756641e+003
4.931148e+002, 2.755411e+003
4.935969e+002, 2.754413e+003
4.940790e+002, 2.753672e+003
4.945612e+002, 2.753346e+003
4.950433e+002, 2.753878e+003
4.955254e+002, 2.754967e+003
4.960075e+002, 2.755909e+003
4.964896e+002, 2.756447e+003
4.969717e+002, 2.756929e+003
4.974539e+002, 2.757345e+003
4.979360e+002, 2.757929e+003
4.984181e+002, 2.759271e+003
4.989002e+002, 2.762457e+003
4.993823e+002, 2.765841e+003
4.998644e+002, 2.768090e+003
5.003466e+002, 2.768971e+003
5.008287e+002, 2.770583e+003
5.013108e+002, 2.775067e+003
5.017929e+002, 2.779567e+003
5.022750e+002, 2.781896e+003
5.027571e+002, 2.779237e+003
5.032393e+002, 2.777546e+003
5.037214e+002, 2.777007e+003
5.042035e+002, 2.777540e+003
5.046856e+002, 2.779294e+003
5.051677e+002, 2.783672e+003
5.056498e+002, 2.786587e+003
5.061320e+002, 2.786215e+003
5.066141e+002, 2.782768e+003
5.070962e+002, 2.781706e+003
5.075783e+002, 2.783550e+003
5.080604e+002, 2.786203e+003
5.085425e+002, 2.788310e+003
5.090247e+002, 2.789881e+003
5.095068e+002, 2.790481e+003
5.099889e+002, 2.789910e+003
5.104710e+002, 2.788934e+003
5.109531e+002, 2.788228e+003
5.114352e+002, 2.787939e+003
5.119174e+002, 2.788600e+003
5.123995e+002, 2.791718e+003
5.128816e+002, 2.795025e+003
5.133637e+002, 2.795247e+003
5.138458e+002, 2.792903e+003
5.143279e+002, 2.791233e+003
5.148101e+002, 2.792618e+003
5.152922e+002, 2.795100e+003
5.157743e+002, 2.797141e+003
5.162564e+002, 2.798402e+003
5.167385e+002, 2.799421e+003
5.172206e+002, 2.800373e+003
5.177028e+002, 2.801136e+003
5.181849e+002, 2.801574e+003
5.186670e+002, 2.801185e+003
5.191491e+002, 2.801038e+003
5.196312e+002, 2.801185e+003
5.201133e+002, 2.801713e+003
5.205955e+002, 2.803159e+003
5.210776e+002, 2.806847e+003
5.215597e+002, 2.809331e+003
5.220418e+002, 2.808594e+003
5.225239e+002, 2.804174e+003
5.230060e+002, 2.802143e+003
5.234882e+002, 2.802831e+003
5.239703e+002, 2.805070e+003
5.244524e+002, 2.808237e+003
5.249345e+002, 2.812205e+003
5.254166e+002, 2.815204e+003
5.258987e+002, 2.816805e+003
5.263809e+002, 2.817495e+003
5.268630e+002, 2.817493e+003
5.273451e+002, 2.817065e+003
5.278272e+002, 2.817382e+003
5.283093e+002, 2.819400e+003
5.287914e+002, 2.822172e+003
5.292736e+002, 2.824697e+003
5.297557e+002, 2.826951e+003
5.302378e+002, 2.829190e+003
5.307199e+002, 2.831546e+003
5.312020e+002, 2.833942e+003
5.316841e+002, 2.836411e+003
5.321663e+002, 2.839456e+003
5.326484e+002, 2.841503e+003
5.331305e+002, 2.841634e+003
5.336126e+002, 2.840746e+003
5.340947e+002, 2.840117e+003
5.345768e+002, 2.839441e+003
5.350590e+002, 2.839671e+003
5.355411e+002, 2.841457e+003
5.360232e+002, 2.844482e+003
5.365053e+002, 2.846622e+003
5.369874e+002, 2.847854e+003
5.374695e+002, 2.848354e+003
5.379517e+002, 2.847756e+003
5.384338e+002, 2.845942e+003
5.389159e+002, 2.846011e+003
5.393980e+002, 2.848272e+003
5.398801e+002, 2.851164e+003
5.403622e+002, 2.852793e+003
5.408444e+002, 2.853438e+003
5.413265e+002, 2.854611e+003
5.418086e+002, 2.856888e+003
5.422907e+002, 2.859285e+003
5.427728e+002, 2.860131e+003
5.432549e+002, 2.859979e+003
5.437371e+002, 2.860441e+003
5.442192e+002, 2.862563e+003
5.447013e+002, 2.865419e+003
5.451834e+002, 2.868503e+003
5.456655e+002, 2.871797e+003
5.461476e+002, 2.875009e+003
5.466298e+002, 2.878467e+003
5.471119e+002, 2.881549e+003
5.475940e+002, 2.883885e+003
5.480761e+002, 2.885525e+003
5.485582e+002, 2.886261e+003
5.490403e+002, 2.884342e+003
5.495225e+002, 2.882408e+003
5.500046e+002, 2.883851e+003
5.504867e+002, 2.890608e+003
5.509688e+002, 2.896845e+003
5.514509e+002, 2.901698e+003
5.519330e+002, 2.905279e+003
5.524152e+002, 2.907573e+003
5.528973e+002, 2.908269e+003
5.533794e+002, 2.909389e+003
5.538615e+002, 2.912236e+003
5.543436e+002, 2.916438e+003
5.548257e+002, 2.920026e+003
5.553079e+002, 2.922915e+003
5.557900e+002, 2.925819e+003
5.562721e+002, 2.929720e+003
5.567542e+002, 2.933997e+003
5.572363e+002, 2.937370e+003
5.577184e+002, 2.939325e+003
5.582006e+002, 2.941125e+003
5.586827e+002, 2.943790e+003
5.591648e+002, 2.946991e+003
5.596469e+002, 2.950211e+003
5.601290e+002, 2.953421e+003
5.606111e+002, 2.956463e+003
5.610933e+002, 2.959093e+003
5.615754e+002, 2.961419e+003
5.620575e+002, 2.964034e+003
5.625396e+002, 2.967562e+003
5.630217e+002, 2.970892e+003
5.635038e+002, 2.973607e+003
5.639860e+002, 2.975612e+003
5.644681e+002, 2.977505e+003
5.649502e+002, 2.979547e+003
5.654323e+002, 2.981057e+003
5.659144e+002, 2.981626e+003
5.663965e+002, 2.981360e+003
5.668787e+002, 2.978773e+003
5.673608e+002, 2.973196e+003
5.678429e+002, 2.966177e+003
5.683250e+002, 2.960140e+003
5.688071e+002, 2.955061e+003
5.692892e+002, 2.951124e+003
5.697714e+002, 2.949268e+003
5.702535e+002, 2.948081e+003
5.707356e+002, 2.945730e+003
5.712177e+002, 2.942295e+003
5.716998e+002, 2.938488e+003
5.721819e+002, 2.933609e+003
5.726641e+002, 2.929153e+003
5.731462e+002, 2.926478e+003
5.736283e+002, 2.925997e+003
5.741104e+002, 2.925577e+003
5.745925e+002, 2.924503e+003
5.750746e+002, 2.923183e+003
5.755568e+002, 2.921960e+003
5.760389e+002, 2.920303e+003
5.765210e+002, 2.919582e+003
5.770031e+002, 2.920371e+003
5.774852e+002, 2.921914e+003
5.779673e+002, 2.922541e+003
5.784495e+002, 2.921894e+003
5.789316e+002, 2.921619e+003
5.794137e+002, 2.922357e+003
5.798958e+002, 2.923882e+003
5.803779e+002, 2.925520e+003
5.808600e+002, 2.927327e+003
5.813422e+002, 2.928232e+003
5.818243e+002, 2.926087e+003
5.823064e+002, 2.922728e+003
5.827885e+002, 2.922998e+003
5.832706e+002, 2.927454e+003
5.837527e+002, 2.932187e+003
5.842349e+002, 2.934645e+003
5.847170e+002, 2.935270e+003
5.851991e+002, 2.934434e+003
5.856812e+002, 2.931137e+003
5.861633e+002, 2.928195e+003
5.866454e+002, 2.927027e+003
5.871276e+002, 2.926933e+003
5.876097e+002, 2.926676e+003
5.880918e+002, 2.925871e+003
5.885739e+002, 2.925010e+003
5.890560e+002, 2.924104e+003
5.895381e+002, 2.923195e+003
5.900203e+002, 2.922726e+003
5.905024e+002, 2.923243e+003
5.909845e+002, 2.923165e+003
5.914666e+002, 2.921312e+003
5.919487e+002, 2.917670e+003
5.924308e+002, 2.915948e+003
5.929130e+002, 2.916469e+003
5.933951e+002, 2.917468e+003
5.938772e+002, 2.917144e+003
5.943593e+002, 2.915891e+003
5.948414e+002, 2.914869e+003
5.953235e+002, 2.914237e+003
5.958057e+002, 2.914128e+003
5.962878e+002, 2.915035e+003
5.967699e+002, 2.916515e+003
5.972520e+002, 2.917729e+003
5.977341e+002, 2.918236e+003
5.982162e+002, 2.918460e+003
5.986984e+002, 2.918354e+003
5.991805e+002, 2.918038e+003
5.996626e+002, 2.918009e+003
6.001447e+002, 2.918582e+003
6.006268e+002, 2.919199e+003
6.011089e+002, 2.919593e+003
6.015911e+002, 2.919711e+003
6.020732e+002, 2.920125e+003
6.025553e+002, 2.921031e+003
6.030374e+002, 2.921926e+003
6.035195e+002, 2.922130e+003
6.040016e+002, 2.921479e+003
6.044838e+002, 2.922756e+003
6.049659e+002, 2.926627e+003
6.054480e+002, 2.930742e+003
6.059301e+002, 2.931551e+003
6.064122e+002, 2.929860e+003
6.068943e+002, 2.929078e+003
6.073765e+002, 2.930670e+003
6.078586e+002, 2.932622e+003
6.083407e+002, 2.932178e+003
6.088228e+002, 2.930294e+003
6.093049e+002, 2.929329e+003
6.097870e+002, 2.931921e+003
6.102692e+002, 2.934304e+003
6.107513e+002, 2.933771e+003
6.112334e+002, 2.930599e+003
6.117155e+002, 2.928767e+003
6.121976e+002, 2.929873e+003
6.126797e+002, 2.931794e+003
6.131619e+002, 2.933700e+003
6.136440e+002, 2.935727e+003
6.141261e+002, 2.937343e+003
6.146082e+002, 2.938864e+003
6.150903e+002, 2.939534e+003
6.155724e+002, 2.937809e+003
6.160546e+002, 2.933513e+003
6.165367e+002, 2.932367e+003
6.170188e+002, 2.935745e+003
6.175009e+002, 2.940622e+003
6.179830e+002, 2.942507e+003
6.184651e+002, 2.942125e+003
6.189473e+002, 2.942045e+003
6.194294e+002, 2.943846e+003
6.199115e+002, 2.945543e+003
6.203936e+002, 2.944757e+003
6.208757e+002, 2.942212e+003
6.213578e+002, 2.940077e+003
6.218400e+002, 2.938887e+003
6.223221e+002, 2.938738e+003
6.228042e+002, 2.940334e+003
6.232863e+002, 2.943725e+003
6.237684e+002, 2.945738e+003
6.242505e+002, 2.945043e+003
6.247327e+002, 2.943926e+003
6.252148e+002, 2.943406e+003
6.256969e+002, 2.943484e+003
6.261790e+002, 2.944408e+003
6.266611e+002, 2.946586e+003
6.271432e+002, 2.948772e+003
6.276254e+002, 2.949380e+003
6.281075e+002, 2.948531e+003
6.285896e+002, 2.948057e+003
6.290717e+002, 2.948161e+003
6.295538e+002, 2.948987e+003
6.300359e+002, 2.951358e+003
6.305181e+002, 2.954602e+003
6.310002e+002, 2.957116e+003
6.314823e+002, 2.958094e+003
6.319644e+002, 2.958231e+003
6.324465e+002, 2.957640e+003
6.329286e+002, 2.956532e+003
6.334108e+002, 2.955623e+003
6.338929e+002, 2.954565e+003
6.343750e+002, 2.954274e+003
6.348571e+002, 2.955891e+003
6.353392e+002, 2.959597e+003
6.358214e+002, 2.960657e+003
6.363035e+002, 2.957441e+003
6.367856e+002, 2.953978e+003
6.372677e+002, 2.952717e+003
6.377498e+002, 2.954071e+003
6.382319e+002, 2.954693e+003
6.387141e+002, 2.954423e+003
6.391962e+002, 2.954199e+003
6.396783e+002, 2.955516e+003
6.401604e+002, 2.957823e+003
6.406425e+002, 2.958672e+003
6.411246e+002, 2.957214e+003
6.416068e+002, 2.955605e+003
6.420889e+002, 2.956196e+003
6.425710e+002, 2.958144e+003
6.430531e+002, 2.959989e+003
6.435352e+002, 2.960076e+003
6.440173e+002, 2.961070e+003
6.444995e+002, 2.965489e+003
6.449816e+002, 2.971739e+003
6.454637e+002, 2.975394e+003
6.459458e+002, 2.973471e+003
6.464279e+002, 2.971220e+003
6.469100e+002, 2.969469e+003
6.473922e+002, 2.968267e+003
6.478743e+002, 2.968829e+003
6.483564e+002, 2.971753e+003
6.488385e+002, 2.974623e+003
6.493206e+002, 2.975696e+003
6.498027e+002, 2.975262e+003
6.502849e+002, 2.976159e+003
6.507670e+002, 2.978484e+003
6.512491e+002, 2.980592e+003
6.517312e+002, 2.980276e+003
6.522133e+002, 2.978962e+003
6.526954e+002, 2.979331e+003
6.531776e+002, 2.982427e+003
6.536597e+002, 2.984801e+003
6.541418e+002, 2.982910e+003
6.546239e+002, 2.979745e+003
6.551060e+002, 2.978777e+003
6.555881e+002, 2.983994e+003
6.560703e+002, 2.987621e+003
6.565524e+002, 2.987561e+003
6.570345e+002, 2.985500e+003
6.575166e+002, 2.984421e+003
6.579987e+002, 2.984973e+003
6.584808e+002, 2.984742e+003
6.589630e+002, 2.982656e+003
6.594451e+002, 2.979614e+003
6.599272e+002, 2.978846e+003
6.604093e+002, 2.980358e+003
6.608914e+002, 2.982471e+003
6.613735e+002, 2.985227e+003
6.618557e+002, 2.987654e+003
6.623378e+002, 2.987320e+003
6.628199e+002, 2.984564e+003
6.633020e+002, 2.982322e+003
6.637841e+002, 2.982854e+003
6.642662e+002, 2.984440e+003
6.647484e+002, 2.985875e+003
6.652305e+002, 2.987042e+003
6.657126e+002, 2.987823e+003
6.661947e+002, 2.987183e+003
6.666768e+002, 2.986851e+003
6.671589e+002, 2.988194e+003
6.676411e+002, 2.992925e+003
6.681232e+002, 2.995314e+003
6.686053e+002, 2.994271e+003
6.690874e+002, 2.992289e+003
6.695695e+002, 2.992945e+003
6.700516e+002, 2.996178e+003
6.705338e+002, 2.998145e+003
6.710159e+002, 2.997784e+003
6.714980e+002, 2.996522e+003
6.719801e+002, 2.996245e+003
6.724622e+002, 2.996796e+003
6.729443e+002, 2.997773e+003
6.734265e+002, 3.000026e+003
6.739086e+002, 3.001707e+003
6.743907e+002, 3.000790e+003
6.748728e+002, 2.998221e+003
6.753549e+002, 2.996874e+003
6.758370e+002, 2.998930e+003
6.763192e+002, 3.001064e+003
6.768013e+002, 3.002052e+003
6.772834e+002, 3.002014e+003
6.777655e+002, 3.002083e+003
6.782476e+002, 3.002073e+003
6.787297e+002, 3.002585e+003
6.792119e+002, 3.004275e+003
6.796940e+002, 3.007030e+003
6.801761e+002, 3.008391e+003
6.806582e+002, 3.008245e+003
6.811403e+002, 3.007690e+003
6.816224e+002, 3.007182e+003
6.821046e+002, 3.007011e+003
6.825867e+002, 3.007886e+003
6.830688e+002, 3.009975e+003
6.835509e+002, 3.012306e+003
6.840330e+002, 3.014617e+003
6.845151e+002, 3.016632e+003
6.849973e+002, 3.018019e+003
6.854794e+002, 3.017755e+003
6.859615e+002, 3.018472e+003
6.864436e+002, 3.021616e+003
6.869257e+002, 3.025486e+003
6.874078e+002, 3.028236e+003
6.878900e+002, 3.030046e+003
6.883721e+002, 3.030158e+003
6.888542e+002, 3.027837e+003
6.893363e+002, 3.024594e+003
6.898184e+002, 3.023629e+003
6.903005e+002, 3.024816e+003
6.907827e+002, 3.026594e+003
6.912648e+002, 3.028871e+003
6.917469e+002, 3.030891e+003
6.922290e+002, 3.031276e+003
6.927111e+002, 3.030404e+003
6.931932e+002, 3.029493e+003
6.936754e+002, 3.027908e+003
6.941575e+002, 3.027531e+003
6.946396e+002, 3.029453e+003
6.951217e+002, 3.033606e+003
6.956038e+002, 3.039125e+003
6.960859e+002, 3.049323e+003
6.965681e+002, 3.057022e+003
6.970502e+002, 3.059054e+003
6.975323e+002, 3.055192e+003
6.980144e+002, 3.051155e+003
6.984965e+002, 3.046754e+003
6.989786e+002, 3.042922e+003
6.994608e+002, 3.040449e+003
6.999429e+002, 3.039178e+003
7.004250e+002, 3.038200e+003
7.009071e+002, 3.037428e+003
7.013892e+002, 3.037780e+003
7.018713e+002, 3.041745e+003
7.023535e+002, 3.046585e+003
7.028356e+002, 3.048554e+003
7.033177e+002, 3.045954e+003
7.037998e+002, 3.043551e+003
7.042819e+002, 3.043243e+003
7.047640e+002, 3.044009e+003
7.052462e+002, 3.044796e+003
7.057283e+002, 3.045621e+003
7.062104e+002, 3.046209e+003
7.066925e+002, 3.046408e+003
7.071746e+002, 3.046462e+003
7.076567e+002, 3.046743e+003
7.081389e+002, 3.047249e+003
7.086210e+002, 3.047903e+003
7.091031e+002, 3.048711e+003
7.095852e+002, 3.049617e+003
7.100673e+002, 3.050541e+003
7.105494e+002, 3.051491e+003
7.110316e+002, 3.052509e+003
7.115137e+002, 3.053543e+003
7.119958e+002, 3.054720e+003
7.124779e+002, 3.056718e+003
7.129600e+002, 3.059019e+003
7.134421e+002, 3.059995e+003
7.139243e+002, 3.056575e+003
7.144064e+002, 3.054673e+003
7.148885e+002, 3.056957e+003
7.153706e+002, 3.062682e+003
7.158527e+002, 3.065766e+003
7.163348e+002, 3.065630e+003
7.168170e+002, 3.064530e+003
7.172991e+002, 3.063137e+003
7.177812e+002, 3.061627e+003
7.182633e+002, 3.061335e+003
7.187454e+002, 3.062206e+003
7.192275e+002, 3.062704e+003
7.197097e+002, 3.060261e+003
7.201918e+002, 3.057637e+003
7.206739e+002, 3.058932e+003
7.211560e+002, 3.064479e+003
7.216381e+002, 3.069206e+003
7.221202e+002, 3.070619e+003
7.226024e+002, 3.070434e+003
7.230845e+002, 3.069510e+003
7.235666e+002, 3.067296e+003
7.240487e+002, 3.066488e+003
7.245308e+002, 3.067496e+003
7.250129e+002, 3.069395e+003
7.254951e+002, 3.071684e+003
7.259772e+002, 3.074440e+003
7.264593e+002, 3.076441e+003
7.269414e+002, 3.077572e+003
7.274235e+002, 3.078028e+003
7.279056e+002, 3.077321e+003
7.283878e+002, 3.076180e+003
7.288699e+002, 3.076339e+003
7.293520e+002, 3.078553e+003
7.298341e+002, 3.081002e+003
7.303162e+002, 3.082644e+003
7.307983e+002, 3.083720e+003
7.312805e+002, 3.084565e+003
7.317626e+002, 3.085327e+003
7.322447e+002, 3.085749e+003
7.327268e+002, 3.085550e+003
7.332089e+002, 3.085178e+003
7.336910e+002, 3.085397e+003
7.341732e+002, 3.086348e+003
7.346553e+002, 3.087416e+003
7.351374e+002, 3.088555e+003
7.356195e+002, 3.089639e+003
7.361016e+002, 3.090148e+003
7.365837e+002, 3.090282e+003
7.370659e+002, 3.090998e+003
7.375480e+002, 3.093703e+003
7.380301e+002, 3.096054e+003
7.385122e+002, 3.094689e+003
7.389943e+002, 3.091210e+003
7.394764e+002, 3.089787e+003
7.399586e+002, 3.094412e+003
7.404407e+002, 3.098573e+003
7.409228e+002, 3.099405e+003
7.414049e+002, 3.097806e+003
7.418870e+002, 3.097980e+003
7.423691e+002, 3.100820e+003
7.428513e+002, 3.103034e+003
7.433334e+002, 3.103134e+003
7.438155e+002, 3.101707e+003
7.442976e+002, 3.101079e+003
7.447797e+002, 3.101250e+003
7.452618e+002, 3.101798e+003
7.457440e+002, 3.102665e+003
7.462261e+002, 3.103660e+003
7.467082e+002, 3.104838e+003
7.471903e+002, 3.106082e+003
7.476724e+002, 3.106547e+003
7.481545e+002, 3.104200e+003
7.486367e+002, 3.102371e+003
7.491188e+002, 3.103430e+003
7.496009e+002, 3.107907e+003
7.500830e+002, 3.110362e+003
7.505651e+002, 3.110345e+003
7.510472e+002, 3.109139e+003
7.515294e+002, 3.106658e+003
7.520115e+002, 3.102995e+003
7.524936e+002, 3.103101e+003
7.529757e+002, 3.107217e+003
7.534578e+002, 3.111050e+003
7.539399e+002, 3.109608e+003
7.544221e+002, 3.106058e+003
7.549042e+002, 3.105627e+003
7.553863e+002, 3.109177e+003
7.558684e+002, 3.111951e+003
7.563505e+002, 3.110261e+003
7.568326e+002, 3.107697e+003
7.573148e+002, 3.107216e+003
7.577969e+002, 3.110406e+003
7.582790e+002, 3.112132e+003
7.587611e+002, 3.111156e+003
7.592432e+002, 3.110414e+003
7.597253e+002, 3.113330e+003
7.602075e+002, 3.120057e+003
7.606896e+002, 3.123377e+003
7.611717e+002, 3.122408e+003
7.616538e+002, 3.119749e+003
7.621359e+002, 3.117147e+003
7.626180e+002, 3.115087e+003
7.631002e+002, 3.114685e+003
7.635823e+002, 3.116522e+003
7.640644e+002, 3.118774e+003
7.645465e+002, 3.120834e+003
7.650286e+002, 3.122673e+003
7.655107e+002, 3.124254e+003
7.659929e+002, 3.126023e+003
7.664750e+002, 3.126888e+003
7.669571e+002, 3.126435e+003
7.674392e+002, 3.125571e+003
7.679213e+002, 3.125376e+003
7.684034e+002, 3.125866e+003
7.688856e+002, 3.126788e+003
7.693677e+002, 3.128039e+003
7.698498e+002, 3.129843e+003
7.703319e+002, 3.132901e+003
7.708140e+002, 3.136656e+003
7.712961e+002, 3.140085e+003
7.717783e+002, 3.143303e+003
7.722604e+002, 3.145238e+003
7.727425e+002, 3.144511e+003
7.732246e+002, 3.142355e+003
7.737067e+002, 3.140636e+003
7.741888e+002, 3.139272e+003
7.746710e+002, 3.138911e+003
7.751531e+002, 3.139983e+003
7.756352e+002, 3.141815e+003
7.761173e+002, 3.143221e+003
7.765994e+002, 3.144196e+003
7.770815e+002, 3.145178e+003
7.775637e+002, 3.146294e+003
7.780458e+002, 3.147451e+003
7.785279e+002, 3.148354e+003
7.790100e+002, 3.149190e+003
7.794921e+002, 3.150394e+003
7.799742e+002, 3.152201e+003
7.804564e+002, 3.154292e+003
7.809385e+002, 3.157340e+003
7.814206e+002, 3.160460e+003
7.819027e+002, 3.161597e+003
7.823848e+002, 3.158896e+003
7.828669e+002, 3.157308e+003
7.833491e+002, 3.158103e+003
7.838312e+002, 3.160151e+003
7.843133e+002, 3.160665e+003
7.847954e+002, 3.159701e+003
7.852775e+002, 3.158468e+003
7.857596e+002, 3.157156e+003
7.862418e+002, 3.156173e+003
7.867239e+002, 3.156046e+003
7.872060e+002, 3.156712e+003
7.876881e+002, 3.158003e+003
7.881702e+002, 3.161119e+003
7.886523e+002, 3.163457e+003
7.891345e+002, 3.163034e+003
7.896166e+002, 3.160991e+003
7.900987e+002, 3.160814e+003
7.905808e+002, 3.163400e+003
7.910629e+002, 3.166147e+003
7.915450e+002, 3.168634e+003
7.920272e+002, 3.170730e+003
7.925093e+002, 3.171761e+003
7.929914e+002, 3.171824e+003
7.934735e+002, 3.172020e+003
7.939556e+002, 3.172992e+003
7.944377e+002, 3.174127e+003
7.949199e+002, 3.174740e+003
7.954020e+002, 3.174937e+003
7.958841e+002, 3.174967e+003
7.963662e+002, 3.174103e+003
7.968483e+002, 3.173983e+003
7.973304e+002, 3.175853e+003
7.978126e+002, 3.178945e+003
7.982947e+002, 3.180740e+003
7.987768e+002, 3.180732e+003
7.992589e+002, 3.181039e+003
7.997410e+002, 3.182855e+003
8.002231e+002, 3.184885e+003
8.007053e+002, 3.182716e+003
8.011874e+002, 3.177210e+003
8.016695e+002, 3.173115e+003
8.021516e+002, 3.173677e+003
8.026337e+002, 3.175878e+003
8.031158e+002, 3.177768e+003
8.035980e+002, 3.179162e+003
8.040801e+002, 3.179612e+003
8.045622e+002, 3.176891e+003
8.050443e+002, 3.175646e+003
8.055264e+002, 3.178008e+003
8.060085e+002, 3.182506e+003
8.064907e+002, 3.184160e+003
8.069728e+002, 3.182387e+003
8.074549e+002, 3.180649e+003
8.079370e+002, 3.179989e+003
8.084191e+002, 3.180135e+003
8.089012e+002, 3.181060e+003
8.093834e+002, 3.182422e+003
8.098655e+002, 3.183001e+003
8.103476e+002, 3.180751e+003
8.108297e+002, 3.178926e+003
8.113118e+002, 3.180212e+003
8.117939e+002, 3.183588e+003
8.122761e+002, 3.185972e+003
8.127582e+002, 3.186818e+003
8.132403e+002, 3.186675e+003
8.137224e+002, 3.184788e+003
8.142045e+002, 3.182388e+003
8.146866e+002, 3.183763e+003
8.151688e+002, 3.188948e+003
8.156509e+002, 3.193424e+003
8.161330e+002, 3.195498e+003
8.166151e+002, 3.196019e+003
8.170972e+002, 3.195294e+003
8.175793e+002, 3.193983e+003
8.180615e+002, 3.193789e+003
8.185436e+002, 3.196519e+003
8.190257e+002, 3.199329e+003
8.195078e+002, 3.201020e+003
8.199899e+002, 3.201921e+003
8.204720e+002, 3.203167e+003
8.209542e+002, 3.205432e+003
8.214363e+002, 3.206202e+003
8.219184e+002, 3.204431e+003
8.224005e+002, 3.201400e+003
8.228826e+002, 3.199913e+003
8.233647e+002, 3.199804e+003
8.238469e+002, 3.200198e+003
8.243290e+002, 3.201148e+003
8.248111e+002, 3.201970e+003
8.252932e+002, 3.201565e+003
8.257753e+002, 3.200674e+003
8.262574e+002, 3.200750e+003
8.267396e+002, 3.204144e+003
8.272217e+002, 3.206105e+003
8.277038e+002, 3.205145e+003
8.281859e+002, 3.202737e+003
8.286681e+002, 3.201517e+003
8.291502e+002, 3.201557e+003
8.296323e+002, 3.202542e+003
8.301144e+002, 3.204867e+003
8.305966e+002, 3.207061e+003
8.310787e+002, 3.205995e+003
8.315608e+002, 3.203083e+003
8.320429e+002, 3.201799e+003
8.325250e+002, 3.204373e+003
8.330071e+002, 3.207156e+003
8.334893e+002, 3.208242e+003
8.339714e+002, 3.208398e+003
8.344535e+002, 3.208896e+003
8.349356e+002, 3.210285e+003
8.354177e+002, 3.211038e+003
8.358998e+002, 3.210769e+003
8.363820e+002, 3.210160e+003
8.368641e+002, 3.209961e+003
8.373462e+002, 3.210235e+003
8.378283e+002, 3.211771e+003
8.383104e+002, 3.215085e+003
8.387925e+002, 3.218306e+003
8.392747e+002, 3.219510e+003
8.397568e+002, 3.219497e+003
8.402389e+002, 3.219310e+003
8.407210e+002, 3.218785e+003
8.412031e+002, 3.218892e+003
8.416852e+002, 3.220427e+003
8.421674e+002, 3.222264e+003
8.426495e+002, 3.223567e+003
8.431316e+002, 3.224524e+003
8.436137e+002, 3.223759e+003
8.440958e+002, 3.220788e+003
8.445779e+002, 3.217728e+003
8.450601e+002, 3.217599e+003
8.455422e+002, 3.219090e+003
8.460243e+002, 3.218981e+003
8.465064e+002, 3.216245e+003
8.469885e+002, 3.214710e+003
8.474706e+002, 3.217916e+003
8.479528e+002, 3.222312e+003
8.484349e+002, 3.224586e+003
8.489170e+002, 3.223164e+003
8.493991e+002, 3.223717e+003
8.498812e+002, 3.227206e+003
8.503633e+002, 3.230626e+003
8.508455e+002, 3.230783e+003
8.513276e+002, 3.228327e+003
8.518097e+002, 3.228110e+003
8.522918e+002, 3.230424e+003
8.527739e+002, 3.232896e+003
8.532560e+002, 3.234352e+003
8.537382e+002, 3.234667e+003
8.542203e+002, 3.233029e+003
8.547024e+002, 3.229091e+003
8.551845e+002, 3.227217e+003
8.556666e+002, 3.230184e+003
8.561487e+002, 3.233465e+003
8.566309e+002, 3.234624e+003
8.571130e+002, 3.233710e+003
8.575951e+002, 3.235441e+003
8.580772e+002, 3.240002e+003
8.585593e+002, 3.245028e+003
8.590414e+002, 3.248851e+003
8.595236e+002, 3.252190e+003
8.600057e+002, 3.256195e+003
8.604878e+002, 3.260777e+003
8.609699e+002, 3.265204e+003
8.614520e+002, 3.271649e+003
8.619341e+002, 3.275472e+003
8.624163e+002, 3.273223e+003
8.628984e+002, 3.265909e+003
8.633805e+002, 3.259781e+003
8.638626e+002, 3.254856e+003
8.643447e+002, 3.250871e+003
8.648268e+002, 3.247692e+003
8.653090e+002, 3.245318e+003
8.657911e+002, 3.243758e+003
8.662732e+002, 3.243022e+003
8.667553e+002, 3.243264e+003
8.672374e+002, 3.245265e+003
8.677195e+002, 3.247515e+003
8.682017e+002, 3.249194e+003
8.686838e+002, 3.250360e+003
8.691659e+002, 3.251152e+003
8.696480e+002, 3.251321e+003
8.701301e+002, 3.251708e+003
8.706122e+002, 3.252965e+003
8.710944e+002, 3.254016e+003
8.715765e+002, 3.251611e+003
8.720586e+002, 3.246394e+003
8.725407e+002, 3.243446e+003
8.730228e+002, 3.245569e+003
8.735049e+002, 3.247805e+003
8.739871e+002, 3.244401e+003
8.744692e+002, 3.238382e+003
8.749513e+002, 3.234286e+003
8.754334e+002, 3.234668e+003
8.759155e+002, 3.235470e+003
8.763976e+002, 3.236758e+003
8.768798e+002, 3.237884e+003
8.773619e+002, 3.237599e+003
8.778440e+002, 3.235700e+003
8.783261e+002, 3.236085e+003
8.788082e+002, 3.239505e+003
8.792903e+002, 3.243376e+003
8.797725e+002, 3.244599e+003
8.802546e+002, 3.244576e+003
8.807367e+002, 3.245448e+003
8.812188e+002, 3.247780e+003
8.817009e+002, 3.249831e+003
8.821830e+002, 3.250114e+003
8.826652e+002, 3.250574e+003
8.831473e+002, 3.253037e+003
8.836294e+002, 3.258351e+003
8.841115e+002, 3.259782e+003
8.845936e+002, 3.256725e+003
8.850757e+002, 3.252925e+003
8.855579e+002, 3.250898e+003
8.860400e+002, 3.250351e+003
8.865221e+002, 3.251520e+003
8.870042e+002, 3.254173e+003
8.874863e+002, 3.255340e+003
8.879684e+002, 3.250763e+003
8.884506e+002, 3.246712e+003
8.889327e+002, 3.247316e+003
8.894148e+002, 3.252316e+003
8.898969e+002, 3.256640e+003
8.903790e+002, 3.260527e+003
8.908611e+002, 3.262724e+003
8.913433e+002, 3.261730e+003
8.918254e+002, 3.259291e+003
8.923075e+002, 3.260632e+003
8.927896e+002, 3.264870e+003
8.932717e+002, 3.268245e+003
8.937538e+002, 3.267044e+003
8.942360e+002, 3.266163e+003
8.947181e+002, 3.269049e+003
8.952002e+002, 3.274367e+003
8.956823e+002, 3.278660e+003
8.961644e+002, 3.281701e+003
8.966465e+002, 3.283523e+003
8.971287e+002, 3.283594e+003
8.976108e+002, 3.283207e+003
8.980929e+002, 3.285417e+003
8.985750e+002, 3.289483e+003
8.990571e+002, 3.291693e+003
8.995392e+002, 3.290735e+003
9.000214e+002, 3.288904e+003
9.005035e+002, 3.287008e+003
9.009856e+002, 3.285790e+003
9.014677e+002, 3.286151e+003
9.019498e+002, 3.289540e+003
9.024319e+002, 3.292380e+003
9.029141e+002, 3.294763e+003
9.033962e+002, 3.296450e+003
9.038783e+002, 3.297124e+003
9.043604e+002, 3.296841e+003
9.048425e+002, 3.295946e+003
9.053246e+002, 3.294386e+003
9.058068e+002, 3.293547e+003
9.062889e+002, 3.296049e+003
9.067710e+002, 3.298753e+003
9.072531e+002, 3.298142e+003
9.077352e+002, 3.293587e+003
9.082173e+002, 3.290651e+003
9.086995e+002, 3.291396e+003
9.091816e+002, 3.292048e+003
9.096637e+002, 3.290767e+003
9.101458e+002, 3.287966e+003
9.106279e+002, 3.286474e+003
9.111100e+002, 3.286256e+003
9.115922e+002, 3.286368e+003
9.120743e+002, 3.286698e+003
9.125564e+002, 3.286806e+003
9.130385e+002, 3.285578e+003
9.135206e+002, 3.283723e+003
9.140027e+002, 3.283315e+003
9.144849e+002, 3.286809e+003
9.149670e+002, 3.289421e+003
9.154491e+002, 3.289830e+003
9.159312e+002, 3.289194e+003
9.164133e+002, 3.290310e+003
9.168954e+002, 3.293114e+003
9.173776e+002, 3.294453e+003
9.178597e+002, 3.293165e+003
9.183418e+002, 3.291397e+003
9.188239e+002, 3.291329e+003
9.193060e+002, 3.292340e+003
9.197881e+002, 3.293565e+003
9.202703e+002, 3.294734e+003
9.207524e+002, 3.296250e+003
9.212345e+002, 3.298798e+003
9.217166e+002, 3.301012e+003
9.221987e+002, 3.301412e+003
9.226808e+002, 3.299886e+003
9.231630e+002, 3.299686e+003
9.236451e+002, 3.301015e+003
9.241272e+002, 3.302530e+003
9.246093e+002, 3.302510e+003
9.250914e+002, 3.302380e+003
9.255735e+002, 3.304298e+003
9.260557e+002, 3.308322e+003
9.265378e+002, 3.311159e+003
9.270199e+002, 3.311384e+003
9.275020e+002, 3.310711e+003
9.279841e+002, 3.309499e+003
9.284662e+002, 3.307870e+003
9.289484e+002, 3.306421e+003
9.294305e+002, 3.305155e+003
9.299126e+002, 3.304429e+003
9.303947e+002, 3.304760e+003
9.308768e+002, 3.305386e+003
9.313589e+002, 3.305355e+003
9.318411e+002, 3.304958e+003
9.323232e+002, 3.304813e+003
9.328053e+002, 3.305853e+003
9.332874e+002, 3.306203e+003
9.337695e+002, 3.305014e+003
9.342516e+002, 3.303579e+003
9.347338e+002, 3.304028e+003
9.352159e+002, 3.306365e+003
9.356980e+002, 3.308568e+003
9.361801e+002, 3.310350e+003
9.366622e+002, 3.311769e+003
9.371443e+002, 3.313078e+003
9.376265e+002, 3.313932e+003
9.381086e+002, 3.313580e+003
9.385907e+002, 3.311294e+003
9.390728e+002, 3.310212e+003
9.395549e+002, 3.311035e+003
9.400370e+002, 3.312837e+003
9.405192e+002, 3.315548e+003
9.410013e+002, 3.319029e+003
9.414834e+002, 3.320639e+003
9.419655e+002, 3.320405e+003
9.424476e+002, 3.319730e+003
9.429297e+002, 3.319524e+003
9.434119e+002, 3.319349e+003
9.438940e+002, 3.318783e+003
9.443761e+002, 3.317876e+003
9.448582e+002, 3.316873e+003
9.453403e+002, 3.314994e+003
9.458224e+002, 3.314316e+003
9.463046e+002, 3.315825e+003
9.467867e+002, 3.318390e+003
9.472688e+002, 3.319454e+003
9.477509e+002, 3.319114e+003
9.482330e+002, 3.317683e+003
9.487151e+002, 3.314696e+003
9.491973e+002, 3.312240e+003
9.496794e+002, 3.313019e+003
9.501615e+002, 3.315101e+003
9.506436e+002, 3.316073e+003
9.511257e+002, 3.314406e+003
9.516078e+002, 3.313921e+003
9.520900e+002, 3.315250e+003
9.525721e+002, 3.316837e+003
9.530542e+002, 3.317068e+003
9.535363e+002, 3.316289e+003
9.540184e+002, 3.316918e+003
9.545005e+002, 3.318968e+003
9.549827e+002, 3.320763e+003
9.554648e+002, 3.320618e+003
9.559469e+002, 3.320135e+003
9.564290e+002, 3.320126e+003
9.569111e+002, 3.320702e+003
9.573932e+002, 3.322621e+003
9.578754e+002, 3.326806e+003
9.583575e+002, 3.329949e+003
9.588396e+002, 3.330520e+003
9.593217e+002, 3.329829e+003
9.598038e+002, 3.331486e+003
9.602859e+002, 3.334684e+003
9.607681e+002, 3.336515e+003
9.612502e+002, 3.334899e+003
9.617323e+002, 3.333333e+003
9.622144e+002, 3.333843e+003
9.626965e+002, 3.335572e+003
9.631786e+002, 3.337750e+003
9.636608e+002, 3.341888e+003
9.641429e+002, 3.341463e+003
9.646250e+002, 3.334937e+003
9.651071e+002, 3.328419e+003
9.655892e+002, 3.329746e+003
9.660714e+002, 3.335229e+003
9.665535e+002, 3.336201e+003
9.670356e+002, 3.332115e+003
9.675177e+002, 3.328814e+003
9.679998e+002, 3.330559e+003
9.684819e+002, 3.332699e+003
9.689641e+002, 3.332228e+003
9.694462e+002, 3.329697e+003
9.699283e+002, 3.329593e+003
9.704104e+002, 3.332231e+003
9.708925e+002, 3.334640e+003
9.713746e+002, 3.335411e+003
9.718568e+002, 3.335586e+003
9.723389e+002, 3.336754e+003
9.728210e+002, 3.338531e+003
9.733031e+002, 3.340154e+003
9.737852e+002, 3.340655e+003
9.742673e+002, 3.341852e+003
9.747495e+002, 3.344542e+003
9.752316e+002, 3.347661e+003
9.757137e+002, 3.350080e+003
9.761958e+002, 3.351799e+003
9.766779e+002, 3.353977e+003
9.771600e+002, 3.356857e+003
9.776422e+002, 3.358826e+003
9.781243e+002, 3.358096e+003
9.786064e+002, 3.356055e+003
9.790885e+002, 3.353698e+003
9.795706e+002, 3.351153e+003
9.800527e+002, 3.350109e+003
9.805349e+002, 3.351723e+003
9.810170e+002, 3.353458e+003
9.814991e+002, 3.354142e+003
9.819812e+002, 3.354422e+003
9.824633e+002, 3.357406e+003
9.829454e+002, 3.362445e+003
9.834276e+002, 3.365568e+003
9.839097e+002, 3.363951e+003
9.843918e+002, 3.361562e+003
9.848739e+002, 3.360715e+003
9.853560e+002, 3.361095e+003
9.858381e+002, 3.362387e+003
9.863203e+002, 3.365419e+003
9.868024e+002, 3.367250e+003
9.872845e+002, 3.367452e+003
9.877666e+002, 3.367369e+003
9.882487e+002, 3.368545e+003
9.887308e+002, 3.370528e+003
9.892130e+002, 3.372307e+003
9.896951e+002, 3.373773e+003
9.901772e+002, 3.374553e+003
9.906593e+002, 3.373948e+003
9.911414e+002, 3.373021e+003
9.916235e+002, 3.372156e+003
9.921057e+002, 3.371396e+003
9.925878e+002, 3.371053e+003
9.930699e+002, 3.371110e+003
9.935520e+002, 3.371439e+003
9.940341e+002, 3.372230e+003
9.945162e+002, 3.372796e+003
9.949984e+002, 3.371874e+003
9.954805e+002, 3.370061e+003
9.959626e+002, 3.368516e+003
9.964447e+002, 3.367890e+003
9.969268e+002, 3.367135e+003
9.974089e+002, 3.366142e+003
9.978911e+002, 3.365076e+003
9.983732e+002, 3.364019e+003
9.988553e+002, 3.363034e+003
9.993374e+002, 3.362593e+003
9.998195e+002, 3.362748e+003
1.000302e+003, 3.363049e+003
1.000784e+003, 3.362526e+003
1.001266e+003, 3.362492e+003
1.001748e+003, 3.364567e+003
1.002230e+003, 3.368476e+003
1.002712e+003, 3.370995e+003
1.003194e+003, 3.371151e+003
1.003676e+003, 3.371534e+003
1.004159e+003, 3.373072e+003
1.004641e+003, 3.374753e+003
1.005123e+003, 3.374173e+003
1.005605e+003, 3.372024e+003
1.006087e+003, 3.370330e+003
1.006569e+003, 3.369385e+003
1.007051e+003, 3.369813e+003
1.007533e+003, 3.373677e+003
1.008016e+003, 3.377879e+003
1.008498e+003, 3.379441e+003
1.008980e+003, 3.377630e+003
1.009462e+003, 3.377878e+003
1.009944e+003, 3.380525e+003
1.010426e+003, 3.382968e+003
1.010908e+003, 3.382706e+003
1.011390e+003, 3.381423e+003
1.011872e+003, 3.381408e+003
1.012355e+003, 3.382400e+003
1.012837e+003, 3.383073e+003
1.013319e+003, 3.381472e+003
1.013801e+003, 3.381518e+003
1.014283e+003, 3.384786e+003
1.014765e+003, 3.389229e+003
1.015247e+003, 3.390888e+003
1.015729e+003, 3.390114e+003
1.016211e+003, 3.389749e+003
1.016694e+003, 3.390552e+003
1.017176e+003, 3.390841e+003
1.017658e+003, 3.388465e+003
1.018140e+003, 3.385548e+003
1.018622e+003, 3.384064e+003
1.019104e+003, 3.384417e+003
1.019586e+003, 3.385108e+003
1.020068e+003, 3.386340e+003
1.020551e+003, 3.387430e+003
1.021033e+003, 3.388087e+003
1.021515e+003, 3.388332e+003
1.021997e+003, 3.387802e+003
1.022479e+003, 3.386849e+003
1.022961e+003, 3.386520e+003
1.023443e+003, 3.387403e+003
1.023925e+003, 3.388762e+003
1.024407e+003, 3.390438e+003
1.024890e+003, 3.392392e+003
1.025372e+003, 3.394926e+003
1.025854e+003, 3.398058e+003
1.026336e+003, 3.399435e+003
1.026818e+003, 3.398674e+003
1.027300e+003, 3.397699e+003
1.027782e+003, 3.398158e+003
1.028264e+003, 3.399260e+003
1.028746e+003, 3.400396e+003
1.029229e+003, 3.401485e+003
1.029711e+003, 3.402316e+003
1.030193e+003, 3.403071e+003
1.030675e+003, 3.403012e+003
1.031157e+003, 3.401189e+003
1.031639e+003, 3.399210e+003
1.032121e+003, 3.401980e+003
1.032603e+003, 3.407780e+003
1.033086e+003, 3.410988e+003
1.033568e+003, 3.408774e+003
1.034050e+003, 3.406170e+003
1.034532e+003, 3.404797e+003
1.035014e+003, 3.404610e+003
1.035496e+003, 3.406093e+003
1.035978e+003, 3.409973e+003
1.036460e+003, 3.409636e+003
1.036943e+003, 3.404796e+003
1.037425e+003, 3.400521e+003
1.037907e+003, 3.400926e+003
1.038389e+003, 3.403514e+003
1.038871e+003, 3.406063e+003
1.039353e+003, 3.408470e+003
1.039835e+003, 3.410641e+003
1.040317e+003, 3.412538e+003
1.040799e+003, 3.414122e+003
1.041281e+003, 3.415362e+003
1.041764e+003, 3.416248e+003
1.042246e+003, 3.416312e+003
1.042728e+003, 3.416015e+003
1.043210e+003, 3.417331e+003
1.043692e+003, 3.420922e+003
1.044174e+003, 3.423469e+003
1.044656e+003, 3.421452e+003
1.045138e+003, 3.419284e+003
1.045621e+003, 3.420172e+003
1.046103e+003, 3.423827e+003
1.046585e+003, 3.426063e+003
1.047067e+003, 3.426800e+003
1.047549e+003, 3.427069e+003
1.048031e+003, 3.427372e+003
1.048513e+003, 3.427387e+003
1.048995e+003, 3.426114e+003
1.049478e+003, 3.424446e+003
1.049960e+003, 3.423912e+003
1.050442e+003, 3.426560e+003
1.050924e+003, 3.427669e+003
1.051406e+003, 3.426439e+003
1.051888e+003, 3.425080e+003
1.052370e+003, 3.426507e+003
1.052852e+003, 3.429445e+003
1.053334e+003, 3.428533e+003
1.053817e+003, 3.424102e+003
1.054299e+003, 3.421248e+003
1.054781e+003, 3.423838e+003
1.055263e+003, 3.427591e+003
1.055745e+003, 3.431444e+003
1.056227e+003, 3.434760e+003
1.056709e+003, 3.435881e+003
1.057191e+003, 3.434716e+003
1.057673e+003, 3.432531e+003
1.058156e+003, 3.429178e+003
1.058638e+003, 3.426515e+003
1.059120e+003, 3.426392e+003
1.059602e+003, 3.427972e+003
1.060084e+003, 3.430741e+003
1.060566e+003, 3.434992e+003
1.061048e+003, 3.438030e+003
1.061530e+003, 3.439847e+003
1.062013e+003, 3.440277e+003
1.062495e+003, 3.438669e+003
1.062977e+003, 3.436073e+003
1.063459e+003, 3.434871e+003
1.063941e+003, 3.434858e+003
1.064423e+003, 3.435446e+003
1.064905e+003, 3.437815e+003
1.065387e+003, 3.438761e+003
1.065870e+003, 3.435320e+003
1.066352e+003, 3.431573e+003
1.066834e+003, 3.431649e+003
1.067316e+003, 3.435589e+003
1.067798e+003, 3.437703e+003
1.068280e+003, 3.437804e+003
1.068762e+003, 3.437671e+003
1.069244e+003, 3.439055e+003
1.069726e+003, 3.440356e+003
1.070208e+003, 3.439926e+003
1.070691e+003, 3.438211e+003
1.071173e+003, 3.437294e+003
1.071655e+003, 3.437091e+003
1.072137e+003, 3.438483e+003
1.072619e+003, 3.442353e+003
1.073101e+003, 3.445737e+003
1.073583e+003, 3.442817e+003
1.074065e+003, 3.437437e+003
1.074548e+003, 3.436306e+003
1.075030e+003, 3.441057e+003
1.075512e+003, 3.445119e+003
1.075994e+003, 3.447238e+003
1.076476e+003, 3.447585e+003
1.076958e+003, 3.445376e+003
1.077440e+003, 3.441753e+003
1.077922e+003, 3.441273e+003
1.078405e+003, 3.443388e+003
1.078887e+003, 3.445359e+003
1.079369e+003, 3.445780e+003
1.079851e+003, 3.446484e+003
1.080333e+003, 3.449822e+003
1.080815e+003, 3.453141e+003
1.081297e+003, 3.453287e+003
1.081779e+003, 3.449404e+003
1.082261e+003, 3.447352e+003
1.082744e+003, 3.447192e+003
1.083226e+003, 3.447806e+003
1.083708e+003, 3.448470e+003
1.084190e+003, 3.449387e+003
1.084672e+003, 3.450858e+003
1.085154e+003, 3.452760e+003
1.085636e+003, 3.454773e+003
1.086118e+003, 3.457462e+003
1.086601e+003, 3.458896e+003
1.087083e+003, 3.458584e+003
1.087565e+003, 3.457588e+003
1.088047e+003, 3.457159e+003
1.088529e+003, 3.457080e+003
1.089011e+003, 3.456767e+003
1.089493e+003, 3.456160e+003
1.089975e+003, 3.455981e+003
1.090458e+003, 3.456987e+003
1.090940e+003, 3.457927e+003
1.091422e+003, 3.458147e+003
1.091904e+003, 3.458053e+003
1.092386e+003, 3.459494e+003
1.092868e+003, 3.462020e+003
1.093350e+003, 3.462587e+003
1.093832e+003, 3.459769e+003
1.094314e+003, 3.456587e+003
1.094797e+003, 3.454727e+003
1.095279e+003, 3.453802e+003
1.095761e+003, 3.453611e+003
1.096243e+003, 3.454196e+003
1.096725e+003, 3.454546e+003
1.097207e+003, 3.454607e+003
1.097689e+003, 3.455424e+003
1.098171e+003, 3.458134e+003
1.098653e+003, 3.461366e+003
1.099136e+003, 3.464398e+003
1.099618e+003, 3.466617e+003
1.100100e+003, 3.466705e+003
1.100582e+003, 3.461330e+003
1.101064e+003, 3.459906e+003
1.101546e+003, 3.463949e+003
1.102028e+003, 3.468590e+003
1.102510e+003, 3.468667e+003
1.102993e+003, 3.466275e+003
1.103475e+003, 3.466588e+003
1.103957e+003, 3.469161e+003
1.104439e+003, 3.469992e+003
1.104921e+003, 3.464399e+003
1.105403e+003, 3.460911e+003
1.105885e+003, 3.462371e+003
1.106367e+003, 3.466244e+003
1.106849e+003, 3.468250e+003
1.107332e+003, 3.468703e+003
1.107814e+003, 3.468772e+003
1.108296e+003, 3.468541e+003
1.108778e+003, 3.469589e+003
1.109260e+003, 3.475598e+003
1.109742e+003, 3.480721e+003
1.110224e+003, 3.480350e+003
1.110706e+003, 3.475736e+003
1.111188e+003, 3.473288e+003
1.111671e+003, 3.472983e+003
1.112153e+003, 3.473549e+003
1.112635e+003, 3.474539e+003
1.113117e+003, 3.476241e+003
1.113599e+003, 3.480004e+003
1.114081e+003, 3.484042e+003
1.114563e+003, 3.486179e+003
1.115045e+003, 3.486058e+003
1.115528e+003, 3.484489e+003
1.116010e+003, 3.481021e+003
1.116492e+003, 3.477989e+003
1.116974e+003, 3.476764e+003
1.117456e+003, 3.476765e+003
1.117938e+003, 3.477241e+003
1.118420e+003, 3.478224e+003
1.118902e+003, 3.479746e+003
1.119385e+003, 3.483515e+003
1.119867e+003, 3.485208e+003
1.120349e+003, 3.484269e+003
1.120831e+003, 3.482091e+003
1.121313e+003, 3.479009e+003
1.121795e+003, 3.475874e+003
1.122277e+003, 3.475588e+003
1.122759e+003, 3.477780e+003
1.123241e+003, 3.479850e+003
1.123724e+003, 3.479280e+003
1.124206e+003, 3.480149e+003
1.124688e+003, 3.484635e+003
1.125170e+003, 3.490032e+003
1.125652e+003, 3.491809e+003
1.126134e+003, 3.490461e+003
1.126616e+003, 3.489584e+003
1.127098e+003, 3.489630e+003
1.127580e+003, 3.489140e+003
1.128063e+003, 3.486278e+003
1.128545e+003, 3.483396e+003
1.129027e+003, 3.481812e+003
1.129509e+003, 3.481484e+003
1.129991e+003, 3.482828e+003
1.130473e+003, 3.485930e+003
1.130955e+003, 3.488323e+003
1.131437e+003, 3.489318e+003
1.131920e+003, 3.489839e+003
1.132402e+003, 3.490676e+003
1.132884e+003, 3.491554e+003
1.133366e+003, 3.492155e+003
1.133848e+003, 3.492425e+003
1.134330e+003, 3.492665e+003
1.134812e+003, 3.492634e+003
1.135294e+003, 3.493907e+003
1.135776e+003, 3.497760e+003
1.136259e+003, 3.502198e+003
1.136741e+003, 3.504586e+003
1.137223e+003, 3.505712e+003
1.137705e+003, 3.506784e+003
1.138187e+003, 3.507566e+003
1.138669e+003, 3.509636e+003
1.139151e+003, 3.513754e+003
1.139633e+003, 3.517123e+003
1.140115e+003, 3.517311e+003
1.140598e+003, 3.515734e+003
1.141080e+003, 3.515329e+003
1.141562e+003, 3.515703e+003
1.142044e+003, 3.515730e+003
1.142526e+003, 3.514363e+003
1.143008e+003, 3.513721e+003
1.143490e+003, 3.514522e+003
1.143972e+003, 3.515411e+003
1.144455e+003, 3.514447e+003
1.144937e+003, 3.512550e+003
1.145419e+003, 3.513199e+003
1.145901e+003, 3.516166e+003
1.146383e+003, 3.518686e+003
1.146865e+003, 3.519532e+003
1.147347e+003, 3.519399e+003
1.147829e+003, 3.517819e+003
1.148312e+003, 3.516152e+003
1.148794e+003, 3.516903e+003
1.149276e+003, 3.519658e+003
1.149758e+003, 3.521173e+003
1.150240e+003, 3.521029e+003
1.150722e+003, 3.522078e+003
1.151204e+003, 3.529031e+003
1.151686e+003, 3.534638e+003
1.152168e+003, 3.533458e+003
1.152651e+003, 3.528281e+003
1.153133e+003, 3.527866e+003
1.153615e+003, 3.531913e+003
1.154097e+003, 3.532902e+003
1.154579e+003, 3.528457e+003
1.155061e+003, 3.524236e+003
1.155543e+003, 3.525231e+003
1.156025e+003, 3.528069e+003
1.156507e+003, 3.529935e+003
1.156990e+003, 3.530895e+003
1.157472e+003, 3.532975e+003
1.157954e+003, 3.536317e+003
1.158436e+003, 3.538842e+003
1.158918e+003, 3.539622e+003
1.159400e+003, 3.539958e+003
1.159882e+003, 3.541089e+003
1.160364e+003, 3.542571e+003
1.160847e+003, 3.543928e+003
1.161329e+003, 3.545135e+003
1.161811e+003, 3.546076e+003
1.162293e+003, 3.546719e+003
1.162775e+003, 3.547170e+003
1.163257e+003, 3.547147e+003
1.163739e+003, 3.547329e+003
1.164221e+003, 3.548796e+003
1.164703e+003, 3.550965e+003
1.165186e+003, 3.552937e+003
1.165668e+003, 3.554969e+003
1.166150e+003, 3.555499e+003
1.166632e+003, 3.554204e+003
1.167114e+003, 3.552517e+003
1.167596e+003, 3.550882e+003
1.168078e+003, 3.549890e+003
1.168560e+003, 3.551010e+003
1.169042e+003, 3.553588e+003
1.169525e+003, 3.555864e+003
1.170007e+003, 3.557808e+003
1.170489e+003, 3.558631e+003
1.170971e+003, 3.557998e+003
1.171453e+003, 3.557076e+003
1.171935e+003, 3.557083e+003
1.172417e+003, 3.557576e+003
1.172899e+003, 3.557556e+003
1.173382e+003, 3.557156e+003
1.173864e+003, 3.557166e+003
1.174346e+003, 3.558490e+003
1.174828e+003, 3.559195e+003
1.175310e+003, 3.558541e+003
1.175792e+003, 3.558053e+003
1.176274e+003, 3.560921e+003
1.176756e+003, 3.565125e+003
1.177239e+003, 3.564929e+003
1.177721e+003, 3.560272e+003
1.178203e+003, 3.557686e+003
1.178685e+003, 3.561394e+003
1.179167e+003, 3.565537e+003
1.179649e+003, 3.569260e+003
1.180131e+003, 3.571952e+003
1.180613e+003, 3.571808e+003
1.181095e+003, 3.569827e+003
1.181578e+003, 3.568865e+003
1.182060e+003, 3.569360e+003
1.182542e+003, 3.570640e+003
1.183024e+003, 3.573132e+003
1.183506e+003, 3.575611e+003
1.183988e+003, 3.577838e+003
1.184470e+003, 3.579645e+003
1.184952e+003, 3.580108e+003
1.185434e+003, 3.579743e+003
1.185917e+003, 3.580602e+003
1.186399e+003, 3.583511e+003
1.186881e+003, 3.585779e+003
1.187363e+003, 3.585101e+003
1.187845e+003, 3.584543e+003
1.188327e+003, 3.585588e+003
1.188809e+003, 3.587868e+003
1.189291e+003, 3.590138e+003
1.189774e+003, 3.592426e+003
1.190256e+003, 3.595184e+003
1.190738e+003, 3.599137e+003
1.191220e+003, 3.601792e+003
1.191702e+003, 3.600645e+003
1.192184e+003, 3.598984e+003
1.192666e+003, 3.598921e+003
1.193148e+003, 3.600179e+003
1.193630e+003, 3.601083e+003
1.194113e+003, 3.601644e+003
1.194595e+003, 3.601868e+003
1.195077e+003, 3.601446e+003
1.195559e+003, 3.601318e+003
1.196041e+003, 3.602782e+003
1.196523e+003, 3.604033e+003
1.197005e+003, 3.603347e+003
1.197487e+003, 3.600923e+003
1.197969e+003, 3.600035e+003
1.198452e+003, 3.600555e+003
1.198934e+003, 3.601407e+003
1.199416e+003, 3.602924e+003
1.199898e+003, 3.603519e+003
1.200380e+003, 3.600960e+003
1.200862e+003, 3.598202e+003
1.201344e+003, 3.598401e+003
1.201826e+003, 3.601547e+003
1.202309e+003, 3.604073e+003
1.202791e+003, 3.605948e+003
1.203273e+003, 3.607040e+003
1.203755e+003, 3.606421e+003
1.204237e+003, 3.605983e+003
1.204719e+003, 3.606997e+003
1.205201e+003, 3.608508e+003
1.205683e+003, 3.609442e+003
1.206166e+003, 3.609781e+003
1.206648e+003, 3.609454e+003
1.207130e+003, 3.608539e+003
1.207612e+003, 3.608469e+003
1.208094e+003, 3.611056e+003
1.208576e+003, 3.613749e+003
1.209058e+003, 3.615280e+003
1.209540e+003, 3.615982e+003
1.210022e+003, 3.615941e+003
1.210505e+003, 3.615225e+003
1.210987e+003, 3.616037e+003
1.211469e+003, 3.618505e+003
1.211951e+003, 3.620528e+003
1.212433e+003, 3.620159e+003
1.212915e+003, 3.619603e+003
1.213397e+003, 3.620184e+003
1.213879e+003, 3.621391e+003
1.214361e+003, 3.622720e+003
1.214844e+003, 3.624093e+003
1.215326e+003, 3.623341e+003
1.215808e+003, 3.620199e+003
1.216290e+003, 3.618175e+003
1.216772e+003, 3.620990e+003
1.217254e+003, 3.624155e+003
1.217736e+003, 3.625096e+003
1.218218e+003, 3.624722e+003
1.218701e+003, 3.624768e+003
1.219183e+003, 3.625209e+003
1.219665e+003, 3.626011e+003
1.220147e+003, 3.627151e+003
1.220629e+003, 3.628440e+003
1.221111e+003, 3.629537e+003
1.221593e+003, 3.630997e+003
1.222075e+003, 3.633564e+003
1.222557e+003, 3.636454e+003
1.223040e+003, 3.637665e+003
1.223522e+003, 3.637328e+003
1.224004e+003, 3.636117e+003
1.224486e+003, 3.634044e+003
1.224968e+003, 3.632562e+003
1.225450e+003, 3.633133e+003
1.225932e+003, 3.634033e+003
1.226414e+003, 3.634667e+003
1.226896e+003, 3.634841e+003
1.227379e+003, 3.633152e+003
1.227861e+003, 3.630239e+003
1.228343e+003, 3.629588e+003
1.228825e+003, 3.632234e+003
1.229307e+003, 3.635390e+003
1.229789e+003, 3.638956e+003
1.230271e+003, 3.640838e+003
1.230753e+003, 3.639423e+003
1.231236e+003, 3.635954e+003
1.231718e+003, 3.634583e+003
1.232200e+003, 3.634907e+003
1.232682e+003, 3.635626e+003
1.233164e+003, 3.636593e+003
1.233646e+003, 3.636989e+003
1.234128e+003, 3.635552e+003
1.234610e+003, 3.634444e+003
1.235093e+003, 3.634753e+003
1.235575e+003, 3.636114e+003
1.236057e+003, 3.637582e+003
1.236539e+003, 3.639080e+003
1.237021e+003, 3.640286e+003
1.237503e+003, 3.641164e+003
1.237985e+003, 3.641585e+003
1.238467e+003, 3.640924e+003
1.238949e+003, 3.640527e+003
1.239432e+003, 3.641178e+003
1.239914e+003, 3.642350e+003
1.240396e+003, 3.641992e+003
1.240878e+003, 3.640839e+003
1.241360e+003, 3.641249e+003
1.241842e+003, 3.644831e+003
1.242324e+003, 3.646774e+003
1.242806e+003, 3.644417e+003
1.243288e+003, 3.643000e+003
1.243771e+003, 3.645926e+003
1.244253e+003, 3.650907e+003
1.244735e+003, 3.651618e+003
1.245217e+003, 3.649784e+003
1.245699e+003, 3.649653e+003
1.246181e+003, 3.653430e+003
1.246663e+003, 3.655990e+003
1.247145e+003, 3.656367e+003
1.247628e+003, 3.656429e+003
1.248110e+003, 3.657008e+003
1.248592e+003, 3.658098e+003
1.249074e+003, 3.660584e+003
1.249556e+003, 3.663325e+003
1.250038e+003, 3.663898e+003
1.250520e+003, 3.659865e+003
1.251002e+003, 3.658586e+003
1.251484e+003, 3.661110e+003
1.251967e+003, 3.663872e+003
1.252449e+003, 3.664275e+003
1.252931e+003, 3.664244e+003
1.253413e+003, 3.668125e+003
1.253895e+003, 3.673417e+003
1.254377e+003, 3.675276e+003
1.254859e+003, 3.670266e+003
1.255341e+003, 3.669106e+003
1.255823e+003, 3.672439e+003
1.256306e+003, 3.676532e+003
1.256788e+003, 3.679645e+003
1.257270e+003, 3.681793e+003
1.257752e+003, 3.682708e+003
1.258234e+003, 3.682798e+003
1.258716e+003, 3.682517e+003
1.259198e+003, 3.681518e+003
1.259680e+003, 3.682316e+003
1.260163e+003, 3.685128e+003
1.260645e+003, 3.688318e+003
1.261127e+003, 3.691568e+003
1.261609e+003, 3.694188e+003
1.262091e+003, 3.695872e+003
1.262573e+003, 3.696319e+003
1.263055e+003, 3.694906e+003
1.263537e+003, 3.691291e+003
1.264020e+003, 3.688023e+003
1.264502e+003, 3.685084e+003
1.264984e+003, 3.684985e+003
1.265466e+003, 3.691899e+003
1.265948e+003, 3.698612e+003
1.266430e+003, 3.700366e+003
1.266912e+003, 3.699179e+003
1.267394e+003, 3.697417e+003
1.267876e+003, 3.695094e+003
1.268359e+003, 3.691284e+003
1.268841e+003, 3.686364e+003
1.269323e+003, 3.683754e+003
1.269805e+003, 3.687618e+003
1.270287e+003, 3.691165e+003
1.270769e+003, 3.690802e+003
1.271251e+003, 3.689369e+003
1.271733e+003, 3.689071e+003
1.272215e+003, 3.689760e+003
1.272698e+003, 3.690240e+003
1.273180e+003, 3.690448e+003
1.273662e+003, 3.689967e+003
1.274144e+003, 3.688101e+003
1.274626e+003, 3.686193e+003
1.275108e+003, 3.683619e+003
1.275590e+003, 3.682393e+003
1.276072e+003, 3.685477e+003
1.276555e+003, 3.690926e+003
1.277037e+003, 3.691288e+003
1.277519e+003, 3.688206e+003
1.278001e+003, 3.686559e+003
1.278483e+003, 3.688957e+003
1.278965e+003, 3.691931e+003
1.279447e+003, 3.695883e+003
1.279929e+003, 3.698592e+003
1.280411e+003, 3.697176e+003
1.280894e+003, 3.694024e+003
1.281376e+003, 3.693431e+003
1.281858e+003, 3.694668e+003
1.282340e+003, 3.696079e+003
1.282822e+003, 3.697677e+003
1.283304e+003, 3.698739e+003
1.283786e+003, 3.699250e+003
1.284268e+003, 3.699436e+003
1.284750e+003, 3.698829e+003
1.285233e+003, 3.698567e+003
1.285715e+003, 3.700495e+003
1.286197e+003, 3.703501e+003
1.286679e+003, 3.705656e+003
1.287161e+003, 3.706701e+003
1.287643e+003, 3.707203e+003
1.288125e+003, 3.707087e+003
1.288607e+003, 3.707642e+003
1.289090e+003, 3.711559e+003
1.289572e+003, 3.714167e+003
1.290054e+003, 3.709228e+003
1.290536e+003, 3.702938e+003
1.291018e+003, 3.703362e+003
1.291500e+003, 3.710794e+003
1.291982e+003, 3.716399e+003
1.292464e+003, 3.720058e+003
1.292947e+003, 3.721028e+003
1.293429e+003, 3.717335e+003
1.293911e+003, 3.713128e+003
1.294393e+003, 3.709263e+003
1.294875e+003, 3.706739e+003
1.295357e+003, 3.706788e+003
1.295839e+003, 3.708886e+003
1.296321e+003, 3.710751e+003
1.296803e+003, 3.712470e+003
1.297286e+003, 3.713999e+003
1.297768e+003, 3.715351e+003
1.298250e+003, 3.716522e+003
1.298732e+003, 3.717601e+003
1.299214e+003, 3.718607e+003
1.299696e+003, 3.719245e+003
1.300178e+003, 3.719608e+003
1.300660e+003, 3.721315e+003
##END=



