##NAMES=Whiteite-(CaFeMg)
##RRUFFID=R130055
##IDEAL CHEMISTRY=CaFe^2+^Mg_2_Al_2_(PO_4_)_4_(OH)_2_&#183;8H_2_O
##LOCALITY=Tip Top mine, Custer, South Dakota, USA
##OWNER=RRUFF
##SOURCE=Thomas A. Loomis
##DESCRIPTION=Colorless to pale yellow blocky hexagonal crystals, associated with R130054, roscherite
##STATUS=The identification of this mineral has been confirmed only by single crystal X-ray diffraction.
##URL=rruff.info/R130055
8.975323e+001, 0.000000e+000
9.023535e+001, 2.381893e+002
9.071747e+001, 2.395759e+002
9.119958e+001, 2.391615e+002
9.168170e+001, 2.397036e+002
9.216382e+001, 2.385469e+002
9.264594e+001, 2.362866e+002
9.312805e+001, 2.338597e+002
9.361017e+001, 2.312243e+002
9.409229e+001, 2.268162e+002
9.457440e+001, 2.186792e+002
9.505651e+001, 2.121630e+002
9.553863e+001, 2.080456e+002
9.602074e+001, 2.050915e+002
9.650286e+001, 2.023213e+002
9.698498e+001, 1.991947e+002
9.746709e+001, 1.953731e+002
9.794921e+001, 1.913464e+002
9.843133e+001, 1.865487e+002
9.891344e+001, 1.822415e+002
9.939556e+001, 1.787519e+002
9.987768e+001, 1.759235e+002
1.003598e+002, 1.734733e+002
1.008419e+002, 1.713174e+002
1.013240e+002, 1.693838e+002
1.018061e+002, 1.673587e+002
1.022883e+002, 1.650126e+002
1.027704e+002, 1.626859e+002
1.032525e+002, 1.606913e+002
1.037346e+002, 1.590242e+002
1.042167e+002, 1.575982e+002
1.046988e+002, 1.564571e+002
1.051810e+002, 1.554583e+002
1.056631e+002, 1.544122e+002
1.061452e+002, 1.532728e+002
1.066273e+002, 1.520200e+002
1.071094e+002, 1.505658e+002
1.075915e+002, 1.488321e+002
1.080737e+002, 1.469478e+002
1.085558e+002, 1.447329e+002
1.090379e+002, 1.423760e+002
1.095200e+002, 1.403294e+002
1.100021e+002, 1.390674e+002
1.104842e+002, 1.387689e+002
1.109664e+002, 1.383537e+002
1.114485e+002, 1.377268e+002
1.119306e+002, 1.370716e+002
1.124127e+002, 1.364938e+002
1.128948e+002, 1.359980e+002
1.133769e+002, 1.354949e+002
1.138591e+002, 1.348658e+002
1.143412e+002, 1.340670e+002
1.148233e+002, 1.331725e+002
1.153054e+002, 1.320401e+002
1.157875e+002, 1.308746e+002
1.162696e+002, 1.298975e+002
1.167517e+002, 1.291911e+002
1.172339e+002, 1.286338e+002
1.177160e+002, 1.279331e+002
1.181981e+002, 1.269764e+002
1.186802e+002, 1.261264e+002
1.191623e+002, 1.255853e+002
1.196444e+002, 1.252475e+002
1.201266e+002, 1.248139e+002
1.206087e+002, 1.241321e+002
1.210908e+002, 1.232797e+002
1.215729e+002, 1.224502e+002
1.220550e+002, 1.216423e+002
1.225371e+002, 1.208577e+002
1.230193e+002, 1.201229e+002
1.235014e+002, 1.194442e+002
1.239835e+002, 1.187455e+002
1.244656e+002, 1.179694e+002
1.249477e+002, 1.171661e+002
1.254298e+002, 1.163459e+002
1.259120e+002, 1.154689e+002
1.263941e+002, 1.146428e+002
1.268762e+002, 1.141796e+002
1.273583e+002, 1.144260e+002
1.278404e+002, 1.144472e+002
1.283225e+002, 1.138542e+002
1.288047e+002, 1.129278e+002
1.292868e+002, 1.120426e+002
1.297689e+002, 1.114426e+002
1.302510e+002, 1.111041e+002
1.307331e+002, 1.106828e+002
1.312152e+002, 1.101302e+002
1.316974e+002, 1.095320e+002
1.321795e+002, 1.088184e+002
1.326616e+002, 1.080620e+002
1.331437e+002, 1.074273e+002
1.336258e+002, 1.070740e+002
1.341079e+002, 1.070646e+002
1.345901e+002, 1.069218e+002
1.350722e+002, 1.066733e+002
1.355543e+002, 1.063031e+002
1.360364e+002, 1.057185e+002
1.365185e+002, 1.049440e+002
1.370006e+002, 1.041835e+002
1.374828e+002, 1.036878e+002
1.379649e+002, 1.035159e+002
1.384470e+002, 1.033476e+002
1.389291e+002, 1.032016e+002
1.394112e+002, 1.030370e+002
1.398933e+002, 1.028255e+002
1.403755e+002, 1.025759e+002
1.408576e+002, 1.022236e+002
1.413397e+002, 1.015678e+002
1.418218e+002, 1.006321e+002
1.423039e+002, 9.987662e+001
1.427860e+002, 9.964126e+001
1.432681e+002, 9.977406e+001
1.437503e+002, 9.970960e+001
1.442324e+002, 9.922910e+001
1.447145e+002, 9.861208e+001
1.451966e+002, 9.809948e+001
1.456787e+002, 9.769657e+001
1.461608e+002, 9.735554e+001
1.466430e+002, 9.702892e+001
1.471251e+002, 9.670998e+001
1.476072e+002, 9.646642e+001
1.480893e+002, 9.643952e+001
1.485714e+002, 9.640998e+001
1.490535e+002, 9.619753e+001
1.495357e+002, 9.577897e+001
1.500178e+002, 9.535428e+001
1.504999e+002, 9.528177e+001
1.509820e+002, 9.586746e+001
1.514641e+002, 9.612439e+001
1.519462e+002, 9.580157e+001
1.524284e+002, 9.527383e+001
1.529105e+002, 9.478851e+001
1.533926e+002, 9.444773e+001
1.538747e+002, 9.424471e+001
1.543568e+002, 9.417656e+001
1.548389e+002, 9.469404e+001
1.553211e+002, 9.477882e+001
1.558032e+002, 9.385185e+001
1.562853e+002, 9.262556e+001
1.567674e+002, 9.207827e+001
1.572495e+002, 9.274131e+001
1.577316e+002, 9.421253e+001
1.582138e+002, 9.475066e+001
1.586959e+002, 9.372756e+001
1.591780e+002, 9.263297e+001
1.596601e+002, 9.166663e+001
1.601422e+002, 9.087931e+001
1.606243e+002, 9.042184e+001
1.611065e+002, 9.047910e+001
1.615886e+002, 9.088160e+001
1.620707e+002, 9.086777e+001
1.625528e+002, 8.999715e+001
1.630349e+002, 8.916413e+001
1.635170e+002, 8.901131e+001
1.639991e+002, 8.946814e+001
1.644813e+002, 8.984023e+001
1.649634e+002, 8.966298e+001
1.654455e+002, 8.909465e+001
1.659276e+002, 8.853324e+001
1.664097e+002, 8.792993e+001
1.668918e+002, 8.741740e+001
1.673740e+002, 8.721761e+001
1.678561e+002, 8.740488e+001
1.683382e+002, 8.755224e+001
1.688203e+002, 8.732488e+001
1.693024e+002, 8.692829e+001
1.697845e+002, 8.660623e+001
1.702667e+002, 8.647807e+001
1.707488e+002, 8.646448e+001
1.712309e+002, 8.641304e+001
1.717130e+002, 8.640707e+001
1.721951e+002, 8.618479e+001
1.726772e+002, 8.543974e+001
1.731594e+002, 8.448936e+001
1.736415e+002, 8.379407e+001
1.741236e+002, 8.366772e+001
1.746057e+002, 8.401387e+001
1.750878e+002, 8.424947e+001
1.755699e+002, 8.426299e+001
1.760521e+002, 8.428380e+001
1.765342e+002, 8.439696e+001
1.770163e+002, 8.456055e+001
1.774984e+002, 8.470547e+001
1.779805e+002, 8.479396e+001
1.784626e+002, 8.482658e+001
1.789448e+002, 8.469670e+001
1.794269e+002, 8.415069e+001
1.799090e+002, 8.369106e+001
1.803911e+002, 8.354916e+001
1.808732e+002, 8.363676e+001
1.813553e+002, 8.370692e+001
1.818375e+002, 8.354213e+001
1.823196e+002, 8.311085e+001
1.828017e+002, 8.274105e+001
1.832838e+002, 8.245324e+001
1.837659e+002, 8.219168e+001
1.842480e+002, 8.191732e+001
1.847301e+002, 8.163705e+001
1.852123e+002, 8.140213e+001
1.856944e+002, 8.127706e+001
1.861765e+002, 8.128435e+001
1.866586e+002, 8.118598e+001
1.871407e+002, 8.095558e+001
1.876228e+002, 8.064609e+001
1.881050e+002, 8.025120e+001
1.885871e+002, 7.977959e+001
1.890692e+002, 7.933623e+001
1.895513e+002, 7.901132e+001
1.900334e+002, 7.881197e+001
1.905155e+002, 7.873206e+001
1.909977e+002, 7.902743e+001
1.914798e+002, 7.932649e+001
1.919619e+002, 7.909472e+001
1.924440e+002, 7.817892e+001
1.929261e+002, 7.722269e+001
1.934082e+002, 7.694616e+001
1.938904e+002, 7.715833e+001
1.943725e+002, 7.734233e+001
1.948546e+002, 7.737363e+001
1.953367e+002, 7.726689e+001
1.958188e+002, 7.702772e+001
1.963009e+002, 7.660869e+001
1.967831e+002, 7.615860e+001
1.972652e+002, 7.573673e+001
1.977473e+002, 7.535938e+001
1.982294e+002, 7.509595e+001
1.987115e+002, 7.501759e+001
1.991936e+002, 7.509040e+001
1.996758e+002, 7.518419e+001
2.001579e+002, 7.536341e+001
2.006400e+002, 7.546004e+001
2.011221e+002, 7.527892e+001
2.016042e+002, 7.494057e+001
2.020863e+002, 7.474937e+001
2.025685e+002, 7.504040e+001
2.030506e+002, 7.576775e+001
2.035327e+002, 7.611758e+001
2.040148e+002, 7.573853e+001
2.044969e+002, 7.531295e+001
2.049790e+002, 7.504923e+001
2.054612e+002, 7.494683e+001
2.059433e+002, 7.496243e+001
2.064254e+002, 7.510580e+001
2.069075e+002, 7.539265e+001
2.073896e+002, 7.549725e+001
2.078717e+002, 7.511141e+001
2.083539e+002, 7.481652e+001
2.088360e+002, 7.482309e+001
2.093181e+002, 7.508911e+001
2.098002e+002, 7.547808e+001
2.102823e+002, 7.592068e+001
2.107644e+002, 7.647047e+001
2.112466e+002, 7.655766e+001
2.117287e+002, 7.569530e+001
2.122108e+002, 7.487125e+001
2.126929e+002, 7.445810e+001
2.131750e+002, 7.444227e+001
2.136571e+002, 7.463818e+001
2.141393e+002, 7.491260e+001
2.146214e+002, 7.531358e+001
2.151035e+002, 7.542030e+001
2.155856e+002, 7.507314e+001
2.160677e+002, 7.464688e+001
2.165498e+002, 7.427926e+001
2.170320e+002, 7.399571e+001
2.175141e+002, 7.377463e+001
2.179962e+002, 7.357757e+001
2.184783e+002, 7.339205e+001
2.189604e+002, 7.350142e+001
2.194425e+002, 7.424011e+001
2.199247e+002, 7.496708e+001
2.204068e+002, 7.530254e+001
2.208889e+002, 7.523533e+001
2.213710e+002, 7.494418e+001
2.218531e+002, 7.451060e+001
2.223352e+002, 7.393362e+001
2.228174e+002, 7.364192e+001
2.232995e+002, 7.392967e+001
2.237816e+002, 7.428352e+001
2.242637e+002, 7.425863e+001
2.247458e+002, 7.384856e+001
2.252279e+002, 7.345154e+001
2.257100e+002, 7.342404e+001
2.261922e+002, 7.372195e+001
2.266743e+002, 7.390481e+001
2.271564e+002, 7.383332e+001
2.276385e+002, 7.370654e+001
2.281206e+002, 7.370004e+001
2.286027e+002, 7.382340e+001
2.290849e+002, 7.402001e+001
2.295670e+002, 7.437586e+001
2.300491e+002, 7.476863e+001
2.305312e+002, 7.485813e+001
2.310133e+002, 7.429479e+001
2.314954e+002, 7.356438e+001
2.319776e+002, 7.324721e+001
2.324597e+002, 7.339308e+001
2.329418e+002, 7.360227e+001
2.334239e+002, 7.360326e+001
2.339060e+002, 7.350791e+001
2.343881e+002, 7.348465e+001
2.348703e+002, 7.358203e+001
2.353524e+002, 7.376402e+001
2.358345e+002, 7.403255e+001
2.363166e+002, 7.443887e+001
2.367987e+002, 7.472100e+001
2.372808e+002, 7.463474e+001
2.377630e+002, 7.438229e+001
2.382451e+002, 7.417972e+001
2.387272e+002, 7.411805e+001
2.392093e+002, 7.409798e+001
2.396914e+002, 7.396536e+001
2.401735e+002, 7.370450e+001
2.406557e+002, 7.337529e+001
2.411378e+002, 7.294296e+001
2.416199e+002, 7.248132e+001
2.421020e+002, 7.205862e+001
2.425841e+002, 7.170043e+001
2.430662e+002, 7.138755e+001
2.435484e+002, 7.108652e+001
2.440305e+002, 7.079155e+001
2.445126e+002, 7.052811e+001
2.449947e+002, 7.027885e+001
2.454768e+002, 7.007314e+001
2.459589e+002, 6.996337e+001
2.464410e+002, 6.997270e+001
2.469232e+002, 7.001557e+001
2.474053e+002, 6.993583e+001
2.478874e+002, 6.968094e+001
2.483695e+002, 6.942440e+001
2.488516e+002, 6.922314e+001
2.493337e+002, 6.901832e+001
2.498159e+002, 6.871744e+001
2.502980e+002, 6.829958e+001
2.507801e+002, 6.790667e+001
2.512622e+002, 6.782920e+001
2.517443e+002, 6.833495e+001
2.522264e+002, 6.853894e+001
2.527086e+002, 6.818516e+001
2.531907e+002, 6.766921e+001
2.536728e+002, 6.729170e+001
2.541549e+002, 6.711907e+001
2.546370e+002, 6.697550e+001
2.551191e+002, 6.652885e+001
2.556013e+002, 6.542244e+001
2.560834e+002, 6.481526e+001
2.565655e+002, 6.505156e+001
2.570476e+002, 6.545992e+001
2.575297e+002, 6.559605e+001
2.580118e+002, 6.538467e+001
2.584940e+002, 6.505486e+001
2.589761e+002, 6.492013e+001
2.594582e+002, 6.508140e+001
2.599403e+002, 6.518997e+001
2.604224e+002, 6.526585e+001
2.609045e+002, 6.528822e+001
2.613867e+002, 6.524011e+001
2.618688e+002, 6.512225e+001
2.623509e+002, 6.494197e+001
2.628330e+002, 6.468034e+001
2.633151e+002, 6.424156e+001
2.637972e+002, 6.409890e+001
2.642794e+002, 6.452082e+001
2.647615e+002, 6.495428e+001
2.652436e+002, 6.506153e+001
2.657257e+002, 6.485829e+001
2.662078e+002, 6.459346e+001
2.666899e+002, 6.451588e+001
2.671721e+002, 6.467019e+001
2.676542e+002, 6.472742e+001
2.681363e+002, 6.464915e+001
2.686184e+002, 6.453123e+001
2.691005e+002, 6.440255e+001
2.695826e+002, 6.427287e+001
2.700648e+002, 6.415556e+001
2.705469e+002, 6.406611e+001
2.710290e+002, 6.400738e+001
2.715111e+002, 6.390018e+001
2.719932e+002, 6.367298e+001
2.724753e+002, 6.347765e+001
2.729575e+002, 6.337463e+001
2.734396e+002, 6.335683e+001
2.739217e+002, 6.339721e+001
2.744038e+002, 6.348242e+001
2.748859e+002, 6.360965e+001
2.753680e+002, 6.374373e+001
2.758501e+002, 6.397169e+001
2.763322e+002, 6.411475e+001
2.768144e+002, 6.406058e+001
2.772965e+002, 6.387511e+001
2.777786e+002, 6.371179e+001
2.782607e+002, 6.366081e+001
2.787428e+002, 6.368496e+001
2.792249e+002, 6.361926e+001
2.797071e+002, 6.362342e+001
2.801892e+002, 6.338054e+001
2.806713e+002, 6.251337e+001
2.811534e+002, 6.137963e+001
2.816355e+002, 6.066476e+001
2.821176e+002, 6.070431e+001
2.825998e+002, 6.119482e+001
2.830819e+002, 6.136359e+001
2.835640e+002, 6.111348e+001
2.840461e+002, 6.079459e+001
2.845282e+002, 6.033281e+001
2.850103e+002, 5.988106e+001
2.854925e+002, 5.972414e+001
2.859746e+002, 5.998325e+001
2.864567e+002, 6.038908e+001
2.869388e+002, 6.046753e+001
2.874209e+002, 6.012432e+001
2.879030e+002, 5.981222e+001
2.883852e+002, 5.965079e+001
2.888673e+002, 5.953714e+001
2.893494e+002, 5.933593e+001
2.898315e+002, 5.901384e+001
2.903136e+002, 5.865603e+001
2.907957e+002, 5.833529e+001
2.912779e+002, 5.804050e+001
2.917600e+002, 5.790749e+001
2.922421e+002, 5.818941e+001
2.927242e+002, 5.850415e+001
2.932063e+002, 5.839326e+001
2.936884e+002, 5.780627e+001
2.941706e+002, 5.719832e+001
2.946527e+002, 5.701119e+001
2.951348e+002, 5.725788e+001
2.956169e+002, 5.740273e+001
2.960990e+002, 5.734431e+001
2.965811e+002, 5.723847e+001
2.970633e+002, 5.723346e+001
2.975454e+002, 5.732203e+001
2.980275e+002, 5.734535e+001
2.985096e+002, 5.714904e+001
2.989917e+002, 5.678664e+001
2.994738e+002, 5.660348e+001
2.999560e+002, 5.676140e+001
3.004381e+002, 5.694823e+001
3.009202e+002, 5.702141e+001
3.014023e+002, 5.697897e+001
3.018844e+002, 5.680522e+001
3.023665e+002, 5.643998e+001
3.028487e+002, 5.597288e+001
3.033308e+002, 5.566076e+001
3.038129e+002, 5.548685e+001
3.042950e+002, 5.546387e+001
3.047771e+002, 5.575819e+001
3.052592e+002, 5.621949e+001
3.057414e+002, 5.643412e+001
3.062235e+002, 5.620597e+001
3.067056e+002, 5.573308e+001
3.071877e+002, 5.538511e+001
3.076698e+002, 5.516813e+001
3.081519e+002, 5.499935e+001
3.086341e+002, 5.483886e+001
3.091162e+002, 5.471244e+001
3.095983e+002, 5.470409e+001
3.100804e+002, 5.486250e+001
3.105625e+002, 5.502147e+001
3.110446e+002, 5.488104e+001
3.115268e+002, 5.442020e+001
3.120089e+002, 5.417434e+001
3.124910e+002, 5.446789e+001
3.129731e+002, 5.492952e+001
3.134552e+002, 5.507015e+001
3.139373e+002, 5.480866e+001
3.144195e+002, 5.451986e+001
3.149016e+002, 5.463250e+001
3.153837e+002, 5.509890e+001
3.158658e+002, 5.521726e+001
3.163479e+002, 5.457227e+001
3.168300e+002, 5.381239e+001
3.173121e+002, 5.350739e+001
3.177943e+002, 5.364990e+001
3.182764e+002, 5.385659e+001
3.187585e+002, 5.390414e+001
3.192406e+002, 5.379977e+001
3.197227e+002, 5.364621e+001
3.202048e+002, 5.340574e+001
3.206870e+002, 5.315503e+001
3.211691e+002, 5.286623e+001
3.216512e+002, 5.258477e+001
3.221333e+002, 5.249066e+001
3.226154e+002, 5.271303e+001
3.230975e+002, 5.312374e+001
3.235797e+002, 5.340229e+001
3.240618e+002, 5.356566e+001
3.245439e+002, 5.360378e+001
3.250260e+002, 5.341748e+001
3.255081e+002, 5.311705e+001
3.259902e+002, 5.291498e+001
3.264724e+002, 5.288539e+001
3.269545e+002, 5.294429e+001
3.274366e+002, 5.297799e+001
3.279187e+002, 5.299384e+001
3.284008e+002, 5.295930e+001
3.288829e+002, 5.277446e+001
3.293651e+002, 5.257903e+001
3.298472e+002, 5.253955e+001
3.303293e+002, 5.268460e+001
3.308114e+002, 5.294332e+001
3.312935e+002, 5.331886e+001
3.317756e+002, 5.381971e+001
3.322578e+002, 5.400388e+001
3.327399e+002, 5.358434e+001
3.332220e+002, 5.304991e+001
3.337041e+002, 5.277856e+001
3.341862e+002, 5.275777e+001
3.346683e+002, 5.270882e+001
3.351505e+002, 5.240458e+001
3.356326e+002, 5.190731e+001
3.361147e+002, 5.167031e+001
3.365968e+002, 5.183490e+001
3.370789e+002, 5.207362e+001
3.375610e+002, 5.230052e+001
3.380432e+002, 5.249895e+001
3.385253e+002, 5.261076e+001
3.390074e+002, 5.258891e+001
3.394895e+002, 5.251218e+001
3.399716e+002, 5.262236e+001
3.404537e+002, 5.314676e+001
3.409359e+002, 5.342529e+001
3.414180e+002, 5.316859e+001
3.419001e+002, 5.265686e+001
3.423822e+002, 5.221873e+001
3.428643e+002, 5.194907e+001
3.433464e+002, 5.181794e+001
3.438286e+002, 5.179195e+001
3.443107e+002, 5.189959e+001
3.447928e+002, 5.205962e+001
3.452749e+002, 5.238886e+001
3.457570e+002, 5.268809e+001
3.462391e+002, 5.279145e+001
3.467213e+002, 5.269459e+001
3.472034e+002, 5.250112e+001
3.476855e+002, 5.228661e+001
3.481676e+002, 5.204707e+001
3.486497e+002, 5.189775e+001
3.491318e+002, 5.192308e+001
3.496140e+002, 5.193815e+001
3.500961e+002, 5.183622e+001
3.505782e+002, 5.166152e+001
3.510603e+002, 5.153582e+001
3.515424e+002, 5.154000e+001
3.520245e+002, 5.162683e+001
3.525067e+002, 5.158947e+001
3.529888e+002, 5.120625e+001
3.534709e+002, 5.097374e+001
3.539530e+002, 5.110893e+001
3.544351e+002, 5.136427e+001
3.549172e+002, 5.141730e+001
3.553994e+002, 5.116117e+001
3.558815e+002, 5.078693e+001
3.563636e+002, 5.061765e+001
3.568457e+002, 5.075802e+001
3.573278e+002, 5.091032e+001
3.578099e+002, 5.116907e+001
3.582920e+002, 5.136922e+001
3.587741e+002, 5.137014e+001
3.592563e+002, 5.117941e+001
3.597384e+002, 5.091411e+001
3.602205e+002, 5.067213e+001
3.607026e+002, 5.044268e+001
3.611847e+002, 5.034876e+001
3.616668e+002, 5.059125e+001
3.621490e+002, 5.075266e+001
3.626311e+002, 5.059972e+001
3.631132e+002, 5.026944e+001
3.635953e+002, 5.004851e+001
3.640774e+002, 5.012172e+001
3.645595e+002, 5.040277e+001
3.650417e+002, 5.052099e+001
3.655238e+002, 5.034177e+001
3.660059e+002, 5.017353e+001
3.664880e+002, 5.009751e+001
3.669701e+002, 5.002747e+001
3.674522e+002, 4.984818e+001
3.679344e+002, 4.953233e+001
3.684165e+002, 4.919248e+001
3.688986e+002, 4.901180e+001
3.693807e+002, 4.905246e+001
3.698628e+002, 4.908820e+001
3.703449e+002, 4.919580e+001
3.708271e+002, 4.922800e+001
3.713092e+002, 4.906099e+001
3.717913e+002, 4.872609e+001
3.722734e+002, 4.837188e+001
3.727555e+002, 4.813441e+001
3.732376e+002, 4.800989e+001
3.737198e+002, 4.783897e+001
3.742019e+002, 4.742530e+001
3.746840e+002, 4.722527e+001
3.751661e+002, 4.756519e+001
3.756482e+002, 4.816277e+001
3.761303e+002, 4.857784e+001
3.766125e+002, 4.858145e+001
3.770946e+002, 4.832496e+001
3.775767e+002, 4.811690e+001
3.780588e+002, 4.793279e+001
3.785409e+002, 4.787044e+001
3.790230e+002, 4.814345e+001
3.795052e+002, 4.843412e+001
3.799873e+002, 4.846839e+001
3.804694e+002, 4.819394e+001
3.809515e+002, 4.782130e+001
3.814336e+002, 4.753065e+001
3.819157e+002, 4.732107e+001
3.823979e+002, 4.719793e+001
3.828800e+002, 4.720819e+001
3.833621e+002, 4.725549e+001
3.838442e+002, 4.727215e+001
3.843263e+002, 4.726609e+001
3.848084e+002, 4.726909e+001
3.852906e+002, 4.730957e+001
3.857727e+002, 4.736875e+001
3.862548e+002, 4.744164e+001
3.867369e+002, 4.757396e+001
3.872190e+002, 4.754990e+001
3.877011e+002, 4.700147e+001
3.881833e+002, 4.628323e+001
3.886654e+002, 4.593577e+001
3.891475e+002, 4.620301e+001
3.896296e+002, 4.659960e+001
3.901117e+002, 4.668739e+001
3.905938e+002, 4.650511e+001
3.910760e+002, 4.635123e+001
3.915581e+002, 4.632473e+001
3.920402e+002, 4.636766e+001
3.925223e+002, 4.640339e+001
3.930044e+002, 4.643257e+001
3.934865e+002, 4.645477e+001
3.939687e+002, 4.650288e+001
3.944508e+002, 4.653349e+001
3.949329e+002, 4.644363e+001
3.954150e+002, 4.620510e+001
3.958971e+002, 4.598166e+001
3.963792e+002, 4.590681e+001
3.968614e+002, 4.598335e+001
3.973435e+002, 4.613346e+001
3.978256e+002, 4.645495e+001
3.983077e+002, 4.676187e+001
3.987898e+002, 4.696142e+001
3.992719e+002, 4.704870e+001
3.997540e+002, 4.699966e+001
4.002361e+002, 4.677570e+001
4.007183e+002, 4.644990e+001
4.012004e+002, 4.623912e+001
4.016825e+002, 4.617608e+001
4.021646e+002, 4.614766e+001
4.026467e+002, 4.610742e+001
4.031288e+002, 4.610419e+001
4.036110e+002, 4.623086e+001
4.040931e+002, 4.649805e+001
4.045752e+002, 4.678042e+001
4.050573e+002, 4.693818e+001
4.055394e+002, 4.696167e+001
4.060215e+002, 4.687590e+001
4.065037e+002, 4.649493e+001
4.069858e+002, 4.619525e+001
4.074679e+002, 4.622721e+001
4.079500e+002, 4.649741e+001
4.084321e+002, 4.675082e+001
4.089142e+002, 4.683009e+001
4.093964e+002, 4.676753e+001
4.098785e+002, 4.671198e+001
4.103606e+002, 4.657826e+001
4.108427e+002, 4.657167e+001
4.113248e+002, 4.683479e+001
4.118069e+002, 4.716090e+001
4.122891e+002, 4.731825e+001
4.127712e+002, 4.726249e+001
4.132533e+002, 4.717438e+001
4.137354e+002, 4.732085e+001
4.142175e+002, 4.779272e+001
4.146996e+002, 4.813646e+001
4.151818e+002, 4.825091e+001
4.156639e+002, 4.832583e+001
4.161460e+002, 4.840532e+001
4.166281e+002, 4.850356e+001
4.171102e+002, 4.863567e+001
4.175923e+002, 4.882129e+001
4.180745e+002, 4.903965e+001
4.185566e+002, 4.923277e+001
4.190387e+002, 4.942808e+001
4.195208e+002, 4.953113e+001
4.200029e+002, 4.945050e+001
4.204850e+002, 4.930428e+001
4.209672e+002, 4.916180e+001
4.214493e+002, 4.903524e+001
4.219314e+002, 4.902172e+001
4.224135e+002, 4.934927e+001
4.228956e+002, 4.998718e+001
4.233777e+002, 5.027471e+001
4.238599e+002, 4.989319e+001
4.243420e+002, 4.944204e+001
4.248241e+002, 4.935695e+001
4.253062e+002, 4.958091e+001
4.257883e+002, 4.991858e+001
4.262704e+002, 5.042403e+001
4.267526e+002, 5.093596e+001
4.272347e+002, 5.119213e+001
4.277168e+002, 5.118319e+001
4.281989e+002, 5.108714e+001
4.286810e+002, 5.094040e+001
4.291631e+002, 5.079531e+001
4.296453e+002, 5.077985e+001
4.301274e+002, 5.099805e+001
4.306095e+002, 5.110988e+001
4.310916e+002, 5.078486e+001
4.315737e+002, 5.025875e+001
4.320558e+002, 5.005748e+001
4.325380e+002, 5.034309e+001
4.330201e+002, 5.074068e+001
4.335022e+002, 5.079038e+001
4.339843e+002, 5.042709e+001
4.344664e+002, 5.023644e+001
4.349485e+002, 5.047417e+001
4.354307e+002, 5.068843e+001
4.359128e+002, 5.052513e+001
4.363949e+002, 5.006291e+001
4.368770e+002, 4.961252e+001
4.373591e+002, 4.935331e+001
4.378412e+002, 4.924414e+001
4.383234e+002, 4.913403e+001
4.388055e+002, 4.902584e+001
4.392876e+002, 4.891309e+001
4.397697e+002, 4.872868e+001
4.402518e+002, 4.857801e+001
4.407339e+002, 4.860805e+001
4.412160e+002, 4.882353e+001
4.416982e+002, 4.905644e+001
4.421803e+002, 4.911060e+001
4.426624e+002, 4.896252e+001
4.431445e+002, 4.880935e+001
4.436266e+002, 4.854805e+001
4.441087e+002, 4.839076e+001
4.445909e+002, 4.847003e+001
4.450730e+002, 4.868625e+001
4.455551e+002, 4.890347e+001
4.460372e+002, 4.906371e+001
4.465193e+002, 4.912087e+001
4.470014e+002, 4.891510e+001
4.474836e+002, 4.829382e+001
4.479657e+002, 4.786687e+001
4.484478e+002, 4.793095e+001
4.489299e+002, 4.808911e+001
4.494120e+002, 4.808776e+001
4.498941e+002, 4.791932e+001
4.503763e+002, 4.775022e+001
4.508584e+002, 4.773777e+001
4.513405e+002, 4.783596e+001
4.518226e+002, 4.781958e+001
4.523047e+002, 4.760804e+001
4.527868e+002, 4.747390e+001
4.532690e+002, 4.762660e+001
4.537511e+002, 4.794749e+001
4.542332e+002, 4.831556e+001
4.547153e+002, 4.879878e+001
4.551974e+002, 4.913866e+001
4.556795e+002, 4.905363e+001
4.561617e+002, 4.862255e+001
4.566438e+002, 4.814286e+001
4.571259e+002, 4.762460e+001
4.576080e+002, 4.724387e+001
4.580901e+002, 4.733816e+001
4.585722e+002, 4.790129e+001
4.590544e+002, 4.834392e+001
4.595365e+002, 4.846496e+001
4.600186e+002, 4.849243e+001
4.605007e+002, 4.863155e+001
4.609828e+002, 4.887315e+001
4.614649e+002, 4.908425e+001
4.619471e+002, 4.917460e+001
4.624292e+002, 4.918256e+001
4.629113e+002, 4.927089e+001
4.633934e+002, 4.965930e+001
4.638755e+002, 4.983685e+001
4.643576e+002, 4.950701e+001
4.648398e+002, 4.906890e+001
4.653219e+002, 4.899785e+001
4.658040e+002, 4.934942e+001
4.662861e+002, 4.974085e+001
4.667682e+002, 4.971354e+001
4.672503e+002, 4.918779e+001
4.677325e+002, 4.901377e+001
4.682146e+002, 4.961110e+001
4.686967e+002, 5.011584e+001
4.691788e+002, 5.023279e+001
4.696609e+002, 5.012776e+001
4.701430e+002, 5.007117e+001
4.706252e+002, 5.018475e+001
4.711073e+002, 5.035020e+001
4.715894e+002, 5.033544e+001
4.720715e+002, 5.008369e+001
4.725536e+002, 4.990267e+001
4.730357e+002, 4.986446e+001
4.735179e+002, 4.989000e+001
4.740000e+002, 4.996135e+001
4.744821e+002, 5.006356e+001
4.749642e+002, 5.015358e+001
4.754463e+002, 5.017776e+001
4.759284e+002, 5.018217e+001
4.764106e+002, 5.028489e+001
4.768927e+002, 5.050321e+001
4.773748e+002, 5.071021e+001
4.778569e+002, 5.086332e+001
4.783390e+002, 5.095740e+001
4.788211e+002, 5.098847e+001
4.793033e+002, 5.094859e+001
4.797854e+002, 5.087350e+001
4.802675e+002, 5.072120e+001
4.807496e+002, 5.056042e+001
4.812317e+002, 5.051847e+001
4.817138e+002, 5.061879e+001
4.821959e+002, 5.081409e+001
4.826780e+002, 5.110632e+001
4.831602e+002, 5.148522e+001
4.836423e+002, 5.168594e+001
4.841244e+002, 5.154649e+001
4.846065e+002, 5.141609e+001
4.850886e+002, 5.151228e+001
4.855707e+002, 5.169787e+001
4.860529e+002, 5.168449e+001
4.865350e+002, 5.136726e+001
4.870171e+002, 5.096675e+001
4.874992e+002, 5.085751e+001
4.879813e+002, 5.117391e+001
4.884634e+002, 5.141856e+001
4.889456e+002, 5.162495e+001
4.894277e+002, 5.174150e+001
4.899098e+002, 5.171285e+001
4.903919e+002, 5.157463e+001
4.908740e+002, 5.138643e+001
4.913561e+002, 5.116902e+001
4.918383e+002, 5.096997e+001
4.923204e+002, 5.096395e+001
4.928025e+002, 5.128838e+001
4.932846e+002, 5.142564e+001
4.937667e+002, 5.107207e+001
4.942488e+002, 5.063483e+001
4.947310e+002, 5.036566e+001
4.952131e+002, 5.028235e+001
4.956952e+002, 5.027505e+001
4.961773e+002, 5.031932e+001
4.966594e+002, 5.037879e+001
4.971415e+002, 5.036708e+001
4.976237e+002, 5.029124e+001
4.981058e+002, 5.009317e+001
4.985879e+002, 4.963868e+001
4.990700e+002, 4.907499e+001
4.995521e+002, 4.868752e+001
5.000342e+002, 4.853118e+001
5.005164e+002, 4.844794e+001
5.009985e+002, 4.837328e+001
5.014806e+002, 4.831406e+001
5.019627e+002, 4.832926e+001
5.024448e+002, 4.843357e+001
5.029269e+002, 4.842776e+001
5.034091e+002, 4.806950e+001
5.038912e+002, 4.733955e+001
5.043733e+002, 4.691065e+001
5.048554e+002, 4.699623e+001
5.053375e+002, 4.710752e+001
5.058196e+002, 4.714808e+001
5.063018e+002, 4.707973e+001
5.067839e+002, 4.680096e+001
5.072660e+002, 4.628791e+001
5.077481e+002, 4.573512e+001
5.082302e+002, 4.547120e+001
5.087123e+002, 4.562096e+001
5.091945e+002, 4.560665e+001
5.096766e+002, 4.527887e+001
5.101587e+002, 4.493580e+001
5.106408e+002, 4.462481e+001
5.111229e+002, 4.438982e+001
5.116050e+002, 4.431626e+001
5.120872e+002, 4.447572e+001
5.125693e+002, 4.472053e+001
5.130514e+002, 4.479320e+001
5.135335e+002, 4.468333e+001
5.140156e+002, 4.447834e+001
5.144977e+002, 4.415059e+001
5.149799e+002, 4.377324e+001
5.154620e+002, 4.332630e+001
5.159441e+002, 4.284933e+001
5.164262e+002, 4.259058e+001
5.169083e+002, 4.283403e+001
5.173904e+002, 4.324801e+001
5.178726e+002, 4.343671e+001
5.183547e+002, 4.339874e+001
5.188368e+002, 4.318956e+001
5.193189e+002, 4.275776e+001
5.198010e+002, 4.226134e+001
5.202831e+002, 4.210925e+001
5.207653e+002, 4.243123e+001
5.212474e+002, 4.263818e+001
5.217295e+002, 4.257410e+001
5.222116e+002, 4.239585e+001
5.226937e+002, 4.220849e+001
5.231758e+002, 4.203583e+001
5.236580e+002, 4.188649e+001
5.241401e+002, 4.176595e+001
5.246222e+002, 4.167683e+001
5.251043e+002, 4.163464e+001
5.255864e+002, 4.171728e+001
5.260685e+002, 4.173424e+001
5.265507e+002, 4.156320e+001
5.270328e+002, 4.139647e+001
5.275149e+002, 4.144286e+001
5.279970e+002, 4.169033e+001
5.284791e+002, 4.190991e+001
5.289612e+002, 4.188075e+001
5.294434e+002, 4.164598e+001
5.299255e+002, 4.145760e+001
5.304076e+002, 4.130590e+001
5.308897e+002, 4.122566e+001
5.313718e+002, 4.128298e+001
5.318539e+002, 4.139630e+001
5.323361e+002, 4.149749e+001
5.328182e+002, 4.158155e+001
5.333003e+002, 4.161754e+001
5.337824e+002, 4.157336e+001
5.342645e+002, 4.146948e+001
5.347466e+002, 4.133025e+001
5.352288e+002, 4.115364e+001
5.357109e+002, 4.100903e+001
5.361930e+002, 4.094599e+001
5.366751e+002, 4.096246e+001
5.371572e+002, 4.102608e+001
5.376393e+002, 4.112852e+001
5.381215e+002, 4.128315e+001
5.386036e+002, 4.162065e+001
5.390857e+002, 4.195498e+001
5.395678e+002, 4.199622e+001
5.400499e+002, 4.171356e+001
5.405320e+002, 4.137744e+001
5.410142e+002, 4.126661e+001
5.414963e+002, 4.138556e+001
5.419784e+002, 4.157529e+001
5.424604e+002, 4.196053e+001
5.429426e+002, 4.226520e+001
5.434247e+002, 4.244056e+001
5.439068e+002, 4.250322e+001
5.443889e+002, 4.242024e+001
5.448710e+002, 4.219608e+001
5.453531e+002, 4.200689e+001
5.458353e+002, 4.209312e+001
5.463174e+002, 4.242626e+001
5.467995e+002, 4.266474e+001
5.472816e+002, 4.277915e+001
5.477637e+002, 4.282231e+001
5.482458e+002, 4.273964e+001
5.487280e+002, 4.262532e+001
5.492101e+002, 4.265601e+001
5.496922e+002, 4.293895e+001
5.501743e+002, 4.320260e+001
5.506564e+002, 4.321028e+001
5.511385e+002, 4.308857e+001
5.516207e+002, 4.310857e+001
5.521028e+002, 4.332833e+001
5.525849e+002, 4.364004e+001
5.530670e+002, 4.398139e+001
5.535491e+002, 4.435292e+001
5.540313e+002, 4.448988e+001
5.545134e+002, 4.416384e+001
5.549955e+002, 4.391410e+001
5.554776e+002, 4.391078e+001
5.559597e+002, 4.405469e+001
5.564418e+002, 4.424076e+001
5.569240e+002, 4.443248e+001
5.574061e+002, 4.461676e+001
5.578882e+002, 4.478363e+001
5.583703e+002, 4.493287e+001
5.588524e+002, 4.503797e+001
5.593345e+002, 4.502899e+001
5.598167e+002, 4.507691e+001
5.602988e+002, 4.526228e+001
5.607809e+002, 4.551794e+001
5.612630e+002, 4.577870e+001
5.617451e+002, 4.603157e+001
5.622272e+002, 4.624192e+001
5.627094e+002, 4.638380e+001
5.631915e+002, 4.645891e+001
5.636736e+002, 4.642750e+001
5.641557e+002, 4.624500e+001
5.646378e+002, 4.616610e+001
5.651199e+002, 4.641185e+001
5.656021e+002, 4.691901e+001
5.660842e+002, 4.736526e+001
5.665663e+002, 4.778935e+001
5.670484e+002, 4.809974e+001
5.675305e+002, 4.821851e+001
5.680126e+002, 4.822889e+001
5.684948e+002, 4.819356e+001
5.689769e+002, 4.814434e+001
5.694590e+002, 4.817879e+001
5.699411e+002, 4.841706e+001
5.704232e+002, 4.883839e+001
5.709053e+002, 4.901985e+001
5.713875e+002, 4.871859e+001
5.718696e+002, 4.849822e+001
5.723517e+002, 4.842709e+001
5.728338e+002, 4.848172e+001
5.733159e+002, 4.869054e+001
5.737980e+002, 4.903175e+001
5.742802e+002, 4.935144e+001
5.747623e+002, 4.952879e+001
5.752444e+002, 4.957529e+001
5.757265e+002, 4.949125e+001
5.762086e+002, 4.921738e+001
5.766907e+002, 4.906395e+001
5.771729e+002, 4.921704e+001
5.776550e+002, 4.956287e+001
5.781371e+002, 4.993621e+001
5.786192e+002, 5.036800e+001
5.791013e+002, 5.067440e+001
5.795834e+002, 5.063228e+001
5.800656e+002, 5.051924e+001
5.805477e+002, 5.075169e+001
5.810298e+002, 5.128692e+001
5.815119e+002, 5.163583e+001
5.819940e+002, 5.144355e+001
5.824761e+002, 5.092474e+001
5.829583e+002, 5.081805e+001
5.834404e+002, 5.152398e+001
5.839225e+002, 5.204442e+001
5.844046e+002, 5.227344e+001
5.848867e+002, 5.239952e+001
5.853688e+002, 5.254590e+001
5.858510e+002, 5.270383e+001
5.863331e+002, 5.279498e+001
5.868152e+002, 5.275993e+001
5.872973e+002, 5.264697e+001
5.877794e+002, 5.256953e+001
5.882615e+002, 5.253597e+001
5.887437e+002, 5.248542e+001
5.892258e+002, 5.244970e+001
5.897079e+002, 5.233609e+001
5.901900e+002, 5.208521e+001
5.906721e+002, 5.169904e+001
5.911542e+002, 5.117450e+001
5.916364e+002, 5.038556e+001
5.921185e+002, 4.956572e+001
5.926006e+002, 4.896282e+001
5.930827e+002, 4.850411e+001
5.935648e+002, 4.794639e+001
5.940469e+002, 4.719831e+001
5.945291e+002, 4.638161e+001
5.950112e+002, 4.565040e+001
5.954933e+002, 4.499395e+001
5.959754e+002, 4.447893e+001
5.964575e+002, 4.427776e+001
5.969396e+002, 4.400589e+001
5.974218e+002, 4.347762e+001
5.979039e+002, 4.281110e+001
5.983860e+002, 4.213495e+001
5.988681e+002, 4.149995e+001
5.993502e+002, 4.100156e+001
5.998323e+002, 4.082689e+001
6.003145e+002, 4.095903e+001
6.007966e+002, 4.093780e+001
6.012787e+002, 4.069524e+001
6.017608e+002, 4.040223e+001
6.022429e+002, 4.011436e+001
6.027250e+002, 3.985017e+001
6.032072e+002, 3.965852e+001
6.036893e+002, 3.957337e+001
6.041714e+002, 3.947297e+001
6.046535e+002, 3.934887e+001
6.051356e+002, 3.914732e+001
6.056177e+002, 3.868822e+001
6.060999e+002, 3.799732e+001
6.065820e+002, 3.746617e+001
6.070641e+002, 3.740571e+001
6.075462e+002, 3.770337e+001
6.080283e+002, 3.784693e+001
6.085104e+002, 3.763495e+001
6.089926e+002, 3.755571e+001
6.094747e+002, 3.775276e+001
6.099568e+002, 3.798240e+001
6.104389e+002, 3.810847e+001
6.109210e+002, 3.811043e+001
6.114031e+002, 3.798102e+001
6.118853e+002, 3.766065e+001
6.123674e+002, 3.729750e+001
6.128495e+002, 3.729072e+001
6.133316e+002, 3.769210e+001
6.138137e+002, 3.780708e+001
6.142958e+002, 3.731753e+001
6.147780e+002, 3.668303e+001
6.152601e+002, 3.632044e+001
6.157422e+002, 3.620294e+001
6.162243e+002, 3.623523e+001
6.167064e+002, 3.657188e+001
6.171885e+002, 3.688018e+001
6.176707e+002, 3.689899e+001
6.181528e+002, 3.674314e+001
6.186349e+002, 3.666093e+001
6.191170e+002, 3.672402e+001
6.195991e+002, 3.680429e+001
6.200812e+002, 3.673749e+001
6.205634e+002, 3.650625e+001
6.210455e+002, 3.639018e+001
6.215276e+002, 3.658368e+001
6.220097e+002, 3.665145e+001
6.224918e+002, 3.638195e+001
6.229739e+002, 3.601457e+001
6.234561e+002, 3.576772e+001
6.239382e+002, 3.569322e+001
6.244203e+002, 3.576749e+001
6.249023e+002, 3.613626e+001
6.253845e+002, 3.661714e+001
6.258666e+002, 3.663210e+001
6.263487e+002, 3.612569e+001
6.268308e+002, 3.568479e+001
6.273129e+002, 3.557596e+001
6.277950e+002, 3.568614e+001
6.282772e+002, 3.586039e+001
6.287593e+002, 3.616072e+001
6.292414e+002, 3.624393e+001
6.297235e+002, 3.579742e+001
6.302056e+002, 3.535217e+001
6.306877e+002, 3.529304e+001
6.311699e+002, 3.553521e+001
6.316520e+002, 3.585773e+001
6.321341e+002, 3.615868e+001
6.326162e+002, 3.637578e+001
6.330983e+002, 3.638310e+001
6.335804e+002, 3.614164e+001
6.340626e+002, 3.588243e+001
6.345447e+002, 3.553564e+001
6.350268e+002, 3.527306e+001
6.355089e+002, 3.523166e+001
6.359910e+002, 3.529264e+001
6.364731e+002, 3.527201e+001
6.369553e+002, 3.511613e+001
6.374374e+002, 3.492460e+001
6.379195e+002, 3.473763e+001
6.384016e+002, 3.457405e+001
6.388837e+002, 3.443746e+001
6.393658e+002, 3.433476e+001
6.398480e+002, 3.441071e+001
6.403301e+002, 3.483239e+001
6.408122e+002, 3.541972e+001
6.412943e+002, 3.556615e+001
6.417764e+002, 3.480925e+001
6.422585e+002, 3.427871e+001
6.427407e+002, 3.408316e+001
6.432228e+002, 3.401622e+001
6.437049e+002, 3.394636e+001
6.441870e+002, 3.389344e+001
6.446691e+002, 3.396346e+001
6.451512e+002, 3.423089e+001
6.456334e+002, 3.455470e+001
6.461155e+002, 3.469714e+001
6.465976e+002, 3.465978e+001
6.470797e+002, 3.460997e+001
6.475618e+002, 3.455750e+001
6.480439e+002, 3.452858e+001
6.485261e+002, 3.457205e+001
6.490082e+002, 3.465595e+001
6.494903e+002, 3.468058e+001
6.499724e+002, 3.464797e+001
6.504545e+002, 3.454081e+001
6.509366e+002, 3.420429e+001
6.514188e+002, 3.387036e+001
6.519009e+002, 3.391161e+001
6.523830e+002, 3.429974e+001
6.528651e+002, 3.461019e+001
6.533472e+002, 3.450879e+001
6.538293e+002, 3.412919e+001
6.543115e+002, 3.398922e+001
6.547936e+002, 3.422923e+001
6.552757e+002, 3.436845e+001
6.557578e+002, 3.425444e+001
6.562399e+002, 3.409583e+001
6.567220e+002, 3.398946e+001
6.572042e+002, 3.393159e+001
6.576863e+002, 3.389544e+001
6.581684e+002, 3.389065e+001
6.586505e+002, 3.387177e+001
6.591326e+002, 3.376982e+001
6.596147e+002, 3.362038e+001
6.600969e+002, 3.351727e+001
6.605790e+002, 3.348073e+001
6.610611e+002, 3.350606e+001
6.615432e+002, 3.361186e+001
6.620253e+002, 3.378080e+001
6.625074e+002, 3.382354e+001
6.629896e+002, 3.363401e+001
6.634717e+002, 3.345664e+001
6.639538e+002, 3.329641e+001
6.644359e+002, 3.316736e+001
6.649180e+002, 3.305685e+001
6.654001e+002, 3.298334e+001
6.658823e+002, 3.302214e+001
6.663644e+002, 3.327928e+001
6.668465e+002, 3.357468e+001
6.673286e+002, 3.351567e+001
6.678107e+002, 3.311599e+001
6.682928e+002, 3.286162e+001
6.687750e+002, 3.287804e+001
6.692571e+002, 3.302662e+001
6.697392e+002, 3.323147e+001
6.702213e+002, 3.347510e+001
6.707034e+002, 3.359870e+001
6.711855e+002, 3.356826e+001
6.716677e+002, 3.345623e+001
6.721498e+002, 3.321948e+001
6.726319e+002, 3.295141e+001
6.731140e+002, 3.273356e+001
6.735961e+002, 3.258717e+001
6.740782e+002, 3.251914e+001
6.745604e+002, 3.254447e+001
6.750425e+002, 3.263495e+001
6.755246e+002, 3.270664e+001
6.760067e+002, 3.276587e+001
6.764888e+002, 3.277898e+001
6.769709e+002, 3.273967e+001
6.774531e+002, 3.264960e+001
6.779352e+002, 3.249477e+001
6.784173e+002, 3.229185e+001
6.788994e+002, 3.209544e+001
6.793815e+002, 3.181956e+001
6.798636e+002, 3.167958e+001
6.803458e+002, 3.193958e+001
6.808279e+002, 3.236473e+001
6.813100e+002, 3.259037e+001
6.817921e+002, 3.255568e+001
6.822742e+002, 3.239246e+001
6.827563e+002, 3.218982e+001
6.832385e+002, 3.196967e+001
6.837206e+002, 3.183719e+001
6.842027e+002, 3.180008e+001
6.846848e+002, 3.183392e+001
6.851669e+002, 3.201670e+001
6.856490e+002, 3.219812e+001
6.861312e+002, 3.231264e+001
6.866133e+002, 3.235387e+001
6.870954e+002, 3.230752e+001
6.875775e+002, 3.210292e+001
6.880596e+002, 3.192531e+001
6.885417e+002, 3.199650e+001
6.890239e+002, 3.221137e+001
6.895060e+002, 3.233229e+001
6.899881e+002, 3.231615e+001
6.904702e+002, 3.220283e+001
6.909523e+002, 3.199075e+001
6.914344e+002, 3.173191e+001
6.919166e+002, 3.169863e+001
6.923987e+002, 3.220834e+001
6.928808e+002, 3.243156e+001
6.933629e+002, 3.208891e+001
6.938450e+002, 3.168808e+001
6.943271e+002, 3.156675e+001
6.948093e+002, 3.164110e+001
6.952914e+002, 3.162255e+001
6.957735e+002, 3.134743e+001
6.962556e+002, 3.105318e+001
6.967377e+002, 3.101456e+001
6.972198e+002, 3.117806e+001
6.977020e+002, 3.139890e+001
6.981841e+002, 3.166617e+001
6.986662e+002, 3.180523e+001
6.991483e+002, 3.164871e+001
6.996304e+002, 3.129667e+001
7.001125e+002, 3.113308e+001
7.005947e+002, 3.131887e+001
7.010768e+002, 3.145198e+001
7.015589e+002, 3.154959e+001
7.020410e+002, 3.157342e+001
7.025231e+002, 3.144767e+001
7.030052e+002, 3.123835e+001
7.034874e+002, 3.107751e+001
7.039695e+002, 3.102351e+001
7.044516e+002, 3.102552e+001
7.049337e+002, 3.103246e+001
7.054158e+002, 3.104403e+001
7.058979e+002, 3.106487e+001
7.063801e+002, 3.109954e+001
7.068622e+002, 3.111429e+001
7.073442e+002, 3.109188e+001
7.078264e+002, 3.103370e+001
7.083085e+002, 3.092342e+001
7.087906e+002, 3.066504e+001
7.092727e+002, 3.059989e+001
7.097548e+002, 3.094786e+001
7.102369e+002, 3.130219e+001
7.107191e+002, 3.146592e+001
7.112012e+002, 3.145103e+001
7.116833e+002, 3.124596e+001
7.121654e+002, 3.085498e+001
7.126475e+002, 3.052918e+001
7.131296e+002, 3.066785e+001
7.136118e+002, 3.115533e+001
7.140939e+002, 3.131545e+001
7.145760e+002, 3.108191e+001
7.150581e+002, 3.081602e+001
7.155402e+002, 3.066044e+001
7.160223e+002, 3.058522e+001
7.165045e+002, 3.053994e+001
7.169866e+002, 3.051719e+001
7.174687e+002, 3.056111e+001
7.179508e+002, 3.073153e+001
7.184329e+002, 3.090971e+001
7.189150e+002, 3.103478e+001
7.193972e+002, 3.113070e+001
7.198793e+002, 3.126932e+001
7.203614e+002, 3.145223e+001
7.208435e+002, 3.154720e+001
7.213256e+002, 3.135559e+001
7.218077e+002, 3.098597e+001
7.222899e+002, 3.094002e+001
7.227720e+002, 3.128017e+001
7.232541e+002, 3.139324e+001
7.237362e+002, 3.096115e+001
7.242183e+002, 3.041089e+001
7.247004e+002, 3.028253e+001
7.251826e+002, 3.056512e+001
7.256647e+002, 3.071610e+001
7.261468e+002, 3.055729e+001
7.266289e+002, 3.044272e+001
7.271110e+002, 3.061787e+001
7.275931e+002, 3.083524e+001
7.280753e+002, 3.069657e+001
7.285574e+002, 3.025068e+001
7.290395e+002, 3.002712e+001
7.295216e+002, 3.050548e+001
7.300037e+002, 3.128914e+001
7.304858e+002, 3.139651e+001
7.309680e+002, 3.080017e+001
7.314501e+002, 3.029712e+001
7.319322e+002, 3.003010e+001
7.324143e+002, 2.991183e+001
7.328964e+002, 2.993573e+001
7.333785e+002, 3.005910e+001
7.338607e+002, 3.005270e+001
7.343428e+002, 2.971463e+001
7.348249e+002, 2.955907e+001
7.353070e+002, 2.990899e+001
7.357891e+002, 3.030472e+001
7.362712e+002, 3.030956e+001
7.367534e+002, 3.002217e+001
7.372355e+002, 2.982094e+001
7.377176e+002, 2.989698e+001
7.381997e+002, 3.008969e+001
7.386818e+002, 3.018341e+001
7.391639e+002, 3.018218e+001
7.396461e+002, 3.008507e+001
7.401282e+002, 2.984505e+001
7.406103e+002, 2.974088e+001
7.410924e+002, 3.001500e+001
7.415745e+002, 3.046229e+001
7.420566e+002, 3.059958e+001
7.425388e+002, 3.031339e+001
7.430209e+002, 3.014008e+001
7.435030e+002, 3.026483e+001
7.439851e+002, 3.036459e+001
7.444672e+002, 3.020400e+001
7.449493e+002, 2.993086e+001
7.454315e+002, 2.979925e+001
7.459136e+002, 2.987248e+001
7.463957e+002, 2.998086e+001
7.468778e+002, 2.996683e+001
7.473599e+002, 2.985943e+001
7.478420e+002, 2.971501e+001
7.483242e+002, 2.953026e+001
7.488063e+002, 2.946000e+001
7.492884e+002, 2.958875e+001
7.497705e+002, 2.976810e+001
7.502526e+002, 2.980626e+001
7.507347e+002, 2.968901e+001
7.512169e+002, 2.971121e+001
7.516990e+002, 3.011779e+001
7.521811e+002, 3.033419e+001
7.526632e+002, 3.006003e+001
7.531453e+002, 2.966955e+001
7.536274e+002, 2.949355e+001
7.541096e+002, 2.953951e+001
7.545917e+002, 2.965208e+001
7.550738e+002, 2.979056e+001
7.555559e+002, 2.985475e+001
7.560380e+002, 2.960530e+001
7.565201e+002, 2.914070e+001
7.570023e+002, 2.892409e+001
7.574844e+002, 2.904103e+001
7.579665e+002, 2.922974e+001
7.584486e+002, 2.931446e+001
7.589307e+002, 2.932318e+001
7.594128e+002, 2.934784e+001
7.598950e+002, 2.936291e+001
7.603771e+002, 2.944320e+001
7.608592e+002, 2.972182e+001
7.613413e+002, 2.992084e+001
7.618234e+002, 2.982620e+001
7.623055e+002, 2.959443e+001
7.627877e+002, 2.948006e+001
7.632698e+002, 2.955556e+001
7.637519e+002, 2.968739e+001
7.642340e+002, 2.981838e+001
7.647161e+002, 2.992161e+001
7.651982e+002, 2.996762e+001
7.656804e+002, 2.994919e+001
7.661625e+002, 2.981903e+001
7.666446e+002, 2.955225e+001
7.671267e+002, 2.924389e+001
7.676088e+002, 2.900048e+001
7.680909e+002, 2.881555e+001
7.685731e+002, 2.884756e+001
7.690552e+002, 2.934161e+001
7.695373e+002, 2.965009e+001
7.700194e+002, 2.950076e+001
7.705015e+002, 2.922570e+001
7.709836e+002, 2.908658e+001
7.714658e+002, 2.906409e+001
7.719479e+002, 2.896851e+001
7.724300e+002, 2.858324e+001
7.729121e+002, 2.830841e+001
7.733942e+002, 2.856997e+001
7.738763e+002, 2.905866e+001
7.743585e+002, 2.926974e+001
7.748406e+002, 2.916823e+001
7.753227e+002, 2.903684e+001
7.758048e+002, 2.905723e+001
7.762869e+002, 2.918851e+001
7.767690e+002, 2.939053e+001
7.772512e+002, 2.972029e+001
7.777333e+002, 2.970380e+001
7.782154e+002, 2.908434e+001
7.786975e+002, 2.853448e+001
7.791796e+002, 2.845008e+001
7.796617e+002, 2.865376e+001
7.801439e+002, 2.887915e+001
7.806260e+002, 2.914425e+001
7.811081e+002, 2.931000e+001
7.815902e+002, 2.930645e+001
7.820723e+002, 2.922962e+001
7.825544e+002, 2.909987e+001
7.830366e+002, 2.895398e+001
7.835187e+002, 2.882498e+001
7.840008e+002, 2.873081e+001
7.844829e+002, 2.871727e+001
7.849650e+002, 2.886011e+001
7.854471e+002, 2.909499e+001
7.859293e+002, 2.924895e+001
7.864114e+002, 2.932204e+001
7.868935e+002, 2.923138e+001
7.873756e+002, 2.888660e+001
7.878577e+002, 2.858909e+001
7.883398e+002, 2.865686e+001
7.888220e+002, 2.903525e+001
7.893040e+002, 2.925657e+001
7.897861e+002, 2.923892e+001
7.902682e+002, 2.919135e+001
7.907504e+002, 2.916758e+001
7.912325e+002, 2.908283e+001
7.917146e+002, 2.877919e+001
7.921967e+002, 2.839189e+001
7.926788e+002, 2.821263e+001
7.931609e+002, 2.836099e+001
7.936431e+002, 2.860397e+001
7.941252e+002, 2.881793e+001
7.946073e+002, 2.895442e+001
7.950894e+002, 2.885384e+001
7.955715e+002, 2.855284e+001
7.960536e+002, 2.833722e+001
7.965358e+002, 2.832603e+001
7.970179e+002, 2.843061e+001
7.975000e+002, 2.853682e+001
7.979821e+002, 2.864540e+001
7.984642e+002, 2.874735e+001
7.989464e+002, 2.883502e+001
7.994285e+002, 2.893043e+001
7.999106e+002, 2.916640e+001
8.003927e+002, 2.930926e+001
8.008748e+002, 2.905031e+001
8.013569e+002, 2.850097e+001
8.018391e+002, 2.821978e+001
8.023212e+002, 2.855752e+001
8.028033e+002, 2.889205e+001
8.032854e+002, 2.890594e+001
8.037675e+002, 2.873697e+001
8.042496e+002, 2.842855e+001
8.047318e+002, 2.808558e+001
8.052139e+002, 2.800388e+001
8.056960e+002, 2.835856e+001
8.061781e+002, 2.886043e+001
8.066602e+002, 2.903628e+001
8.071423e+002, 2.891046e+001
8.076245e+002, 2.880020e+001
8.081066e+002, 2.871277e+001
8.085887e+002, 2.867801e+001
8.090708e+002, 2.874783e+001
8.095529e+002, 2.882359e+001
8.100350e+002, 2.873345e+001
8.105172e+002, 2.843342e+001
8.109993e+002, 2.826160e+001
8.114814e+002, 2.831786e+001
8.119635e+002, 2.837357e+001
8.124456e+002, 2.831672e+001
8.129277e+002, 2.826786e+001
8.134099e+002, 2.839510e+001
8.138920e+002, 2.865485e+001
8.143741e+002, 2.881644e+001
8.148562e+002, 2.874225e+001
8.153383e+002, 2.857519e+001
8.158204e+002, 2.839884e+001
8.163026e+002, 2.825863e+001
8.167847e+002, 2.829824e+001
8.172668e+002, 2.851041e+001
8.177489e+002, 2.869570e+001
8.182310e+002, 2.873949e+001
8.187131e+002, 2.869638e+001
8.191953e+002, 2.868505e+001
8.196774e+002, 2.873209e+001
8.201595e+002, 2.861591e+001
8.206416e+002, 2.817498e+001
8.211237e+002, 2.787711e+001
8.216058e+002, 2.804675e+001
8.220880e+002, 2.834113e+001
8.225701e+002, 2.835368e+001
8.230522e+002, 2.809194e+001
8.235343e+002, 2.791176e+001
8.240164e+002, 2.789359e+001
8.244985e+002, 2.795853e+001
8.249807e+002, 2.820713e+001
8.254628e+002, 2.843328e+001
8.259449e+002, 2.831090e+001
8.264270e+002, 2.792231e+001
8.269091e+002, 2.769319e+001
8.273912e+002, 2.788438e+001
8.278734e+002, 2.822753e+001
8.283555e+002, 2.835258e+001
8.288376e+002, 2.830204e+001
8.293197e+002, 2.823456e+001
8.298018e+002, 2.816413e+001
8.302839e+002, 2.813972e+001
8.307661e+002, 2.819817e+001
8.312482e+002, 2.827754e+001
8.317303e+002, 2.826487e+001
8.322124e+002, 2.813437e+001
8.326945e+002, 2.810546e+001
8.331766e+002, 2.834907e+001
8.336588e+002, 2.844464e+001
8.341409e+002, 2.813273e+001
8.346230e+002, 2.777745e+001
8.351051e+002, 2.771797e+001
8.355872e+002, 2.790321e+001
8.360693e+002, 2.799459e+001
8.365515e+002, 2.780673e+001
8.370336e+002, 2.763896e+001
8.375157e+002, 2.770782e+001
8.379978e+002, 2.784856e+001
8.384799e+002, 2.785423e+001
8.389620e+002, 2.774714e+001
8.394442e+002, 2.767237e+001
8.399263e+002, 2.769848e+001
8.404084e+002, 2.776794e+001
8.408905e+002, 2.777156e+001
8.413726e+002, 2.774090e+001
8.418547e+002, 2.793585e+001
8.423369e+002, 2.838662e+001
8.428190e+002, 2.857488e+001
8.433011e+002, 2.823981e+001
8.437832e+002, 2.778710e+001
8.442653e+002, 2.771980e+001
8.447474e+002, 2.802324e+001
8.452296e+002, 2.806787e+001
8.457117e+002, 2.758847e+001
8.461938e+002, 2.723686e+001
8.466759e+002, 2.706422e+001
8.471580e+002, 2.703583e+001
8.476401e+002, 2.717536e+001
8.481223e+002, 2.743307e+001
8.486044e+002, 2.775463e+001
8.490865e+002, 2.819205e+001
8.495686e+002, 2.839563e+001
8.500507e+002, 2.791861e+001
8.505328e+002, 2.732292e+001
8.510150e+002, 2.722237e+001
8.514971e+002, 2.746927e+001
8.519792e+002, 2.766087e+001
8.524613e+002, 2.766785e+001
8.529434e+002, 2.758219e+001
8.534255e+002, 2.745399e+001
8.539077e+002, 2.733647e+001
8.543898e+002, 2.747238e+001
8.548719e+002, 2.786172e+001
8.553540e+002, 2.797503e+001
8.558361e+002, 2.762991e+001
8.563182e+002, 2.735171e+001
8.568004e+002, 2.760704e+001
8.572825e+002, 2.817212e+001
8.577646e+002, 2.830954e+001
8.582467e+002, 2.772143e+001
8.587288e+002, 2.735032e+001
8.592109e+002, 2.736819e+001
8.596931e+002, 2.739555e+001
8.601752e+002, 2.720462e+001
8.606573e+002, 2.700428e+001
8.611394e+002, 2.713514e+001
8.616215e+002, 2.760547e+001
8.621036e+002, 2.788764e+001
8.625858e+002, 2.755016e+001
8.630679e+002, 2.719446e+001
8.635500e+002, 2.730556e+001
8.640321e+002, 2.761495e+001
8.645142e+002, 2.773055e+001
8.649963e+002, 2.763891e+001
8.654785e+002, 2.756580e+001
8.659606e+002, 2.764510e+001
8.664427e+002, 2.778575e+001
8.669248e+002, 2.789495e+001
8.674069e+002, 2.795061e+001
8.678890e+002, 2.775532e+001
8.683712e+002, 2.728575e+001
8.688533e+002, 2.701733e+001
8.693354e+002, 2.718072e+001
8.698175e+002, 2.751432e+001
8.702996e+002, 2.768247e+001
8.707817e+002, 2.768475e+001
8.712639e+002, 2.761296e+001
8.717459e+002, 2.736157e+001
8.722280e+002, 2.722213e+001
8.727101e+002, 2.739604e+001
8.731923e+002, 2.755305e+001
8.736744e+002, 2.742702e+001
8.741565e+002, 2.714034e+001
8.746386e+002, 2.699923e+001
8.751207e+002, 2.707790e+001
8.756028e+002, 2.722838e+001
8.760850e+002, 2.756921e+001
8.765671e+002, 2.779988e+001
8.770492e+002, 2.754773e+001
8.775313e+002, 2.708423e+001
8.780134e+002, 2.690034e+001
8.784955e+002, 2.708880e+001
8.789777e+002, 2.734182e+001
8.794598e+002, 2.744677e+001
8.799419e+002, 2.744711e+001
8.804240e+002, 2.737613e+001
8.809061e+002, 2.726099e+001
8.813882e+002, 2.721497e+001
8.818704e+002, 2.725174e+001
8.823525e+002, 2.727279e+001
8.828346e+002, 2.720915e+001
8.833167e+002, 2.712147e+001
8.837988e+002, 2.713870e+001
8.842809e+002, 2.727192e+001
8.847631e+002, 2.744204e+001
8.852452e+002, 2.770630e+001
8.857273e+002, 2.786175e+001
8.862094e+002, 2.779410e+001
8.866915e+002, 2.763361e+001
8.871736e+002, 2.753623e+001
8.876558e+002, 2.749249e+001
8.881379e+002, 2.735219e+001
8.886200e+002, 2.682785e+001
8.891021e+002, 2.660653e+001
8.895842e+002, 2.717002e+001
8.900663e+002, 2.773004e+001
8.905485e+002, 2.768890e+001
8.910306e+002, 2.724641e+001
8.915127e+002, 2.681303e+001
8.919948e+002, 2.649067e+001
8.924769e+002, 2.637823e+001
8.929590e+002, 2.669838e+001
8.934412e+002, 2.712580e+001
8.939233e+002, 2.733010e+001
8.944054e+002, 2.736594e+001
8.948875e+002, 2.734332e+001
8.953696e+002, 2.729919e+001
8.958517e+002, 2.725063e+001
8.963339e+002, 2.719671e+001
8.968160e+002, 2.719387e+001
8.972981e+002, 2.746661e+001
8.977802e+002, 2.795553e+001
8.982623e+002, 2.799582e+001
8.987444e+002, 2.748816e+001
8.992266e+002, 2.701256e+001
8.997087e+002, 2.682845e+001
9.001908e+002, 2.685808e+001
9.006729e+002, 2.703144e+001
9.011550e+002, 2.736686e+001
9.016371e+002, 2.740245e+001
9.021193e+002, 2.683997e+001
9.026014e+002, 2.653579e+001
9.030835e+002, 2.692569e+001
9.035656e+002, 2.734969e+001
9.040477e+002, 2.729916e+001
9.045298e+002, 2.694545e+001
9.050120e+002, 2.673294e+001
9.054941e+002, 2.674496e+001
9.059762e+002, 2.679469e+001
9.064583e+002, 2.681530e+001
9.069404e+002, 2.688465e+001
9.074225e+002, 2.711287e+001
9.079047e+002, 2.738498e+001
9.083868e+002, 2.755323e+001
9.088689e+002, 2.759214e+001
9.093510e+002, 2.755377e+001
9.098331e+002, 2.743866e+001
9.103152e+002, 2.730663e+001
9.107974e+002, 2.718692e+001
9.112795e+002, 2.710634e+001
9.117616e+002, 2.713443e+001
9.122437e+002, 2.725806e+001
9.127258e+002, 2.740361e+001
9.132079e+002, 2.753625e+001
9.136901e+002, 2.762653e+001
9.141722e+002, 2.762780e+001
9.146543e+002, 2.755107e+001
9.151364e+002, 2.743473e+001
9.156185e+002, 2.727401e+001
9.161006e+002, 2.723412e+001
9.165828e+002, 2.738662e+001
9.170649e+002, 2.752292e+001
9.175470e+002, 2.745331e+001
9.180291e+002, 2.724666e+001
9.185112e+002, 2.715827e+001
9.189933e+002, 2.724263e+001
9.194755e+002, 2.730484e+001
9.199576e+002, 2.732200e+001
9.204397e+002, 2.734973e+001
9.209218e+002, 2.745531e+001
9.214039e+002, 2.755305e+001
9.218860e+002, 2.749279e+001
9.223682e+002, 2.728800e+001
9.228503e+002, 2.726338e+001
9.233324e+002, 2.766268e+001
9.238145e+002, 2.797759e+001
9.242966e+002, 2.801172e+001
9.247787e+002, 2.795672e+001
9.252609e+002, 2.799401e+001
9.257430e+002, 2.805448e+001
9.262251e+002, 2.791354e+001
9.267072e+002, 2.749645e+001
9.271893e+002, 2.720448e+001
9.276714e+002, 2.735212e+001
9.281536e+002, 2.770803e+001
9.286357e+002, 2.815815e+001
9.291178e+002, 2.859881e+001
9.295999e+002, 2.881985e+001
9.300820e+002, 2.881898e+001
9.305641e+002, 2.877851e+001
9.310463e+002, 2.880639e+001
9.315284e+002, 2.890187e+001
9.320105e+002, 2.912354e+001
9.324926e+002, 2.941465e+001
9.329747e+002, 2.951127e+001
9.334568e+002, 2.941077e+001
9.339390e+002, 2.931932e+001
9.344211e+002, 2.931597e+001
9.349032e+002, 2.931856e+001
9.353853e+002, 2.923216e+001
9.358674e+002, 2.907697e+001
9.363495e+002, 2.896658e+001
9.368317e+002, 2.889856e+001
9.373138e+002, 2.888932e+001
9.377959e+002, 2.895299e+001
9.382780e+002, 2.904982e+001
9.387601e+002, 2.917237e+001
9.392422e+002, 2.930390e+001
9.397244e+002, 2.941059e+001
9.402065e+002, 2.948232e+001
9.406886e+002, 2.958648e+001
9.411707e+002, 2.976084e+001
9.416528e+002, 2.991455e+001
9.421349e+002, 3.002499e+001
9.426171e+002, 3.011382e+001
9.430992e+002, 3.016165e+001
9.435813e+002, 3.020550e+001
9.440634e+002, 3.033959e+001
9.445455e+002, 3.060182e+001
9.450276e+002, 3.087997e+001
9.455098e+002, 3.115073e+001
9.459919e+002, 3.140926e+001
9.464740e+002, 3.163068e+001
9.469561e+002, 3.184754e+001
9.474382e+002, 3.210638e+001
9.479203e+002, 3.240754e+001
9.484025e+002, 3.271037e+001
9.488846e+002, 3.297541e+001
9.493667e+002, 3.328160e+001
9.498488e+002, 3.375154e+001
9.503309e+002, 3.428593e+001
9.508130e+002, 3.472275e+001
9.512952e+002, 3.508229e+001
9.517773e+002, 3.544545e+001
9.522594e+002, 3.585051e+001
9.527415e+002, 3.638512e+001
9.532236e+002, 3.719796e+001
9.537057e+002, 3.812379e+001
9.541878e+002, 3.869788e+001
9.546699e+002, 3.899034e+001
9.551520e+002, 3.944911e+001
9.556342e+002, 4.014106e+001
9.561163e+002, 4.101622e+001
9.565984e+002, 4.206356e+001
9.570805e+002, 4.321333e+001
9.575626e+002, 4.433910e+001
9.580447e+002, 4.545132e+001
9.585269e+002, 4.670049e+001
9.590090e+002, 4.815145e+001
9.594911e+002, 4.945821e+001
9.599732e+002, 5.045193e+001
9.604553e+002, 5.150104e+001
9.609374e+002, 5.289176e+001
9.614196e+002, 5.452076e+001
9.619017e+002, 5.610283e+001
9.623838e+002, 5.762798e+001
9.628659e+002, 5.912782e+001
9.633480e+002, 6.047693e+001
9.638301e+002, 6.196514e+001
9.643123e+002, 6.364911e+001
9.647944e+002, 6.550883e+001
9.652765e+002, 6.760293e+001
9.657586e+002, 6.987897e+001
9.662407e+002, 7.211287e+001
9.667228e+002, 7.435928e+001
9.672050e+002, 7.640767e+001
9.676871e+002, 7.820411e+001
9.681692e+002, 7.980338e+001
9.686513e+002, 8.112197e+001
9.691334e+002, 8.232248e+001
9.696155e+002, 8.370131e+001
9.700977e+002, 8.522496e+001
9.705798e+002, 8.639131e+001
9.710619e+002, 8.694296e+001
9.715440e+002, 8.713698e+001
9.720261e+002, 8.706621e+001
9.725082e+002, 8.677500e+001
9.729904e+002, 8.649514e+001
9.734725e+002, 8.599111e+001
9.739546e+002, 8.464848e+001
9.744367e+002, 8.234188e+001
9.749188e+002, 7.975846e+001
9.754009e+002, 7.743926e+001
9.758831e+002, 7.515607e+001
9.763652e+002, 7.241788e+001
9.768473e+002, 6.954578e+001
9.773294e+002, 6.732793e+001
9.778115e+002, 6.570943e+001
9.782936e+002, 6.395167e+001
9.787758e+002, 6.169350e+001
9.792579e+002, 5.939463e+001
9.797400e+002, 5.772297e+001
9.802221e+002, 5.642790e+001
9.807042e+002, 5.460058e+001
9.811863e+002, 5.234273e+001
9.816685e+002, 5.047917e+001
9.821506e+002, 4.917971e+001
9.826327e+002, 4.804570e+001
9.831148e+002, 4.682715e+001
9.835969e+002, 4.561187e+001
9.840790e+002, 4.458737e+001
9.845612e+002, 4.375708e+001
9.850433e+002, 4.282991e+001
9.855254e+002, 4.176303e+001
9.860075e+002, 4.087311e+001
9.864896e+002, 4.027279e+001
9.869717e+002, 3.976210e+001
9.874539e+002, 3.917656e+001
9.879360e+002, 3.855858e+001
9.884181e+002, 3.805172e+001
9.889002e+002, 3.771128e+001
9.893823e+002, 3.728096e+001
9.898644e+002, 3.665923e+001
9.903466e+002, 3.614302e+001
9.908287e+002, 3.583635e+001
9.913108e+002, 3.565915e+001
9.917929e+002, 3.561175e+001
9.922750e+002, 3.564499e+001
9.927571e+002, 3.545547e+001
9.932393e+002, 3.478572e+001
9.937214e+002, 3.435955e+001
9.942035e+002, 3.445189e+001
9.946856e+002, 3.447001e+001
9.951677e+002, 3.413969e+001
9.956498e+002, 3.365518e+001
9.961320e+002, 3.318406e+001
9.966141e+002, 3.274771e+001
9.970962e+002, 3.240720e+001
9.975783e+002, 3.220360e+001
9.980604e+002, 3.204892e+001
9.985425e+002, 3.194003e+001
9.990247e+002, 3.185448e+001
9.995068e+002, 3.176745e+001
9.999889e+002, 3.170152e+001
1.000471e+003, 3.171798e+001
1.000953e+003, 3.180772e+001
1.001435e+003, 3.183379e+001
1.001917e+003, 3.168747e+001
1.002399e+003, 3.154403e+001
1.002882e+003, 3.162729e+001
1.003364e+003, 3.164605e+001
1.003846e+003, 3.118985e+001
1.004328e+003, 3.050022e+001
1.004810e+003, 3.007067e+001
1.005292e+003, 3.001383e+001
1.005774e+003, 3.007975e+001
1.006256e+003, 3.016458e+001
1.006739e+003, 3.023466e+001
1.007221e+003, 3.029494e+001
1.007703e+003, 3.029823e+001
1.008185e+003, 3.015832e+001
1.008667e+003, 2.990034e+001
1.009149e+003, 2.954337e+001
1.009631e+003, 2.912127e+001
1.010113e+003, 2.890983e+001
1.010595e+003, 2.935069e+001
1.011078e+003, 2.992407e+001
1.011560e+003, 2.978354e+001
1.012042e+003, 2.917794e+001
1.012524e+003, 2.857071e+001
1.013006e+003, 2.808185e+001
1.013488e+003, 2.795462e+001
1.013970e+003, 2.828283e+001
1.014452e+003, 2.860685e+001
1.014935e+003, 2.830801e+001
1.015417e+003, 2.770423e+001
1.015899e+003, 2.766351e+001
1.016381e+003, 2.805523e+001
1.016863e+003, 2.828688e+001
1.017345e+003, 2.827081e+001
1.017827e+003, 2.810979e+001
1.018309e+003, 2.784958e+001
1.018791e+003, 2.758939e+001
1.019274e+003, 2.746978e+001
1.019756e+003, 2.746756e+001
1.020238e+003, 2.746047e+001
1.020720e+003, 2.745123e+001
1.021202e+003, 2.752332e+001
1.021684e+003, 2.769567e+001
1.022166e+003, 2.789376e+001
1.022648e+003, 2.809724e+001
1.023130e+003, 2.818620e+001
1.023613e+003, 2.790592e+001
1.024095e+003, 2.729500e+001
1.024577e+003, 2.707757e+001
1.025059e+003, 2.732694e+001
1.025541e+003, 2.729288e+001
1.026023e+003, 2.673680e+001
1.026505e+003, 2.636649e+001
1.026987e+003, 2.669938e+001
1.027469e+003, 2.731754e+001
1.027952e+003, 2.742116e+001
1.028434e+003, 2.698250e+001
1.028916e+003, 2.672976e+001
1.029398e+003, 2.669371e+001
1.029880e+003, 2.675420e+001
1.030362e+003, 2.696377e+001
1.030844e+003, 2.708222e+001
1.031326e+003, 2.691108e+001
1.031809e+003, 2.659306e+001
1.032291e+003, 2.642600e+001
1.032773e+003, 2.643864e+001
1.033255e+003, 2.635638e+001
1.033737e+003, 2.610978e+001
1.034219e+003, 2.591822e+001
1.034701e+003, 2.580737e+001
1.035183e+003, 2.578560e+001
1.035666e+003, 2.588489e+001
1.036148e+003, 2.606226e+001
1.036630e+003, 2.623283e+001
1.037112e+003, 2.639864e+001
1.037594e+003, 2.654816e+001
1.038076e+003, 2.677859e+001
1.038558e+003, 2.682947e+001
1.039040e+003, 2.644975e+001
1.039522e+003, 2.610246e+001
1.040005e+003, 2.612608e+001
1.040487e+003, 2.637824e+001
1.040969e+003, 2.658707e+001
1.041451e+003, 2.677570e+001
1.041933e+003, 2.680247e+001
1.042415e+003, 2.633652e+001
1.042897e+003, 2.617036e+001
1.043379e+003, 2.683167e+001
1.043861e+003, 2.745555e+001
1.044344e+003, 2.735485e+001
1.044826e+003, 2.686442e+001
1.045308e+003, 2.668510e+001
1.045790e+003, 2.692953e+001
1.046272e+003, 2.699319e+001
1.046754e+003, 2.657807e+001
1.047236e+003, 2.629959e+001
1.047718e+003, 2.646601e+001
1.048201e+003, 2.666331e+001
1.048683e+003, 2.658209e+001
1.049165e+003, 2.633538e+001
1.049647e+003, 2.612675e+001
1.050129e+003, 2.597126e+001
1.050611e+003, 2.595763e+001
1.051093e+003, 2.609028e+001
1.051575e+003, 2.638399e+001
1.052057e+003, 2.716618e+001
1.052540e+003, 2.779881e+001
1.053022e+003, 2.760802e+001
1.053504e+003, 2.701966e+001
1.053986e+003, 2.690882e+001
1.054468e+003, 2.741409e+001
1.054950e+003, 2.767454e+001
1.055432e+003, 2.706966e+001
1.055914e+003, 2.671815e+001
1.056396e+003, 2.728976e+001
1.056879e+003, 2.797443e+001
1.057361e+003, 2.818034e+001
1.057843e+003, 2.805594e+001
1.058325e+003, 2.790466e+001
1.058807e+003, 2.777804e+001
1.059289e+003, 2.766629e+001
1.059771e+003, 2.755302e+001
1.060253e+003, 2.747216e+001
1.060736e+003, 2.729016e+001
1.061218e+003, 2.728741e+001
1.061700e+003, 2.789619e+001
1.062182e+003, 2.873264e+001
1.062664e+003, 2.913719e+001
1.063146e+003, 2.902782e+001
1.063628e+003, 2.886420e+001
1.064110e+003, 2.872818e+001
1.064593e+003, 2.868812e+001
1.065075e+003, 2.885438e+001
1.065557e+003, 2.904577e+001
1.066039e+003, 2.912230e+001
1.066521e+003, 2.913083e+001
1.067003e+003, 2.914870e+001
1.067485e+003, 2.919030e+001
1.067967e+003, 2.924299e+001
1.068449e+003, 2.925529e+001
1.068932e+003, 2.935988e+001
1.069414e+003, 2.971970e+001
1.069896e+003, 3.008907e+001
1.070378e+003, 3.036776e+001
1.070860e+003, 3.049055e+001
1.071342e+003, 3.024407e+001
1.071824e+003, 2.971933e+001
1.072306e+003, 2.954457e+001
1.072788e+003, 3.017149e+001
1.073271e+003, 3.066760e+001
1.073753e+003, 3.043876e+001
1.074235e+003, 3.008980e+001
1.074717e+003, 3.007571e+001
1.075199e+003, 3.019998e+001
1.075681e+003, 3.014990e+001
1.076163e+003, 2.993551e+001
1.076645e+003, 2.979409e+001
1.077127e+003, 2.979197e+001
1.077610e+003, 2.991593e+001
1.078092e+003, 3.040266e+001
1.078574e+003, 3.074746e+001
1.079056e+003, 3.039625e+001
1.079538e+003, 2.985892e+001
1.080020e+003, 2.983102e+001
1.080502e+003, 3.021059e+001
1.080984e+003, 3.037680e+001
1.081467e+003, 3.009870e+001
1.081949e+003, 2.980499e+001
1.082431e+003, 2.959629e+001
1.082913e+003, 2.953570e+001
1.083395e+003, 2.982227e+001
1.083877e+003, 3.015370e+001
1.084359e+003, 3.017733e+001
1.084841e+003, 2.996743e+001
1.085323e+003, 2.980306e+001
1.085806e+003, 2.975945e+001
1.086288e+003, 2.973629e+001
1.086770e+003, 2.976182e+001
1.087252e+003, 2.970946e+001
1.087734e+003, 2.942298e+001
1.088216e+003, 2.910562e+001
1.088698e+003, 2.896331e+001
1.089180e+003, 2.893769e+001
1.089662e+003, 2.887197e+001
1.090145e+003, 2.873289e+001
1.090627e+003, 2.861670e+001
1.091109e+003, 2.853209e+001
1.091591e+003, 2.851329e+001
1.092073e+003, 2.863027e+001
1.092555e+003, 2.876510e+001
1.093037e+003, 2.886871e+001
1.093519e+003, 2.890347e+001
1.094002e+003, 2.877493e+001
1.094484e+003, 2.849082e+001
1.094966e+003, 2.830451e+001
1.095448e+003, 2.832682e+001
1.095930e+003, 2.841351e+001
1.096412e+003, 2.869275e+001
1.096894e+003, 2.883329e+001
1.097376e+003, 2.847337e+001
1.097859e+003, 2.793991e+001
1.098341e+003, 2.763648e+001
1.098823e+003, 2.759997e+001
1.099305e+003, 2.773419e+001
1.099787e+003, 2.819354e+001
1.100269e+003, 2.845145e+001
1.100751e+003, 2.816982e+001
1.101233e+003, 2.789620e+001
1.101715e+003, 2.800211e+001
1.102198e+003, 2.817300e+001
1.102680e+003, 2.800232e+001
1.103162e+003, 2.758646e+001
1.103644e+003, 2.736976e+001
1.104126e+003, 2.746074e+001
1.104608e+003, 2.760759e+001
1.105090e+003, 2.790638e+001
1.105572e+003, 2.807184e+001
1.106054e+003, 2.794300e+001
1.106537e+003, 2.770049e+001
1.107019e+003, 2.738061e+001
1.107501e+003, 2.708594e+001
1.107983e+003, 2.709126e+001
1.108465e+003, 2.750153e+001
1.108947e+003, 2.771372e+001
1.109429e+003, 2.748024e+001
1.109911e+003, 2.732233e+001
1.110394e+003, 2.749957e+001
1.110876e+003, 2.761637e+001
1.111358e+003, 2.733456e+001
1.111840e+003, 2.688578e+001
1.112322e+003, 2.665752e+001
1.112804e+003, 2.666485e+001
1.113286e+003, 2.667370e+001
1.113768e+003, 2.671306e+001
1.114250e+003, 2.670315e+001
1.114733e+003, 2.654539e+001
1.115215e+003, 2.646806e+001
1.115697e+003, 2.664814e+001
1.116179e+003, 2.688366e+001
1.116661e+003, 2.694879e+001
1.117143e+003, 2.685838e+001
1.117625e+003, 2.671687e+001
1.118107e+003, 2.649194e+001
1.118589e+003, 2.628894e+001
1.119072e+003, 2.606289e+001
1.119554e+003, 2.595624e+001
1.120036e+003, 2.604255e+001
1.120518e+003, 2.622738e+001
1.121000e+003, 2.650311e+001
1.121482e+003, 2.676188e+001
1.121964e+003, 2.663644e+001
1.122446e+003, 2.600522e+001
1.122929e+003, 2.574933e+001
1.123411e+003, 2.597093e+001
1.123893e+003, 2.624515e+001
1.124375e+003, 2.654815e+001
1.124857e+003, 2.666228e+001
1.125339e+003, 2.638207e+001
1.125821e+003, 2.597681e+001
1.126303e+003, 2.592640e+001
1.126786e+003, 2.620813e+001
1.127268e+003, 2.643575e+001
1.127750e+003, 2.662513e+001
1.128232e+003, 2.654194e+001
1.128714e+003, 2.609568e+001
1.129196e+003, 2.589852e+001
1.129678e+003, 2.628871e+001
1.130160e+003, 2.665858e+001
1.130642e+003, 2.624365e+001
1.131125e+003, 2.536024e+001
1.131607e+003, 2.519412e+001
1.132089e+003, 2.569611e+001
1.132571e+003, 2.601667e+001
1.133053e+003, 2.610694e+001
1.133535e+003, 2.596772e+001
1.134017e+003, 2.560070e+001
1.134499e+003, 2.541746e+001
1.134981e+003, 2.577106e+001
1.135464e+003, 2.632025e+001
1.135946e+003, 2.640724e+001
1.136428e+003, 2.616410e+001
1.136910e+003, 2.608560e+001
1.137392e+003, 2.615619e+001
1.137874e+003, 2.629893e+001
1.138356e+003, 2.647576e+001
1.138838e+003, 2.655010e+001
1.139321e+003, 2.645196e+001
1.139803e+003, 2.627379e+001
1.140285e+003, 2.608828e+001
1.140767e+003, 2.591913e+001
1.141249e+003, 2.580279e+001
1.141731e+003, 2.573788e+001
1.142213e+003, 2.573132e+001
1.142695e+003, 2.577393e+001
1.143177e+003, 2.586877e+001
1.143660e+003, 2.599892e+001
1.144142e+003, 2.602442e+001
1.144624e+003, 2.578592e+001
1.145106e+003, 2.554860e+001
1.145588e+003, 2.564405e+001
1.146070e+003, 2.585723e+001
1.146552e+003, 2.596636e+001
1.147034e+003, 2.596205e+001
1.147516e+003, 2.581656e+001
1.147999e+003, 2.557199e+001
1.148481e+003, 2.539411e+001
1.148963e+003, 2.536291e+001
1.149445e+003, 2.533784e+001
1.149927e+003, 2.514584e+001
1.150409e+003, 2.502409e+001
1.150891e+003, 2.524163e+001
1.151373e+003, 2.554045e+001
1.151856e+003, 2.563990e+001
1.152338e+003, 2.558261e+001
1.152820e+003, 2.550512e+001
1.153302e+003, 2.543724e+001
1.153784e+003, 2.546601e+001
1.154266e+003, 2.570569e+001
1.154748e+003, 2.592565e+001
1.155230e+003, 2.617393e+001
1.155713e+003, 2.624367e+001
1.156195e+003, 2.580733e+001
1.156677e+003, 2.524694e+001
1.157159e+003, 2.505114e+001
1.157641e+003, 2.521191e+001
1.158123e+003, 2.544231e+001
1.158605e+003, 2.575508e+001
1.159087e+003, 2.605420e+001
1.159569e+003, 2.649445e+001
1.160052e+003, 2.669626e+001
1.160534e+003, 2.636148e+001
1.161016e+003, 2.598182e+001
1.161498e+003, 2.595847e+001
1.161980e+003, 2.612080e+001
1.162462e+003, 2.606312e+001
1.162944e+003, 2.573709e+001
1.163426e+003, 2.573733e+001
1.163908e+003, 2.622753e+001
1.164391e+003, 2.654999e+001
1.164873e+003, 2.655230e+001
1.165355e+003, 2.658764e+001
1.165837e+003, 2.686063e+001
1.166319e+003, 2.713458e+001
1.166801e+003, 2.710707e+001
1.167283e+003, 2.687021e+001
1.167765e+003, 2.680958e+001
1.168247e+003, 2.693100e+001
1.168730e+003, 2.706219e+001
1.169212e+003, 2.719707e+001
1.169694e+003, 2.728256e+001
1.170176e+003, 2.730345e+001
1.170658e+003, 2.727292e+001
1.171140e+003, 2.718502e+001
1.171622e+003, 2.716219e+001
1.172104e+003, 2.751108e+001
1.172587e+003, 2.804443e+001
1.173069e+003, 2.805874e+001
1.173551e+003, 2.770080e+001
1.174033e+003, 2.749120e+001
1.174515e+003, 2.749765e+001
1.174997e+003, 2.769600e+001
1.175479e+003, 2.805384e+001
1.175961e+003, 2.830487e+001
1.176443e+003, 2.820342e+001
1.176926e+003, 2.795005e+001
1.177408e+003, 2.772273e+001
1.177890e+003, 2.755494e+001
1.178372e+003, 2.754674e+001
1.178854e+003, 2.761502e+001
1.179336e+003, 2.760494e+001
1.179818e+003, 2.749514e+001
1.180300e+003, 2.732902e+001
1.180782e+003, 2.711654e+001
1.181265e+003, 2.691845e+001
1.181747e+003, 2.675893e+001
1.182229e+003, 2.664290e+001
1.182711e+003, 2.665848e+001
1.183193e+003, 2.664429e+001
1.183675e+003, 2.633588e+001
1.184157e+003, 2.592967e+001
1.184639e+003, 2.583785e+001
1.185122e+003, 2.610067e+001
1.185604e+003, 2.630271e+001
1.186086e+003, 2.637319e+001
1.186568e+003, 2.633999e+001
1.187050e+003, 2.610959e+001
1.187532e+003, 2.589834e+001
1.188014e+003, 2.586841e+001
1.188496e+003, 2.583274e+001
1.188979e+003, 2.550106e+001
1.189461e+003, 2.506000e+001
1.189943e+003, 2.511989e+001
1.190425e+003, 2.584704e+001
1.190907e+003, 2.605314e+001
1.191389e+003, 2.546864e+001
1.191871e+003, 2.513749e+001
1.192353e+003, 2.530552e+001
1.192835e+003, 2.551631e+001
1.193318e+003, 2.557178e+001
1.193800e+003, 2.546354e+001
1.194282e+003, 2.513851e+001
1.194764e+003, 2.469218e+001
1.195246e+003, 2.453249e+001
1.195728e+003, 2.464655e+001
1.196210e+003, 2.471736e+001
1.196692e+003, 2.472726e+001
1.197174e+003, 2.460641e+001
1.197657e+003, 2.434786e+001
1.198139e+003, 2.415292e+001
1.198621e+003, 2.415100e+001
1.199103e+003, 2.420518e+001
1.199585e+003, 2.407059e+001
1.200067e+003, 2.391308e+001
1.200549e+003, 2.419010e+001
1.201031e+003, 2.465310e+001
1.201514e+003, 2.469160e+001
1.201996e+003, 2.440145e+001
1.202478e+003, 2.428055e+001
1.202960e+003, 2.443858e+001
1.203442e+003, 2.455885e+001
1.203924e+003, 2.444916e+001
1.204406e+003, 2.427269e+001
1.204888e+003, 2.404441e+001
1.205370e+003, 2.391735e+001
1.205853e+003, 2.417507e+001
1.206335e+003, 2.449260e+001
1.206817e+003, 2.439277e+001
1.207299e+003, 2.402881e+001
1.207781e+003, 2.391157e+001
1.208263e+003, 2.415546e+001
1.208745e+003, 2.437967e+001
1.209227e+003, 2.447984e+001
1.209709e+003, 2.457104e+001
1.210192e+003, 2.470144e+001
1.210674e+003, 2.480062e+001
1.211156e+003, 2.485211e+001
1.211638e+003, 2.484044e+001
1.212120e+003, 2.477484e+001
1.212602e+003, 2.462525e+001
1.213084e+003, 2.423215e+001
1.213566e+003, 2.345689e+001
1.214049e+003, 2.316408e+001
1.214531e+003, 2.346082e+001
1.215013e+003, 2.384273e+001
1.215495e+003, 2.425219e+001
1.215977e+003, 2.457239e+001
1.216459e+003, 2.474763e+001
1.216941e+003, 2.475152e+001
1.217423e+003, 2.450146e+001
1.217906e+003, 2.413684e+001
1.218388e+003, 2.417313e+001
1.218870e+003, 2.449485e+001
1.219352e+003, 2.440198e+001
1.219834e+003, 2.399306e+001
1.220316e+003, 2.411926e+001
1.220798e+003, 2.484047e+001
1.221280e+003, 2.512254e+001
1.221762e+003, 2.438739e+001
1.222245e+003, 2.358210e+001
1.222727e+003, 2.376127e+001
1.223209e+003, 2.426985e+001
1.223691e+003, 2.438109e+001
1.224173e+003, 2.434766e+001
1.224655e+003, 2.456984e+001
1.225137e+003, 2.488513e+001
1.225619e+003, 2.488399e+001
1.226101e+003, 2.454970e+001
1.226584e+003, 2.425089e+001
1.227066e+003, 2.412189e+001
1.227548e+003, 2.401982e+001
1.228030e+003, 2.381462e+001
1.228512e+003, 2.373506e+001
1.228994e+003, 2.401759e+001
1.229476e+003, 2.432547e+001
1.229958e+003, 2.442449e+001
1.230441e+003, 2.435111e+001
1.230923e+003, 2.413806e+001
1.231405e+003, 2.379397e+001
1.231887e+003, 2.366040e+001
1.232369e+003, 2.386170e+001
1.232851e+003, 2.385509e+001
1.233333e+003, 2.349549e+001
1.233815e+003, 2.341327e+001
1.234297e+003, 2.388479e+001
1.234780e+003, 2.426046e+001
1.235262e+003, 2.403329e+001
1.235744e+003, 2.358989e+001
1.236226e+003, 2.361627e+001
1.236708e+003, 2.398326e+001
1.237190e+003, 2.414891e+001
1.237672e+003, 2.415853e+001
1.238154e+003, 2.423746e+001
1.238636e+003, 2.437677e+001
1.239119e+003, 2.441850e+001
1.239601e+003, 2.431949e+001
1.240083e+003, 2.411114e+001
1.240565e+003, 2.376965e+001
1.241047e+003, 2.355780e+001
1.241529e+003, 2.385513e+001
1.242011e+003, 2.427034e+001
1.242493e+003, 2.449434e+001
1.242975e+003, 2.455107e+001
1.243458e+003, 2.434805e+001
1.243940e+003, 2.406858e+001
1.244422e+003, 2.413795e+001
1.244904e+003, 2.458602e+001
1.245386e+003, 2.483692e+001
1.245868e+003, 2.461907e+001
1.246350e+003, 2.442179e+001
1.246832e+003, 2.426900e+001
1.247315e+003, 2.423169e+001
1.247797e+003, 2.449275e+001
1.248279e+003, 2.467649e+001
1.248761e+003, 2.444091e+001
1.249243e+003, 2.403585e+001
1.249725e+003, 2.393182e+001
1.250207e+003, 2.410461e+001
1.250689e+003, 2.411093e+001
1.251172e+003, 2.392743e+001
1.251654e+003, 2.378846e+001
1.252136e+003, 2.370402e+001
1.252618e+003, 2.398276e+001
1.253100e+003, 2.471380e+001
1.253582e+003, 2.521402e+001
1.254064e+003, 2.499709e+001
1.254546e+003, 2.448036e+001
1.255028e+003, 2.416946e+001
1.255510e+003, 2.401419e+001
1.255993e+003, 2.396777e+001
1.256475e+003, 2.398338e+001
1.256957e+003, 2.392951e+001
1.257439e+003, 2.387403e+001
1.257921e+003, 2.410036e+001
1.258403e+003, 2.457129e+001
1.258885e+003, 2.472918e+001
1.259367e+003, 2.421663e+001
1.259850e+003, 2.383301e+001
1.260332e+003, 2.408671e+001
1.260814e+003, 2.437585e+001
1.261296e+003, 2.439194e+001
1.261778e+003, 2.435845e+001
1.262260e+003, 2.449391e+001
1.262742e+003, 2.467159e+001
1.263224e+003, 2.465857e+001
1.263707e+003, 2.448191e+001
1.264189e+003, 2.437865e+001
1.264671e+003, 2.437389e+001
1.265153e+003, 2.435074e+001
1.265635e+003, 2.429379e+001
1.266117e+003, 2.429335e+001
1.266599e+003, 2.437834e+001
1.267081e+003, 2.446135e+001
1.267563e+003, 2.449387e+001
1.268046e+003, 2.450293e+001
1.268528e+003, 2.452970e+001
1.269010e+003, 2.453933e+001
1.269492e+003, 2.437842e+001
1.269974e+003, 2.416700e+001
1.270456e+003, 2.431194e+001
1.270938e+003, 2.464796e+001
1.271420e+003, 2.459443e+001
1.271902e+003, 2.420255e+001
1.272385e+003, 2.411118e+001
1.272867e+003, 2.456558e+001
1.273349e+003, 2.498384e+001
1.273831e+003, 2.506977e+001
1.274313e+003, 2.496327e+001
1.274795e+003, 2.448686e+001
1.275277e+003, 2.412326e+001
1.275759e+003, 2.431158e+001
1.276242e+003, 2.469232e+001
1.276724e+003, 2.488636e+001
1.277206e+003, 2.490935e+001
1.277688e+003, 2.489022e+001
1.278170e+003, 2.484188e+001
1.278652e+003, 2.459374e+001
1.279134e+003, 2.398526e+001
1.279616e+003, 2.382056e+001
1.280099e+003, 2.429014e+001
1.280581e+003, 2.460583e+001
1.281063e+003, 2.445852e+001
1.281545e+003, 2.432129e+001
1.282027e+003, 2.458169e+001
1.282509e+003, 2.499958e+001
1.282991e+003, 2.523030e+001
1.283473e+003, 2.527714e+001
1.283955e+003, 2.515089e+001
##END=



