##NAMES=Whiteite-(CaMnMg)
##RRUFFID=R140770
##IDEAL CHEMISTRY=CaMn^2+^Mg_2_Al_2_(PO_4_)_4_(OH)_2_&#183;8H_2_O
##LOCALITY=Tip Top mine, Fourmile, Custer District, Custer County, South Dakota, USA
##OWNER=RRUFF
##SOURCE=Thomas A. Loomis
##DESCRIPTION=Light tan with triangular striated faces, associated with deep red roscherite and colorless acicular sprays of tiptopite. Crystals are twinned by a 2-fold rotation around a*.
##STATUS=The identification of this mineral has been confirmed only by single crystal X-ray diffraction.
##URL=rruff.info/R140770
8.930109e+001, 0.000000e+000
8.978320e+001, 3.315458e+002
9.026532e+001, 3.302948e+002
9.074744e+001, 3.304673e+002
9.122955e+001, 3.326740e+002
9.171167e+001, 3.358350e+002
9.219379e+001, 3.387684e+002
9.267590e+001, 3.415829e+002
9.315802e+001, 3.434486e+002
9.364014e+001, 3.434281e+002
9.412225e+001, 3.420194e+002
9.460437e+001, 3.404025e+002
9.508649e+001, 3.388633e+002
9.556860e+001, 3.372404e+002
9.605072e+001, 3.355353e+002
9.653284e+001, 3.340889e+002
9.701495e+001, 3.324169e+002
9.749707e+001, 3.295963e+002
9.797919e+001, 3.256431e+002
9.846130e+001, 3.222887e+002
9.894342e+001, 3.201318e+002
9.942554e+001, 3.190655e+002
9.990765e+001, 3.180345e+002
1.003898e+002, 3.170388e+002
1.008719e+002, 3.160590e+002
1.013540e+002, 3.150732e+002
1.018361e+002, 3.140833e+002
1.023182e+002, 3.130532e+002
1.028004e+002, 3.119182e+002
1.032825e+002, 3.106078e+002
1.037646e+002, 3.095811e+002
1.042467e+002, 3.088211e+002
1.047288e+002, 3.083583e+002
1.052109e+002, 3.082662e+002
1.056931e+002, 3.085514e+002
1.061752e+002, 3.091897e+002
1.066573e+002, 3.101606e+002
1.071394e+002, 3.112679e+002
1.076215e+002, 3.130420e+002
1.081036e+002, 3.161121e+002
1.085858e+002, 3.200914e+002
1.090679e+002, 3.227861e+002
1.095500e+002, 3.235702e+002
1.100321e+002, 3.236270e+002
1.105142e+002, 3.235891e+002
1.109963e+002, 3.233177e+002
1.114785e+002, 3.231335e+002
1.119606e+002, 3.228081e+002
1.124427e+002, 3.223705e+002
1.129248e+002, 3.228211e+002
1.134069e+002, 3.252798e+002
1.138890e+002, 3.281703e+002
1.143712e+002, 3.302536e+002
1.148533e+002, 3.304432e+002
1.153354e+002, 3.305517e+002
1.158175e+002, 3.310834e+002
1.162996e+002, 3.320762e+002
1.167817e+002, 3.334225e+002
1.172639e+002, 3.355399e+002
1.177460e+002, 3.378837e+002
1.182281e+002, 3.397617e+002
1.187102e+002, 3.407174e+002
1.191923e+002, 3.412812e+002
1.196744e+002, 3.417076e+002
1.201566e+002, 3.420000e+002
1.206387e+002, 3.422521e+002
1.211208e+002, 3.424306e+002
1.216029e+002, 3.425959e+002
1.220850e+002, 3.428765e+002
1.225671e+002, 3.431849e+002
1.230493e+002, 3.436916e+002
1.235314e+002, 3.445781e+002
1.240135e+002, 3.458909e+002
1.244956e+002, 3.475167e+002
1.249777e+002, 3.498220e+002
1.254598e+002, 3.525103e+002
1.259420e+002, 3.544338e+002
1.264241e+002, 3.541782e+002
1.269062e+002, 3.527146e+002
1.273883e+002, 3.518549e+002
1.278704e+002, 3.521302e+002
1.283525e+002, 3.529561e+002
1.288347e+002, 3.533784e+002
1.293168e+002, 3.534319e+002
1.297989e+002, 3.537164e+002
1.302810e+002, 3.550871e+002
1.307631e+002, 3.572091e+002
1.312452e+002, 3.587133e+002
1.317274e+002, 3.590029e+002
1.322095e+002, 3.585751e+002
1.326916e+002, 3.588029e+002
1.331737e+002, 3.597602e+002
1.336558e+002, 3.609188e+002
1.341379e+002, 3.618161e+002
1.346201e+002, 3.624579e+002
1.351022e+002, 3.629976e+002
1.355843e+002, 3.633461e+002
1.360664e+002, 3.635828e+002
1.365485e+002, 3.643477e+002
1.370306e+002, 3.657430e+002
1.375128e+002, 3.674414e+002
1.379949e+002, 3.690879e+002
1.384770e+002, 3.706589e+002
1.389591e+002, 3.723123e+002
1.394412e+002, 3.740722e+002
1.399233e+002, 3.759038e+002
1.404055e+002, 3.781748e+002
1.408876e+002, 3.812573e+002
1.413697e+002, 3.843893e+002
1.418518e+002, 3.862216e+002
1.423339e+002, 3.862396e+002
1.428160e+002, 3.860948e+002
1.432982e+002, 3.864031e+002
1.437803e+002, 3.873644e+002
1.442624e+002, 3.881004e+002
1.447445e+002, 3.884147e+002
1.452266e+002, 3.885694e+002
1.457087e+002, 3.891991e+002
1.461909e+002, 3.908540e+002
1.466730e+002, 3.923054e+002
1.471551e+002, 3.930372e+002
1.476372e+002, 3.923885e+002
1.481193e+002, 3.921406e+002
1.486014e+002, 3.924978e+002
1.490836e+002, 3.932884e+002
1.495657e+002, 3.939259e+002
1.500478e+002, 3.941789e+002
1.505299e+002, 3.944532e+002
1.510120e+002, 3.949282e+002
1.514941e+002, 3.960438e+002
1.519763e+002, 3.968292e+002
1.524584e+002, 3.970439e+002
1.529405e+002, 3.968204e+002
1.534226e+002, 3.968496e+002
1.539047e+002, 3.975786e+002
1.543868e+002, 3.983116e+002
1.548690e+002, 3.986693e+002
1.553511e+002, 3.976115e+002
1.558332e+002, 3.972345e+002
1.563153e+002, 3.984497e+002
1.567974e+002, 4.009903e+002
1.572795e+002, 4.026821e+002
1.577617e+002, 4.026675e+002
1.582438e+002, 4.018496e+002
1.587259e+002, 4.008815e+002
1.592080e+002, 3.994717e+002
1.596901e+002, 3.983593e+002
1.601722e+002, 3.978758e+002
1.606544e+002, 3.979993e+002
1.611365e+002, 3.981821e+002
1.616186e+002, 3.982437e+002
1.621007e+002, 3.982694e+002
1.625828e+002, 3.983383e+002
1.630649e+002, 3.987760e+002
1.635471e+002, 3.990041e+002
1.640292e+002, 3.985623e+002
1.645113e+002, 3.974323e+002
1.649934e+002, 3.965038e+002
1.654755e+002, 3.965238e+002
1.659576e+002, 3.969143e+002
1.664398e+002, 3.969625e+002
1.669219e+002, 3.961581e+002
1.674040e+002, 3.950809e+002
1.678861e+002, 3.940857e+002
1.683682e+002, 3.931871e+002
1.688503e+002, 3.923343e+002
1.693325e+002, 3.914745e+002
1.698146e+002, 3.906412e+002
1.702967e+002, 3.898998e+002
1.707788e+002, 3.893103e+002
1.712609e+002, 3.888033e+002
1.717430e+002, 3.883640e+002
1.722252e+002, 3.880052e+002
1.727073e+002, 3.875856e+002
1.731894e+002, 3.869585e+002
1.736715e+002, 3.861775e+002
1.741536e+002, 3.853873e+002
1.746357e+002, 3.846148e+002
1.751179e+002, 3.838742e+002
1.756000e+002, 3.832089e+002
1.760821e+002, 3.826472e+002
1.765642e+002, 3.820558e+002
1.770463e+002, 3.812715e+002
1.775284e+002, 3.803398e+002
1.780106e+002, 3.794158e+002
1.784927e+002, 3.784297e+002
1.789748e+002, 3.775350e+002
1.794569e+002, 3.770759e+002
1.799390e+002, 3.771490e+002
1.804211e+002, 3.774027e+002
1.809033e+002, 3.774614e+002
1.813854e+002, 3.773503e+002
1.818675e+002, 3.771834e+002
1.823496e+002, 3.770247e+002
1.828317e+002, 3.768608e+002
1.833138e+002, 3.766647e+002
1.837960e+002, 3.764522e+002
1.842781e+002, 3.761566e+002
1.847602e+002, 3.756451e+002
1.852423e+002, 3.749326e+002
1.857244e+002, 3.741952e+002
1.862065e+002, 3.733701e+002
1.866887e+002, 3.725647e+002
1.871708e+002, 3.722477e+002
1.876529e+002, 3.725804e+002
1.881350e+002, 3.731738e+002
1.886171e+002, 3.733636e+002
1.890992e+002, 3.731581e+002
1.895814e+002, 3.728510e+002
1.900635e+002, 3.726078e+002
1.905456e+002, 3.724189e+002
1.910277e+002, 3.722699e+002
1.915098e+002, 3.722062e+002
1.919919e+002, 3.721104e+002
1.924741e+002, 3.716196e+002
1.929562e+002, 3.707117e+002
1.934383e+002, 3.699384e+002
1.939204e+002, 3.697523e+002
1.944025e+002, 3.701196e+002
1.948846e+002, 3.704644e+002
1.953668e+002, 3.707045e+002
1.958489e+002, 3.709008e+002
1.963310e+002, 3.712128e+002
1.968131e+002, 3.716517e+002
1.972952e+002, 3.721096e+002
1.977773e+002, 3.724948e+002
1.982595e+002, 3.728011e+002
1.987416e+002, 3.731853e+002
1.992237e+002, 3.736404e+002
1.997058e+002, 3.742025e+002
2.001879e+002, 3.750943e+002
2.006700e+002, 3.764460e+002
2.011522e+002, 3.775925e+002
2.016343e+002, 3.778178e+002
2.021164e+002, 3.769620e+002
2.025985e+002, 3.769344e+002
2.030806e+002, 3.782157e+002
2.035627e+002, 3.803351e+002
2.040449e+002, 3.817337e+002
2.045270e+002, 3.822563e+002
2.050091e+002, 3.825590e+002
2.054912e+002, 3.830417e+002
2.059733e+002, 3.837050e+002
2.064554e+002, 3.845581e+002
2.069376e+002, 3.856871e+002
2.074197e+002, 3.869796e+002
2.079018e+002, 3.879916e+002
2.083839e+002, 3.885971e+002
2.088660e+002, 3.892533e+002
2.093481e+002, 3.902738e+002
2.098303e+002, 3.917174e+002
2.103124e+002, 3.933415e+002
2.107945e+002, 3.952801e+002
2.112766e+002, 3.973553e+002
2.117587e+002, 3.987961e+002
2.122408e+002, 3.993228e+002
2.127230e+002, 3.998153e+002
2.132051e+002, 4.009356e+002
2.136872e+002, 4.029284e+002
2.141693e+002, 4.046690e+002
2.146514e+002, 4.058828e+002
2.151335e+002, 4.067427e+002
2.156157e+002, 4.080578e+002
2.160978e+002, 4.100293e+002
2.165799e+002, 4.120814e+002
2.170620e+002, 4.139877e+002
2.175441e+002, 4.160087e+002
2.180262e+002, 4.170110e+002
2.185084e+002, 4.164357e+002
2.189905e+002, 4.147299e+002
2.194726e+002, 4.142442e+002
2.199547e+002, 4.154975e+002
2.204368e+002, 4.170793e+002
2.209189e+002, 4.180593e+002
2.214011e+002, 4.181879e+002
2.218832e+002, 4.184020e+002
2.223653e+002, 4.187242e+002
2.228474e+002, 4.191941e+002
2.233295e+002, 4.200898e+002
2.238116e+002, 4.217440e+002
2.242938e+002, 4.232760e+002
2.247759e+002, 4.240681e+002
2.252580e+002, 4.236747e+002
2.257401e+002, 4.236154e+002
2.262222e+002, 4.241294e+002
2.267043e+002, 4.250527e+002
2.271865e+002, 4.257344e+002
2.276686e+002, 4.261110e+002
2.281507e+002, 4.263137e+002
2.286328e+002, 4.263117e+002
2.291149e+002, 4.257230e+002
2.295970e+002, 4.258740e+002
2.300792e+002, 4.271955e+002
2.305613e+002, 4.293199e+002
2.310434e+002, 4.307283e+002
2.315255e+002, 4.310928e+002
2.320076e+002, 4.312186e+002
2.324897e+002, 4.314790e+002
2.329719e+002, 4.317637e+002
2.334540e+002, 4.324852e+002
2.339361e+002, 4.339308e+002
2.344182e+002, 4.358174e+002
2.349003e+002, 4.371696e+002
2.353824e+002, 4.378771e+002
2.358646e+002, 4.382094e+002
2.363467e+002, 4.382475e+002
2.368288e+002, 4.377988e+002
2.373109e+002, 4.374678e+002
2.377930e+002, 4.372723e+002
2.382751e+002, 4.371927e+002
2.387573e+002, 4.371606e+002
2.392394e+002, 4.370351e+002
2.397215e+002, 4.371429e+002
2.402036e+002, 4.376833e+002
2.406857e+002, 4.389590e+002
2.411678e+002, 4.399886e+002
2.416500e+002, 4.408759e+002
2.421321e+002, 4.414805e+002
2.426142e+002, 4.413778e+002
2.430963e+002, 4.401163e+002
2.435784e+002, 4.388100e+002
2.440605e+002, 4.379508e+002
2.445427e+002, 4.377235e+002
2.450248e+002, 4.374675e+002
2.455069e+002, 4.372045e+002
2.459890e+002, 4.369091e+002
2.464711e+002, 4.365351e+002
2.469532e+002, 4.361044e+002
2.474354e+002, 4.355633e+002
2.479175e+002, 4.348274e+002
2.483996e+002, 4.336966e+002
2.488817e+002, 4.330658e+002
2.493638e+002, 4.332049e+002
2.498459e+002, 4.337018e+002
2.503281e+002, 4.337747e+002
2.508102e+002, 4.332203e+002
2.512923e+002, 4.326063e+002
2.517744e+002, 4.321037e+002
2.522565e+002, 4.317231e+002
2.527386e+002, 4.314828e+002
2.532208e+002, 4.315885e+002
2.537029e+002, 4.316839e+002
2.541850e+002, 4.311076e+002
2.546671e+002, 4.293708e+002
2.551492e+002, 4.279096e+002
2.556313e+002, 4.272893e+002
2.561135e+002, 4.276943e+002
2.565956e+002, 4.276006e+002
2.570777e+002, 4.266851e+002
2.575598e+002, 4.255677e+002
2.580419e+002, 4.251736e+002
2.585240e+002, 4.259173e+002
2.590062e+002, 4.264253e+002
2.594883e+002, 4.262049e+002
2.599704e+002, 4.251873e+002
2.604525e+002, 4.245217e+002
2.609346e+002, 4.242065e+002
2.614167e+002, 4.242549e+002
2.618989e+002, 4.248011e+002
2.623810e+002, 4.261281e+002
2.628631e+002, 4.271962e+002
2.633452e+002, 4.277007e+002
2.638273e+002, 4.276560e+002
2.643094e+002, 4.277043e+002
2.647916e+002, 4.278546e+002
2.652737e+002, 4.281035e+002
2.657558e+002, 4.284467e+002
2.662379e+002, 4.288779e+002
2.667200e+002, 4.294357e+002
2.672021e+002, 4.301412e+002
2.676843e+002, 4.309869e+002
2.681664e+002, 4.319186e+002
2.686485e+002, 4.329131e+002
2.691306e+002, 4.340276e+002
2.696127e+002, 4.353109e+002
2.700948e+002, 4.367757e+002
2.705770e+002, 4.383208e+002
2.710591e+002, 4.399896e+002
2.715412e+002, 4.416971e+002
2.720233e+002, 4.430221e+002
2.725054e+002, 4.437905e+002
2.729875e+002, 4.445729e+002
2.734697e+002, 4.457856e+002
2.739518e+002, 4.474895e+002
2.744339e+002, 4.493088e+002
2.749160e+002, 4.512632e+002
2.753981e+002, 4.532619e+002
2.758802e+002, 4.550471e+002
2.763624e+002, 4.565529e+002
2.768445e+002, 4.580135e+002
2.773266e+002, 4.596333e+002
2.778087e+002, 4.614421e+002
2.782908e+002, 4.629598e+002
2.787729e+002, 4.640482e+002
2.792551e+002, 4.649480e+002
2.797372e+002, 4.662838e+002
2.802193e+002, 4.681593e+002
2.807014e+002, 4.698356e+002
2.811835e+002, 4.708273e+002
2.816656e+002, 4.711463e+002
2.821478e+002, 4.716111e+002
2.826299e+002, 4.723114e+002
2.831120e+002, 4.730532e+002
2.835941e+002, 4.734722e+002
2.840762e+002, 4.735544e+002
2.845583e+002, 4.736148e+002
2.850405e+002, 4.737688e+002
2.855226e+002, 4.740168e+002
2.860047e+002, 4.743861e+002
2.864868e+002, 4.748972e+002
2.869689e+002, 4.754588e+002
2.874510e+002, 4.759766e+002
2.879332e+002, 4.764470e+002
2.884153e+002, 4.768450e+002
2.888974e+002, 4.773488e+002
2.893795e+002, 4.777783e+002
2.898616e+002, 4.771350e+002
2.903438e+002, 4.752597e+002
2.908259e+002, 4.734073e+002
2.913080e+002, 4.732654e+002
2.917901e+002, 4.745376e+002
2.922722e+002, 4.754229e+002
2.927543e+002, 4.751405e+002
2.932365e+002, 4.741751e+002
2.937186e+002, 4.735410e+002
2.942007e+002, 4.732430e+002
2.946828e+002, 4.733352e+002
2.951649e+002, 4.743076e+002
2.956470e+002, 4.757902e+002
2.961292e+002, 4.765323e+002
2.966113e+002, 4.759298e+002
2.970934e+002, 4.747287e+002
2.975755e+002, 4.742063e+002
2.980576e+002, 4.742890e+002
2.985397e+002, 4.742122e+002
2.990219e+002, 4.730224e+002
2.995040e+002, 4.712881e+002
2.999861e+002, 4.703771e+002
3.004682e+002, 4.708739e+002
3.009503e+002, 4.716251e+002
3.014324e+002, 4.710985e+002
3.019146e+002, 4.695570e+002
3.023967e+002, 4.680693e+002
3.028788e+002, 4.671421e+002
3.033609e+002, 4.667375e+002
3.038430e+002, 4.670303e+002
3.043251e+002, 4.682724e+002
3.048073e+002, 4.693358e+002
3.052894e+002, 4.693314e+002
3.057715e+002, 4.683483e+002
3.062536e+002, 4.666048e+002
3.067357e+002, 4.634610e+002
3.072178e+002, 4.599935e+002
3.077000e+002, 4.573903e+002
3.081821e+002, 4.557920e+002
3.086642e+002, 4.544955e+002
3.091463e+002, 4.531313e+002
3.096284e+002, 4.517057e+002
3.101105e+002, 4.502105e+002
3.105927e+002, 4.486161e+002
3.110748e+002, 4.469892e+002
3.115569e+002, 4.453366e+002
3.120390e+002, 4.436620e+002
3.125211e+002, 4.420428e+002
3.130032e+002, 4.403043e+002
3.134854e+002, 4.387109e+002
3.139675e+002, 4.375676e+002
3.144496e+002, 4.372123e+002
3.149317e+002, 4.371270e+002
3.154138e+002, 4.374002e+002
3.158959e+002, 4.378941e+002
3.163781e+002, 4.377639e+002
3.168602e+002, 4.360681e+002
3.173423e+002, 4.339499e+002
3.178244e+002, 4.322345e+002
3.183065e+002, 4.311675e+002
3.187886e+002, 4.304358e+002
3.192708e+002, 4.300717e+002
3.197529e+002, 4.299892e+002
3.202350e+002, 4.299474e+002
3.207171e+002, 4.298264e+002
3.211992e+002, 4.297586e+002
3.216813e+002, 4.298587e+002
3.221635e+002, 4.303352e+002
3.226456e+002, 4.305163e+002
3.231277e+002, 4.300258e+002
3.236098e+002, 4.291916e+002
3.240919e+002, 4.285622e+002
3.245740e+002, 4.282697e+002
3.250562e+002, 4.281544e+002
3.255383e+002, 4.281594e+002
3.260204e+002, 4.282604e+002
3.265025e+002, 4.285741e+002
3.269846e+002, 4.294686e+002
3.274667e+002, 4.304377e+002
3.279489e+002, 4.309511e+002
3.284310e+002, 4.303043e+002
3.289131e+002, 4.300043e+002
3.293952e+002, 4.304254e+002
3.298773e+002, 4.315939e+002
3.303594e+002, 4.325056e+002
3.308416e+002, 4.328873e+002
3.313237e+002, 4.332377e+002
3.318058e+002, 4.339199e+002
3.322879e+002, 4.351720e+002
3.327700e+002, 4.363611e+002
3.332521e+002, 4.374890e+002
3.337343e+002, 4.385262e+002
3.342164e+002, 4.392832e+002
3.346985e+002, 4.394824e+002
3.351806e+002, 4.398103e+002
3.356627e+002, 4.407101e+002
3.361448e+002, 4.424586e+002
3.366270e+002, 4.438454e+002
3.371091e+002, 4.446270e+002
3.375912e+002, 4.451762e+002
3.380733e+002, 4.464103e+002
3.385554e+002, 4.486166e+002
3.390375e+002, 4.505367e+002
3.395197e+002, 4.514310e+002
3.400018e+002, 4.511933e+002
3.404839e+002, 4.519182e+002
3.409660e+002, 4.538287e+002
3.414481e+002, 4.561836e+002
3.419302e+002, 4.580323e+002
3.424124e+002, 4.593660e+002
3.428945e+002, 4.604684e+002
3.433766e+002, 4.612728e+002
3.438587e+002, 4.619192e+002
3.443408e+002, 4.631613e+002
3.448229e+002, 4.650454e+002
3.453051e+002, 4.671677e+002
3.457872e+002, 4.693268e+002
3.462693e+002, 4.714635e+002
3.467514e+002, 4.732010e+002
3.472335e+002, 4.743182e+002
3.477156e+002, 4.751638e+002
3.481978e+002, 4.764448e+002
3.486799e+002, 4.781286e+002
3.491620e+002, 4.797617e+002
3.496441e+002, 4.809287e+002
3.501262e+002, 4.818328e+002
3.506083e+002, 4.829645e+002
3.510905e+002, 4.844292e+002
3.515726e+002, 4.860092e+002
3.520547e+002, 4.875431e+002
3.525368e+002, 4.890033e+002
3.530189e+002, 4.903066e+002
3.535010e+002, 4.911198e+002
3.539832e+002, 4.918868e+002
3.544653e+002, 4.933812e+002
3.549474e+002, 4.956837e+002
3.554295e+002, 4.976517e+002
3.559116e+002, 4.981271e+002
3.563937e+002, 4.977463e+002
3.568759e+002, 4.974588e+002
3.573580e+002, 4.974744e+002
3.578401e+002, 4.978101e+002
3.583222e+002, 4.988527e+002
3.588043e+002, 5.004237e+002
3.592864e+002, 5.013937e+002
3.597686e+002, 5.004554e+002
3.602507e+002, 4.990293e+002
3.607328e+002, 4.983830e+002
3.612149e+002, 4.992411e+002
3.616970e+002, 5.001456e+002
3.621791e+002, 5.006662e+002
3.626613e+002, 5.008045e+002
3.631434e+002, 5.005699e+002
3.636255e+002, 4.997094e+002
3.641076e+002, 4.986713e+002
3.645897e+002, 4.976438e+002
3.650718e+002, 4.966772e+002
3.655540e+002, 4.956806e+002
3.660361e+002, 4.948445e+002
3.665182e+002, 4.939036e+002
3.670003e+002, 4.925406e+002
3.674824e+002, 4.900699e+002
3.679645e+002, 4.878535e+002
3.684467e+002, 4.863137e+002
3.689288e+002, 4.855242e+002
3.694109e+002, 4.844673e+002
3.698930e+002, 4.830084e+002
3.703751e+002, 4.814014e+002
3.708572e+002, 4.798068e+002
3.713394e+002, 4.782603e+002
3.718215e+002, 4.766970e+002
3.723036e+002, 4.750185e+002
3.727857e+002, 4.733222e+002
3.732678e+002, 4.719895e+002
3.737499e+002, 4.712635e+002
3.742321e+002, 4.704348e+002
3.747142e+002, 4.690546e+002
3.751963e+002, 4.668250e+002
3.756784e+002, 4.653388e+002
3.761605e+002, 4.648799e+002
3.766426e+002, 4.648048e+002
3.771248e+002, 4.641489e+002
3.776069e+002, 4.628428e+002
3.780890e+002, 4.613151e+002
3.785711e+002, 4.595804e+002
3.790532e+002, 4.577056e+002
3.795353e+002, 4.563395e+002
3.800175e+002, 4.555261e+002
3.804996e+002, 4.549489e+002
3.809817e+002, 4.542888e+002
3.814638e+002, 4.535771e+002
3.819459e+002, 4.530813e+002
3.824280e+002, 4.529458e+002
3.829102e+002, 4.529377e+002
3.833923e+002, 4.526627e+002
3.838744e+002, 4.521187e+002
3.843565e+002, 4.513401e+002
3.848386e+002, 4.500844e+002
3.853207e+002, 4.486484e+002
3.858029e+002, 4.477967e+002
3.862850e+002, 4.476924e+002
3.867671e+002, 4.476446e+002
3.872492e+002, 4.467714e+002
3.877313e+002, 4.454006e+002
3.882134e+002, 4.442960e+002
3.886956e+002, 4.440025e+002
3.891777e+002, 4.440177e+002
3.896598e+002, 4.439711e+002
3.901419e+002, 4.438539e+002
3.906240e+002, 4.435998e+002
3.911061e+002, 4.429842e+002
3.915883e+002, 4.422951e+002
3.920704e+002, 4.418213e+002
3.925525e+002, 4.415883e+002
3.930346e+002, 4.416696e+002
3.935167e+002, 4.423500e+002
3.939988e+002, 4.434045e+002
3.944810e+002, 4.442042e+002
3.949631e+002, 4.444326e+002
3.954452e+002, 4.444290e+002
3.959273e+002, 4.443121e+002
3.964094e+002, 4.440149e+002
3.968915e+002, 4.438599e+002
3.973737e+002, 4.438880e+002
3.978558e+002, 4.440892e+002
3.983379e+002, 4.444508e+002
3.988200e+002, 4.452109e+002
3.993021e+002, 4.458624e+002
3.997842e+002, 4.461968e+002
4.002664e+002, 4.462116e+002
4.007485e+002, 4.465406e+002
4.012306e+002, 4.473385e+002
4.017127e+002, 4.482830e+002
4.021948e+002, 4.491936e+002
4.026769e+002, 4.501454e+002
4.031591e+002, 4.508715e+002
4.036412e+002, 4.512577e+002
4.041233e+002, 4.514501e+002
4.046054e+002, 4.518189e+002
4.050875e+002, 4.523800e+002
4.055696e+002, 4.530682e+002
4.060518e+002, 4.539289e+002
4.065339e+002, 4.549771e+002
4.070160e+002, 4.557521e+002
4.074981e+002, 4.561707e+002
4.079802e+002, 4.565555e+002
4.084623e+002, 4.572668e+002
4.089445e+002, 4.583111e+002
4.094266e+002, 4.595648e+002
4.099087e+002, 4.611316e+002
4.103908e+002, 4.627862e+002
4.108729e+002, 4.638472e+002
4.113550e+002, 4.643431e+002
4.118372e+002, 4.648976e+002
4.123193e+002, 4.660185e+002
4.128014e+002, 4.675333e+002
4.132835e+002, 4.690605e+002
4.137656e+002, 4.705674e+002
4.142477e+002, 4.720409e+002
4.147299e+002, 4.734023e+002
4.152120e+002, 4.747024e+002
4.156941e+002, 4.760309e+002
4.161762e+002, 4.772000e+002
4.166583e+002, 4.785680e+002
4.171404e+002, 4.806249e+002
4.176226e+002, 4.833548e+002
4.181047e+002, 4.859412e+002
4.185868e+002, 4.877290e+002
4.190689e+002, 4.892393e+002
4.195510e+002, 4.910154e+002
4.200331e+002, 4.934441e+002
4.205153e+002, 4.958082e+002
4.209974e+002, 4.977197e+002
4.214795e+002, 4.993435e+002
4.219616e+002, 5.010156e+002
4.224437e+002, 5.031384e+002
4.229258e+002, 5.050958e+002
4.234080e+002, 5.065514e+002
4.238901e+002, 5.073098e+002
4.243722e+002, 5.082980e+002
4.248543e+002, 5.094413e+002
4.253364e+002, 5.109376e+002
4.258185e+002, 5.130296e+002
4.263007e+002, 5.167118e+002
4.267828e+002, 5.195594e+002
4.272649e+002, 5.209138e+002
4.277470e+002, 5.210406e+002
4.282291e+002, 5.217713e+002
4.287112e+002, 5.234123e+002
4.291934e+002, 5.251030e+002
4.296755e+002, 5.264094e+002
4.301576e+002, 5.272762e+002
4.306397e+002, 5.278820e+002
4.311218e+002, 5.280543e+002
4.316039e+002, 5.282387e+002
4.320861e+002, 5.294671e+002
4.325682e+002, 5.318514e+002
4.330503e+002, 5.334974e+002
4.335324e+002, 5.335387e+002
4.340145e+002, 5.323980e+002
4.344966e+002, 5.314270e+002
4.349788e+002, 5.306282e+002
4.354609e+002, 5.300746e+002
4.359430e+002, 5.301058e+002
4.364251e+002, 5.304431e+002
4.369072e+002, 5.302006e+002
4.373893e+002, 5.290135e+002
4.378715e+002, 5.277405e+002
4.383536e+002, 5.275746e+002
4.388357e+002, 5.281521e+002
4.393178e+002, 5.284578e+002
4.397999e+002, 5.276735e+002
4.402820e+002, 5.265548e+002
4.407642e+002, 5.257389e+002
4.412463e+002, 5.252490e+002
4.417284e+002, 5.249641e+002
4.422105e+002, 5.247923e+002
4.426926e+002, 5.247863e+002
4.431747e+002, 5.250344e+002
4.436569e+002, 5.266085e+002
4.441390e+002, 5.271628e+002
4.446211e+002, 5.252493e+002
4.451032e+002, 5.216620e+002
4.455853e+002, 5.187624e+002
4.460674e+002, 5.170131e+002
4.465496e+002, 5.159886e+002
4.470317e+002, 5.157137e+002
4.475138e+002, 5.165603e+002
4.479959e+002, 5.169366e+002
4.484780e+002, 5.165720e+002
4.489601e+002, 5.159520e+002
4.494423e+002, 5.155569e+002
4.499244e+002, 5.155587e+002
4.504065e+002, 5.154476e+002
4.508886e+002, 5.150829e+002
4.513707e+002, 5.145568e+002
4.518528e+002, 5.142613e+002
4.523350e+002, 5.142472e+002
4.528171e+002, 5.142893e+002
4.532992e+002, 5.142338e+002
4.537813e+002, 5.140704e+002
4.542634e+002, 5.139896e+002
4.547455e+002, 5.139480e+002
4.552277e+002, 5.140989e+002
4.557098e+002, 5.147914e+002
4.561919e+002, 5.159269e+002
4.566740e+002, 5.168943e+002
4.571561e+002, 5.173473e+002
4.576382e+002, 5.176188e+002
4.581204e+002, 5.183742e+002
4.586025e+002, 5.195471e+002
4.590846e+002, 5.205897e+002
4.595667e+002, 5.208488e+002
4.600488e+002, 5.208905e+002
4.605309e+002, 5.215315e+002
4.610131e+002, 5.229947e+002
4.614952e+002, 5.245563e+002
4.619773e+002, 5.258400e+002
4.624594e+002, 5.268550e+002
4.629415e+002, 5.276288e+002
4.634236e+002, 5.274186e+002
4.639058e+002, 5.276555e+002
4.643879e+002, 5.294524e+002
4.648700e+002, 5.325652e+002
4.653521e+002, 5.348732e+002
4.658342e+002, 5.349501e+002
4.663163e+002, 5.347589e+002
4.667985e+002, 5.353939e+002
4.672806e+002, 5.373561e+002
4.677627e+002, 5.393971e+002
4.682448e+002, 5.418209e+002
4.687269e+002, 5.441486e+002
4.692090e+002, 5.456491e+002
4.696912e+002, 5.456778e+002
4.701733e+002, 5.461005e+002
4.706554e+002, 5.475225e+002
4.711375e+002, 5.497930e+002
4.716196e+002, 5.513568e+002
4.721017e+002, 5.519681e+002
4.725839e+002, 5.525599e+002
4.730660e+002, 5.540676e+002
4.735481e+002, 5.565012e+002
4.740302e+002, 5.577736e+002
4.745123e+002, 5.574570e+002
4.749944e+002, 5.566895e+002
4.754766e+002, 5.572336e+002
4.759587e+002, 5.589174e+002
4.764408e+002, 5.606286e+002
4.769229e+002, 5.620497e+002
4.774050e+002, 5.631525e+002
4.778871e+002, 5.637565e+002
4.783693e+002, 5.639101e+002
4.788514e+002, 5.640076e+002
4.793335e+002, 5.643007e+002
4.798156e+002, 5.647090e+002
4.802977e+002, 5.651514e+002
4.807798e+002, 5.656330e+002
4.812620e+002, 5.660613e+002
4.817441e+002, 5.662908e+002
4.822262e+002, 5.664416e+002
4.827083e+002, 5.666934e+002
4.831904e+002, 5.672524e+002
4.836725e+002, 5.677634e+002
4.841547e+002, 5.681770e+002
4.846368e+002, 5.684646e+002
4.851189e+002, 5.683906e+002
4.856010e+002, 5.676844e+002
4.860831e+002, 5.667780e+002
4.865652e+002, 5.659014e+002
4.870474e+002, 5.651291e+002
4.875295e+002, 5.641705e+002
4.880116e+002, 5.627569e+002
4.884937e+002, 5.613653e+002
4.889758e+002, 5.607615e+002
4.894579e+002, 5.612756e+002
4.899401e+002, 5.615681e+002
4.904222e+002, 5.612890e+002
4.909043e+002, 5.605447e+002
4.913864e+002, 5.598126e+002
4.918685e+002, 5.591013e+002
4.923506e+002, 5.583190e+002
4.928328e+002, 5.572618e+002
4.933149e+002, 5.560486e+002
4.937970e+002, 5.552209e+002
4.942791e+002, 5.548442e+002
4.947612e+002, 5.547400e+002
4.952433e+002, 5.549815e+002
4.957255e+002, 5.553492e+002
4.962076e+002, 5.552572e+002
4.966897e+002, 5.541095e+002
4.971718e+002, 5.527964e+002
4.976539e+002, 5.524220e+002
4.981360e+002, 5.527074e+002
4.986182e+002, 5.525504e+002
4.991003e+002, 5.506237e+002
4.995824e+002, 5.485632e+002
5.000645e+002, 5.477252e+002
5.005466e+002, 5.485872e+002
5.010287e+002, 5.490866e+002
5.015109e+002, 5.482805e+002
5.019930e+002, 5.469691e+002
5.024751e+002, 5.459600e+002
5.029572e+002, 5.454071e+002
5.034393e+002, 5.451028e+002
5.039214e+002, 5.452706e+002
5.044036e+002, 5.456865e+002
5.048857e+002, 5.455682e+002
5.053678e+002, 5.447910e+002
5.058499e+002, 5.436788e+002
5.063320e+002, 5.422014e+002
5.068141e+002, 5.402950e+002
5.072963e+002, 5.390762e+002
5.077784e+002, 5.386669e+002
5.082605e+002, 5.385942e+002
5.087426e+002, 5.384176e+002
5.092247e+002, 5.381414e+002
5.097068e+002, 5.378209e+002
5.101890e+002, 5.374386e+002
5.106711e+002, 5.370635e+002
5.111532e+002, 5.368108e+002
5.116353e+002, 5.366692e+002
5.121174e+002, 5.365997e+002
5.125995e+002, 5.367713e+002
5.130817e+002, 5.368962e+002
5.135638e+002, 5.364261e+002
5.140459e+002, 5.353948e+002
5.145280e+002, 5.346711e+002
5.150101e+002, 5.355046e+002
5.154922e+002, 5.365479e+002
5.159744e+002, 5.364304e+002
5.164565e+002, 5.341756e+002
5.169386e+002, 5.321335e+002
5.174207e+002, 5.310437e+002
5.179028e+002, 5.306627e+002
5.183849e+002, 5.305884e+002
5.188671e+002, 5.311726e+002
5.193492e+002, 5.316131e+002
5.198313e+002, 5.316829e+002
5.203134e+002, 5.314081e+002
5.207955e+002, 5.312180e+002
5.212776e+002, 5.311709e+002
5.217598e+002, 5.311102e+002
5.222419e+002, 5.308566e+002
5.227240e+002, 5.302703e+002
5.232061e+002, 5.302573e+002
5.236882e+002, 5.309564e+002
5.241703e+002, 5.319604e+002
5.246525e+002, 5.328138e+002
5.251346e+002, 5.335208e+002
5.256167e+002, 5.340135e+002
5.260988e+002, 5.341572e+002
5.265809e+002, 5.342178e+002
5.270630e+002, 5.348217e+002
5.275452e+002, 5.358596e+002
5.280273e+002, 5.366981e+002
5.285094e+002, 5.366559e+002
5.289915e+002, 5.363789e+002
5.294736e+002, 5.366114e+002
5.299557e+002, 5.374179e+002
5.304379e+002, 5.384230e+002
5.309200e+002, 5.396313e+002
5.314021e+002, 5.408181e+002
5.318842e+002, 5.417375e+002
5.323663e+002, 5.418736e+002
5.328484e+002, 5.423768e+002
5.333306e+002, 5.435887e+002
5.338127e+002, 5.453495e+002
5.342948e+002, 5.473045e+002
5.347769e+002, 5.496359e+002
5.352590e+002, 5.519465e+002
5.357411e+002, 5.541872e+002
5.362233e+002, 5.563503e+002
5.367054e+002, 5.584587e+002
5.371875e+002, 5.608163e+002
5.376696e+002, 5.625191e+002
5.381517e+002, 5.626233e+002
5.386339e+002, 5.609434e+002
5.391160e+002, 5.603113e+002
5.395981e+002, 5.610336e+002
5.400802e+002, 5.624014e+002
5.405623e+002, 5.635126e+002
5.410444e+002, 5.644418e+002
5.415266e+002, 5.656436e+002
5.420087e+002, 5.673049e+002
5.424908e+002, 5.692473e+002
5.429729e+002, 5.713474e+002
5.434550e+002, 5.735157e+002
5.439371e+002, 5.754764e+002
5.444193e+002, 5.769143e+002
5.449014e+002, 5.781944e+002
5.453835e+002, 5.795787e+002
5.458656e+002, 5.810845e+002
5.463477e+002, 5.827494e+002
5.468298e+002, 5.847980e+002
5.473120e+002, 5.869150e+002
5.477941e+002, 5.888317e+002
5.482762e+002, 5.906522e+002
5.487583e+002, 5.920744e+002
5.492404e+002, 5.927800e+002
5.497225e+002, 5.931619e+002
5.502047e+002, 5.939210e+002
5.506868e+002, 5.953491e+002
5.511689e+002, 5.965828e+002
5.516510e+002, 5.973282e+002
5.521331e+002, 5.976845e+002
5.526152e+002, 5.982320e+002
5.530974e+002, 5.989670e+002
5.535795e+002, 5.999476e+002
5.540616e+002, 6.013986e+002
5.545437e+002, 6.032048e+002
5.550258e+002, 6.045828e+002
5.555079e+002, 6.054532e+002
5.559901e+002, 6.062667e+002
5.564722e+002, 6.077708e+002
5.569543e+002, 6.095585e+002
5.574364e+002, 6.106423e+002
5.579185e+002, 6.100642e+002
5.584006e+002, 6.097950e+002
5.588828e+002, 6.119566e+002
5.593649e+002, 6.156152e+002
5.598470e+002, 6.186642e+002
5.603291e+002, 6.195668e+002
5.608112e+002, 6.202676e+002
5.612933e+002, 6.216093e+002
5.617755e+002, 6.236269e+002
5.622576e+002, 6.257547e+002
5.627397e+002, 6.280028e+002
5.632218e+002, 6.302297e+002
5.637039e+002, 6.323759e+002
5.641860e+002, 6.344227e+002
5.646682e+002, 6.364672e+002
5.651503e+002, 6.385716e+002
5.656324e+002, 6.406407e+002
5.661145e+002, 6.425175e+002
5.665966e+002, 6.442150e+002
5.670787e+002, 6.458365e+002
5.675609e+002, 6.473520e+002
5.680430e+002, 6.489010e+002
5.685251e+002, 6.509033e+002
5.690072e+002, 6.532968e+002
5.694893e+002, 6.553939e+002
5.699714e+002, 6.564306e+002
5.704536e+002, 6.571515e+002
5.709357e+002, 6.588654e+002
5.714178e+002, 6.615048e+002
5.718999e+002, 6.638386e+002
5.723820e+002, 6.647803e+002
5.728641e+002, 6.651917e+002
5.733463e+002, 6.658315e+002
5.738284e+002, 6.669711e+002
5.743105e+002, 6.679699e+002
5.747926e+002, 6.684310e+002
5.752747e+002, 6.687117e+002
5.757568e+002, 6.692647e+002
5.762390e+002, 6.704451e+002
5.767211e+002, 6.714707e+002
5.772032e+002, 6.722116e+002
5.776853e+002, 6.727411e+002
5.781674e+002, 6.733132e+002
5.786495e+002, 6.739993e+002
5.791317e+002, 6.745272e+002
5.796138e+002, 6.747836e+002
5.800959e+002, 6.747845e+002
5.805780e+002, 6.746036e+002
5.810601e+002, 6.742308e+002
5.815422e+002, 6.738105e+002
5.820244e+002, 6.732979e+002
5.825065e+002, 6.728459e+002
5.829886e+002, 6.729533e+002
5.834707e+002, 6.737913e+002
5.839528e+002, 6.746211e+002
5.844349e+002, 6.747780e+002
5.849171e+002, 6.745010e+002
5.853992e+002, 6.741432e+002
5.858813e+002, 6.738384e+002
5.863634e+002, 6.734564e+002
5.868455e+002, 6.728185e+002
5.873276e+002, 6.720429e+002
5.878098e+002, 6.714883e+002
5.882919e+002, 6.719616e+002
5.887740e+002, 6.718789e+002
5.892561e+002, 6.705080e+002
5.897382e+002, 6.678113e+002
5.902203e+002, 6.659908e+002
5.907025e+002, 6.656454e+002
5.911846e+002, 6.651304e+002
5.916667e+002, 6.631162e+002
5.921488e+002, 6.594343e+002
5.926309e+002, 6.567654e+002
5.931130e+002, 6.553915e+002
5.935952e+002, 6.542883e+002
5.940773e+002, 6.523367e+002
5.945594e+002, 6.496136e+002
5.950415e+002, 6.463786e+002
5.955236e+002, 6.424476e+002
5.960057e+002, 6.384744e+002
5.964879e+002, 6.350977e+002
5.969700e+002, 6.322697e+002
5.974521e+002, 6.299135e+002
5.979342e+002, 6.283311e+002
5.984163e+002, 6.269060e+002
5.988984e+002, 6.252896e+002
5.993806e+002, 6.234926e+002
5.998627e+002, 6.217836e+002
6.003448e+002, 6.202675e+002
6.008269e+002, 6.188098e+002
6.013090e+002, 6.172789e+002
6.017911e+002, 6.155479e+002
6.022733e+002, 6.142391e+002
6.027554e+002, 6.135169e+002
6.032375e+002, 6.129833e+002
6.037196e+002, 6.122987e+002
6.042017e+002, 6.114484e+002
6.046838e+002, 6.105338e+002
6.051660e+002, 6.095389e+002
6.056481e+002, 6.085378e+002
6.061302e+002, 6.075439e+002
6.066123e+002, 6.066214e+002
6.070944e+002, 6.060553e+002
6.075765e+002, 6.058826e+002
6.080587e+002, 6.061762e+002
6.085408e+002, 6.074291e+002
6.090229e+002, 6.093124e+002
6.095050e+002, 6.107002e+002
6.099871e+002, 6.106562e+002
6.104692e+002, 6.101959e+002
6.109514e+002, 6.097740e+002
6.114335e+002, 6.094050e+002
6.119156e+002, 6.094318e+002
6.123977e+002, 6.104924e+002
6.128798e+002, 6.115283e+002
6.133619e+002, 6.118870e+002
6.138441e+002, 6.112133e+002
6.143262e+002, 6.106678e+002
6.148083e+002, 6.100867e+002
6.152904e+002, 6.098545e+002
6.157725e+002, 6.107874e+002
6.162546e+002, 6.130038e+002
6.167368e+002, 6.143328e+002
6.172189e+002, 6.141647e+002
6.177010e+002, 6.132805e+002
6.181831e+002, 6.129525e+002
6.186652e+002, 6.131164e+002
6.191473e+002, 6.135233e+002
6.196295e+002, 6.142160e+002
6.201116e+002, 6.149818e+002
6.205937e+002, 6.155939e+002
6.210758e+002, 6.160757e+002
6.215579e+002, 6.165694e+002
6.220400e+002, 6.171118e+002
6.225222e+002, 6.176957e+002
6.230043e+002, 6.182603e+002
6.234864e+002, 6.187413e+002
6.239685e+002, 6.195514e+002
6.244506e+002, 6.212559e+002
6.249327e+002, 6.228578e+002
6.254149e+002, 6.236190e+002
6.258970e+002, 6.231100e+002
6.263791e+002, 6.230419e+002
6.268612e+002, 6.235435e+002
6.273433e+002, 6.243749e+002
6.278254e+002, 6.252910e+002
6.283076e+002, 6.262814e+002
6.287897e+002, 6.271416e+002
6.292718e+002, 6.278445e+002
6.297539e+002, 6.283575e+002
6.302360e+002, 6.284117e+002
6.307181e+002, 6.281910e+002
6.312003e+002, 6.282762e+002
6.316824e+002, 6.292220e+002
6.321645e+002, 6.303885e+002
6.326466e+002, 6.315237e+002
6.331287e+002, 6.325428e+002
6.336108e+002, 6.329153e+002
6.340930e+002, 6.314729e+002
6.345751e+002, 6.301737e+002
6.350572e+002, 6.302282e+002
6.355393e+002, 6.320908e+002
6.360214e+002, 6.331140e+002
6.365035e+002, 6.329412e+002
6.369857e+002, 6.323566e+002
6.374678e+002, 6.318482e+002
6.379499e+002, 6.313698e+002
6.384320e+002, 6.313990e+002
6.389141e+002, 6.321249e+002
6.393962e+002, 6.329006e+002
6.398784e+002, 6.326856e+002
6.403605e+002, 6.317165e+002
6.408426e+002, 6.310240e+002
6.413247e+002, 6.309745e+002
6.418068e+002, 6.311813e+002
6.422889e+002, 6.313353e+002
6.427711e+002, 6.314246e+002
6.432532e+002, 6.314205e+002
6.437353e+002, 6.313021e+002
6.442174e+002, 6.311014e+002
6.446995e+002, 6.303884e+002
6.451816e+002, 6.294030e+002
6.456638e+002, 6.296651e+002
6.461459e+002, 6.327168e+002
6.466280e+002, 6.357140e+002
6.471101e+002, 6.377172e+002
6.475922e+002, 6.386534e+002
6.480743e+002, 6.396934e+002
6.485565e+002, 6.411168e+002
6.490386e+002, 6.418698e+002
6.495207e+002, 6.407087e+002
6.500028e+002, 6.378969e+002
6.504849e+002, 6.356267e+002
6.509670e+002, 6.340294e+002
6.514492e+002, 6.332059e+002
6.519313e+002, 6.338337e+002
6.524134e+002, 6.352316e+002
6.528955e+002, 6.360529e+002
6.533776e+002, 6.357216e+002
6.538597e+002, 6.353303e+002
6.543419e+002, 6.357881e+002
6.548240e+002, 6.365872e+002
6.553061e+002, 6.369400e+002
6.557882e+002, 6.358004e+002
6.562703e+002, 6.351777e+002
6.567524e+002, 6.360443e+002
6.572346e+002, 6.377666e+002
6.577167e+002, 6.383181e+002
6.581988e+002, 6.369958e+002
6.586809e+002, 6.361413e+002
6.591630e+002, 6.367265e+002
6.596451e+002, 6.384515e+002
6.601273e+002, 6.395363e+002
6.606094e+002, 6.399613e+002
6.610915e+002, 6.402289e+002
6.615736e+002, 6.403709e+002
6.620557e+002, 6.406705e+002
6.625378e+002, 6.419124e+002
6.630200e+002, 6.441215e+002
6.635021e+002, 6.462209e+002
6.639842e+002, 6.476705e+002
6.644663e+002, 6.485250e+002
6.649484e+002, 6.486798e+002
6.654305e+002, 6.477549e+002
6.659127e+002, 6.472293e+002
6.663948e+002, 6.477458e+002
6.668769e+002, 6.486946e+002
6.673590e+002, 6.494409e+002
6.678411e+002, 6.498086e+002
6.683232e+002, 6.503928e+002
6.688054e+002, 6.514190e+002
6.692875e+002, 6.524798e+002
6.697696e+002, 6.526876e+002
6.702517e+002, 6.520195e+002
6.707338e+002, 6.516000e+002
6.712159e+002, 6.517278e+002
6.716981e+002, 6.523175e+002
6.721802e+002, 6.536462e+002
6.726623e+002, 6.554047e+002
6.731444e+002, 6.565368e+002
6.736265e+002, 6.557449e+002
6.741086e+002, 6.547145e+002
6.745908e+002, 6.548533e+002
6.750729e+002, 6.559899e+002
6.755550e+002, 6.568104e+002
6.760371e+002, 6.565390e+002
6.765192e+002, 6.562073e+002
6.770013e+002, 6.562623e+002
6.774835e+002, 6.567346e+002
6.779656e+002, 6.573522e+002
6.784477e+002, 6.581586e+002
6.789298e+002, 6.590449e+002
6.794119e+002, 6.599316e+002
6.798940e+002, 6.608267e+002
6.803762e+002, 6.617982e+002
6.808583e+002, 6.628992e+002
6.813404e+002, 6.637952e+002
6.818225e+002, 6.638995e+002
6.823046e+002, 6.635867e+002
6.827867e+002, 6.636468e+002
6.832689e+002, 6.642706e+002
6.837510e+002, 6.651885e+002
6.842331e+002, 6.666138e+002
6.847152e+002, 6.680697e+002
6.851973e+002, 6.689152e+002
6.856794e+002, 6.681356e+002
6.861616e+002, 6.677681e+002
6.866437e+002, 6.685306e+002
6.871258e+002, 6.698442e+002
6.876079e+002, 6.706483e+002
6.880900e+002, 6.707068e+002
6.885721e+002, 6.708591e+002
6.890543e+002, 6.713531e+002
6.895364e+002, 6.720294e+002
6.900185e+002, 6.723901e+002
6.905006e+002, 6.724393e+002
6.909827e+002, 6.724971e+002
6.914648e+002, 6.726110e+002
6.919470e+002, 6.728846e+002
6.924291e+002, 6.736509e+002
6.929112e+002, 6.748034e+002
6.933933e+002, 6.757534e+002
6.938754e+002, 6.761382e+002
6.943575e+002, 6.762586e+002
6.948397e+002, 6.760624e+002
6.953218e+002, 6.754796e+002
6.958039e+002, 6.757927e+002
6.962860e+002, 6.780638e+002
6.967681e+002, 6.804319e+002
6.972502e+002, 6.820092e+002
6.977324e+002, 6.826797e+002
6.982145e+002, 6.830270e+002
6.986966e+002, 6.829191e+002
6.991787e+002, 6.828720e+002
6.996608e+002, 6.835247e+002
7.001429e+002, 6.847143e+002
7.006251e+002, 6.856275e+002
7.011072e+002, 6.861122e+002
7.015893e+002, 6.865427e+002
7.020714e+002, 6.873762e+002
7.025535e+002, 6.883585e+002
7.030356e+002, 6.890813e+002
7.035178e+002, 6.890997e+002
7.039999e+002, 6.893882e+002
7.044820e+002, 6.908589e+002
7.049641e+002, 6.926664e+002
7.054462e+002, 6.934517e+002
7.059283e+002, 6.920658e+002
7.064105e+002, 6.914175e+002
7.068926e+002, 6.920496e+002
7.073747e+002, 6.935284e+002
7.078568e+002, 6.949486e+002
7.083389e+002, 6.963417e+002
7.088210e+002, 6.973652e+002
7.093032e+002, 6.977387e+002
7.097853e+002, 6.978391e+002
7.102674e+002, 6.986384e+002
7.107495e+002, 6.999163e+002
7.112316e+002, 7.007079e+002
7.117137e+002, 6.998391e+002
7.121959e+002, 6.988231e+002
7.126780e+002, 6.988165e+002
7.131601e+002, 6.997291e+002
7.136422e+002, 7.006793e+002
7.141243e+002, 7.014325e+002
7.146064e+002, 7.021732e+002
7.150886e+002, 7.030901e+002
7.155707e+002, 7.042103e+002
7.160528e+002, 7.045972e+002
7.165349e+002, 7.038818e+002
7.170170e+002, 7.033909e+002
7.174991e+002, 7.042433e+002
7.179813e+002, 7.062115e+002
7.184634e+002, 7.074857e+002
7.189455e+002, 7.080026e+002
7.194276e+002, 7.082799e+002
7.199097e+002, 7.086159e+002
7.203918e+002, 7.090468e+002
7.208740e+002, 7.095432e+002
7.213561e+002, 7.100494e+002
7.218382e+002, 7.109689e+002
7.223203e+002, 7.130889e+002
7.228024e+002, 7.153607e+002
7.232845e+002, 7.168644e+002
7.237667e+002, 7.170677e+002
7.242488e+002, 7.172638e+002
7.247309e+002, 7.173878e+002
7.252130e+002, 7.175665e+002
7.256951e+002, 7.179996e+002
7.261772e+002, 7.187090e+002
7.266594e+002, 7.192807e+002
7.271415e+002, 7.195967e+002
7.276236e+002, 7.198961e+002
7.281057e+002, 7.205773e+002
7.285878e+002, 7.215114e+002
7.290699e+002, 7.223743e+002
7.295521e+002, 7.230989e+002
7.300342e+002, 7.236683e+002
7.305163e+002, 7.238273e+002
7.309984e+002, 7.238716e+002
7.314805e+002, 7.243262e+002
7.319626e+002, 7.262230e+002
7.324448e+002, 7.274208e+002
7.329269e+002, 7.270278e+002
7.334090e+002, 7.258137e+002
7.338911e+002, 7.260662e+002
7.343732e+002, 7.282263e+002
7.348553e+002, 7.299999e+002
7.353375e+002, 7.304799e+002
7.358196e+002, 7.302518e+002
7.363017e+002, 7.309114e+002
7.367838e+002, 7.323225e+002
7.372659e+002, 7.336533e+002
7.377480e+002, 7.344746e+002
7.382302e+002, 7.349854e+002
7.387123e+002, 7.351307e+002
7.391944e+002, 7.350520e+002
7.396765e+002, 7.354159e+002
7.401586e+002, 7.370494e+002
7.406407e+002, 7.386262e+002
7.411229e+002, 7.394849e+002
7.416050e+002, 7.396660e+002
7.420871e+002, 7.399164e+002
7.425692e+002, 7.402198e+002
7.430513e+002, 7.406428e+002
7.435334e+002, 7.413161e+002
7.440156e+002, 7.421847e+002
7.444977e+002, 7.425975e+002
7.449798e+002, 7.425582e+002
7.454619e+002, 7.427643e+002
7.459440e+002, 7.442547e+002
7.464261e+002, 7.460384e+002
7.469083e+002, 7.467023e+002
7.473904e+002, 7.461024e+002
7.478725e+002, 7.456530e+002
7.483546e+002, 7.462640e+002
7.488367e+002, 7.470624e+002
7.493188e+002, 7.473286e+002
7.498010e+002, 7.466153e+002
7.502831e+002, 7.468675e+002
7.507652e+002, 7.484471e+002
7.512473e+002, 7.504223e+002
7.517294e+002, 7.523096e+002
7.522115e+002, 7.540847e+002
7.526937e+002, 7.547584e+002
7.531758e+002, 7.541279e+002
7.536579e+002, 7.534246e+002
7.541400e+002, 7.541251e+002
7.546221e+002, 7.555515e+002
7.551042e+002, 7.567020e+002
7.555864e+002, 7.574703e+002
7.560685e+002, 7.575963e+002
7.565506e+002, 7.557722e+002
7.570327e+002, 7.538334e+002
7.575148e+002, 7.536900e+002
7.579969e+002, 7.576705e+002
7.584791e+002, 7.601741e+002
7.589612e+002, 7.606813e+002
7.594433e+002, 7.602831e+002
7.599254e+002, 7.600780e+002
7.604075e+002, 7.600371e+002
7.608896e+002, 7.608116e+002
7.613718e+002, 7.626910e+002
7.618539e+002, 7.647654e+002
7.623360e+002, 7.658901e+002
7.628181e+002, 7.663008e+002
7.633002e+002, 7.664589e+002
7.637823e+002, 7.663500e+002
7.642645e+002, 7.663074e+002
7.647466e+002, 7.664479e+002
7.652287e+002, 7.667941e+002
7.657108e+002, 7.673864e+002
7.661929e+002, 7.683054e+002
7.666750e+002, 7.694230e+002
7.671572e+002, 7.709476e+002
7.676393e+002, 7.725090e+002
7.681214e+002, 7.732942e+002
7.686035e+002, 7.732349e+002
7.690856e+002, 7.734460e+002
7.695677e+002, 7.743412e+002
7.700499e+002, 7.753849e+002
7.705320e+002, 7.754686e+002
7.710141e+002, 7.750157e+002
7.714962e+002, 7.751257e+002
7.719783e+002, 7.769255e+002
7.724604e+002, 7.787067e+002
7.729426e+002, 7.795100e+002
7.734247e+002, 7.796340e+002
7.739068e+002, 7.797511e+002
7.743889e+002, 7.798752e+002
7.748710e+002, 7.800858e+002
7.753531e+002, 7.803087e+002
7.758353e+002, 7.806716e+002
7.763174e+002, 7.816800e+002
7.767995e+002, 7.833685e+002
7.772816e+002, 7.849122e+002
7.777637e+002, 7.860026e+002
7.782458e+002, 7.867959e+002
7.787280e+002, 7.876872e+002
7.792101e+002, 7.885307e+002
7.796922e+002, 7.888384e+002
7.801743e+002, 7.874863e+002
7.806564e+002, 7.864200e+002
7.811385e+002, 7.867422e+002
7.816207e+002, 7.882266e+002
7.821028e+002, 7.898245e+002
7.825849e+002, 7.916562e+002
7.830670e+002, 7.932768e+002
7.835491e+002, 7.946379e+002
7.840313e+002, 7.956702e+002
7.845134e+002, 7.959706e+002
7.849955e+002, 7.955205e+002
7.854776e+002, 7.951859e+002
7.859597e+002, 7.953758e+002
7.864418e+002, 7.959109e+002
7.869240e+002, 7.965579e+002
7.874061e+002, 7.973094e+002
7.878882e+002, 7.981445e+002
7.883703e+002, 7.989451e+002
7.888524e+002, 7.999131e+002
7.893345e+002, 8.014465e+002
7.898167e+002, 8.033841e+002
7.902988e+002, 8.043727e+002
7.907809e+002, 8.037631e+002
7.912630e+002, 8.034382e+002
7.917451e+002, 8.042675e+002
7.922272e+002, 8.058513e+002
7.927094e+002, 8.061785e+002
7.931915e+002, 8.053124e+002
7.936736e+002, 8.048611e+002
7.941557e+002, 8.063250e+002
7.946378e+002, 8.083630e+002
7.951199e+002, 8.091090e+002
7.956021e+002, 8.088181e+002
7.960842e+002, 8.087559e+002
7.965663e+002, 8.096097e+002
7.970484e+002, 8.106680e+002
7.975305e+002, 8.116887e+002
7.980126e+002, 8.126493e+002
7.984948e+002, 8.134672e+002
7.989769e+002, 8.141181e+002
7.994590e+002, 8.146716e+002
7.999411e+002, 8.150854e+002
8.004232e+002, 8.154451e+002
8.009053e+002, 8.160203e+002
8.013875e+002, 8.168160e+002
8.018696e+002, 8.178506e+002
8.023517e+002, 8.194685e+002
8.028338e+002, 8.211102e+002
8.033159e+002, 8.221736e+002
8.037980e+002, 8.227243e+002
8.042802e+002, 8.232054e+002
8.047623e+002, 8.236558e+002
8.052444e+002, 8.241461e+002
8.057265e+002, 8.245966e+002
8.062086e+002, 8.250488e+002
8.066907e+002, 8.260627e+002
8.071729e+002, 8.278228e+002
8.076550e+002, 8.292984e+002
8.081371e+002, 8.297989e+002
8.086192e+002, 8.297503e+002
8.091013e+002, 8.304104e+002
8.095834e+002, 8.316461e+002
8.100656e+002, 8.326893e+002
8.105477e+002, 8.328334e+002
8.110298e+002, 8.328574e+002
8.115119e+002, 8.333398e+002
8.119940e+002, 8.342443e+002
8.124761e+002, 8.350750e+002
8.129583e+002, 8.354582e+002
8.134404e+002, 8.361965e+002
8.139225e+002, 8.377634e+002
8.144046e+002, 8.399212e+002
8.148867e+002, 8.411561e+002
8.153688e+002, 8.414144e+002
8.158510e+002, 8.416723e+002
8.163331e+002, 8.426870e+002
8.168152e+002, 8.438552e+002
8.172973e+002, 8.437953e+002
8.177794e+002, 8.428738e+002
8.182615e+002, 8.425860e+002
8.187437e+002, 8.440629e+002
8.192258e+002, 8.459524e+002
8.197079e+002, 8.480042e+002
8.201900e+002, 8.500301e+002
8.206721e+002, 8.509635e+002
8.211542e+002, 8.502095e+002
8.216364e+002, 8.496680e+002
8.221185e+002, 8.500067e+002
8.226006e+002, 8.509915e+002
8.230827e+002, 8.521045e+002
8.235648e+002, 8.532733e+002
8.240469e+002, 8.539405e+002
8.245291e+002, 8.531529e+002
8.250112e+002, 8.522676e+002
8.254933e+002, 8.528577e+002
8.259754e+002, 8.544802e+002
8.264575e+002, 8.557053e+002
8.269396e+002, 8.558184e+002
8.274218e+002, 8.557740e+002
8.279039e+002, 8.557099e+002
8.283860e+002, 8.557027e+002
8.288681e+002, 8.560280e+002
8.293502e+002, 8.567255e+002
8.298323e+002, 8.575419e+002
8.303145e+002, 8.584423e+002
8.307966e+002, 8.593434e+002
8.312787e+002, 8.601396e+002
8.317608e+002, 8.608091e+002
8.322429e+002, 8.612681e+002
8.327250e+002, 8.608792e+002
8.332072e+002, 8.608798e+002
8.336893e+002, 8.623290e+002
8.341714e+002, 8.646625e+002
8.346535e+002, 8.663538e+002
8.351356e+002, 8.669602e+002
8.356177e+002, 8.676081e+002
8.360999e+002, 8.686243e+002
8.365820e+002, 8.696889e+002
8.370641e+002, 8.697842e+002
8.375462e+002, 8.690458e+002
8.380283e+002, 8.690931e+002
8.385104e+002, 8.707764e+002
8.389926e+002, 8.728375e+002
8.394747e+002, 8.737663e+002
8.399568e+002, 8.741018e+002
8.404389e+002, 8.747999e+002
8.409210e+002, 8.766618e+002
8.414031e+002, 8.783177e+002
8.418853e+002, 8.793659e+002
8.423674e+002, 8.800715e+002
8.428495e+002, 8.806588e+002
8.433316e+002, 8.809681e+002
8.438137e+002, 8.820865e+002
8.442958e+002, 8.844755e+002
8.447780e+002, 8.869746e+002
8.452601e+002, 8.874843e+002
8.457422e+002, 8.867849e+002
8.462243e+002, 8.869147e+002
8.467064e+002, 8.889156e+002
8.471885e+002, 8.905754e+002
8.476707e+002, 8.900128e+002
8.481528e+002, 8.886971e+002
8.486349e+002, 8.883845e+002
8.491170e+002, 8.899474e+002
8.495991e+002, 8.912618e+002
8.500812e+002, 8.923049e+002
8.505634e+002, 8.931149e+002
8.510455e+002, 8.937069e+002
8.515276e+002, 8.941092e+002
8.520097e+002, 8.944000e+002
8.524918e+002, 8.945546e+002
8.529739e+002, 8.949196e+002
8.534561e+002, 8.960250e+002
8.539382e+002, 8.974043e+002
8.544203e+002, 8.984860e+002
8.549024e+002, 8.990145e+002
8.553845e+002, 8.997642e+002
8.558666e+002, 9.011764e+002
8.563488e+002, 9.025839e+002
8.568309e+002, 9.034031e+002
8.573130e+002, 9.034680e+002
8.577951e+002, 9.041924e+002
8.582772e+002, 9.056035e+002
8.587593e+002, 9.073611e+002
8.592415e+002, 9.098592e+002
8.597236e+002, 9.122203e+002
8.602057e+002, 9.125691e+002
8.606878e+002, 9.107661e+002
8.611699e+002, 9.094143e+002
8.616520e+002, 9.101992e+002
8.621342e+002, 9.114785e+002
8.626163e+002, 9.123141e+002
8.630984e+002, 9.126785e+002
8.635805e+002, 9.129059e+002
8.640626e+002, 9.128712e+002
8.645447e+002, 9.131310e+002
8.650269e+002, 9.142308e+002
8.655090e+002, 9.158690e+002
8.659911e+002, 9.168365e+002
8.664732e+002, 9.172353e+002
8.669553e+002, 9.177416e+002
8.674374e+002, 9.189965e+002
8.679196e+002, 9.203097e+002
8.684017e+002, 9.211310e+002
8.688838e+002, 9.215084e+002
8.693659e+002, 9.219478e+002
8.698480e+002, 9.224599e+002
8.703301e+002, 9.230408e+002
8.708123e+002, 9.236485e+002
8.712944e+002, 9.243226e+002
8.717765e+002, 9.253536e+002
8.722586e+002, 9.266714e+002
8.727407e+002, 9.277808e+002
8.732228e+002, 9.285013e+002
8.737050e+002, 9.288386e+002
8.741871e+002, 9.282480e+002
8.746692e+002, 9.273328e+002
8.751513e+002, 9.274052e+002
8.756334e+002, 9.300969e+002
8.761155e+002, 9.323273e+002
8.765977e+002, 9.335461e+002
8.770798e+002, 9.340599e+002
8.775619e+002, 9.342830e+002
8.780440e+002, 9.341855e+002
8.785261e+002, 9.342633e+002
8.790082e+002, 9.345338e+002
8.794904e+002, 9.352718e+002
8.799725e+002, 9.374990e+002
8.804546e+002, 9.402816e+002
8.809367e+002, 9.418852e+002
8.814188e+002, 9.412563e+002
8.819009e+002, 9.406750e+002
8.823831e+002, 9.412481e+002
8.828652e+002, 9.420429e+002
8.833473e+002, 9.419033e+002
8.838294e+002, 9.401268e+002
8.843115e+002, 9.404344e+002
8.847936e+002, 9.433985e+002
8.852758e+002, 9.468158e+002
8.857579e+002, 9.483669e+002
8.862400e+002, 9.486887e+002
8.867221e+002, 9.490543e+002
8.872042e+002, 9.495996e+002
8.876863e+002, 9.505971e+002
8.881685e+002, 9.531854e+002
8.886506e+002, 9.555363e+002
8.891327e+002, 9.559711e+002
8.896148e+002, 9.540336e+002
8.900969e+002, 9.534212e+002
8.905790e+002, 9.544377e+002
8.910612e+002, 9.559320e+002
8.915433e+002, 9.572128e+002
8.920254e+002, 9.583920e+002
8.925075e+002, 9.601367e+002
8.929896e+002, 9.623262e+002
8.934717e+002, 9.640233e+002
8.939539e+002, 9.644432e+002
8.944360e+002, 9.643827e+002
8.949181e+002, 9.640990e+002
8.954002e+002, 9.637308e+002
8.958823e+002, 9.639808e+002
8.963644e+002, 9.650370e+002
8.968466e+002, 9.664759e+002
8.973287e+002, 9.684144e+002
8.978108e+002, 9.705169e+002
8.982929e+002, 9.719460e+002
8.987750e+002, 9.727471e+002
8.992571e+002, 9.731295e+002
8.997393e+002, 9.727732e+002
9.002214e+002, 9.726491e+002
9.007035e+002, 9.739954e+002
9.011856e+002, 9.760224e+002
9.016677e+002, 9.773768e+002
9.021498e+002, 9.764069e+002
9.026320e+002, 9.767318e+002
9.031141e+002, 9.791271e+002
9.035962e+002, 9.821931e+002
9.040783e+002, 9.840723e+002
9.045604e+002, 9.848265e+002
9.050425e+002, 9.850320e+002
9.055247e+002, 9.846776e+002
9.060068e+002, 9.843845e+002
9.064889e+002, 9.849300e+002
9.069710e+002, 9.857723e+002
9.074531e+002, 9.861503e+002
9.079352e+002, 9.855816e+002
9.084174e+002, 9.860645e+002
9.088995e+002, 9.885959e+002
9.093816e+002, 9.913962e+002
9.098637e+002, 9.934147e+002
9.103458e+002, 9.946797e+002
9.108279e+002, 9.956838e+002
9.113101e+002, 9.964205e+002
9.117922e+002, 9.970302e+002
9.122743e+002, 9.974211e+002
9.127564e+002, 9.978564e+002
9.132385e+002, 9.986559e+002
9.137206e+002, 9.997894e+002
9.142028e+002, 1.000985e+003
9.146849e+002, 1.002177e+003
9.151670e+002, 1.003399e+003
9.156491e+002, 1.004637e+003
9.161312e+002, 1.005929e+003
9.166133e+002, 1.007487e+003
9.170955e+002, 1.009336e+003
9.175776e+002, 1.011044e+003
9.180597e+002, 1.012490e+003
9.185418e+002, 1.013713e+003
9.190239e+002, 1.014592e+003
9.195060e+002, 1.015315e+003
9.199882e+002, 1.016223e+003
9.204703e+002, 1.017379e+003
9.209524e+002, 1.018805e+003
9.214345e+002, 1.020492e+003
9.219166e+002, 1.022399e+003
9.223987e+002, 1.024702e+003
9.228809e+002, 1.027477e+003
9.233630e+002, 1.029028e+003
9.238451e+002, 1.028982e+003
9.243272e+002, 1.028764e+003
9.248093e+002, 1.029964e+003
9.252914e+002, 1.031880e+003
9.257736e+002, 1.033502e+003
9.262557e+002, 1.034577e+003
9.267378e+002, 1.036128e+003
9.272199e+002, 1.039156e+003
9.277020e+002, 1.042068e+003
9.281841e+002, 1.043924e+003
9.286663e+002, 1.044729e+003
9.291484e+002, 1.046241e+003
9.296305e+002, 1.048498e+003
9.301126e+002, 1.051011e+003
9.305947e+002, 1.054140e+003
9.310768e+002, 1.056947e+003
9.315590e+002, 1.057469e+003
9.320411e+002, 1.056395e+003
9.325232e+002, 1.056558e+003
9.330053e+002, 1.060662e+003
9.334874e+002, 1.063970e+003
9.339695e+002, 1.064829e+003
9.344517e+002, 1.064358e+003
9.349338e+002, 1.065448e+003
9.354159e+002, 1.068131e+003
9.358980e+002, 1.070557e+003
9.363801e+002, 1.071963e+003
9.368622e+002, 1.073534e+003
9.373444e+002, 1.077202e+003
9.378265e+002, 1.081735e+003
9.383086e+002, 1.085307e+003
9.387907e+002, 1.086769e+003
9.392728e+002, 1.088497e+003
9.397549e+002, 1.090944e+003
9.402371e+002, 1.093675e+003
9.407192e+002, 1.096268e+003
9.412013e+002, 1.098678e+003
9.416834e+002, 1.102162e+003
9.421655e+002, 1.106793e+003
9.426476e+002, 1.111421e+003
9.431298e+002, 1.114853e+003
9.436119e+002, 1.117846e+003
9.440940e+002, 1.121107e+003
9.445761e+002, 1.124727e+003
9.450582e+002, 1.128838e+003
9.455403e+002, 1.133867e+003
9.460225e+002, 1.138912e+003
9.465046e+002, 1.143566e+003
9.469867e+002, 1.148038e+003
9.474688e+002, 1.153361e+003
9.479509e+002, 1.159448e+003
9.484330e+002, 1.165903e+003
9.489152e+002, 1.172779e+003
9.493973e+002, 1.179636e+003
9.498794e+002, 1.185549e+003
9.503615e+002, 1.191257e+003
9.508436e+002, 1.198099e+003
9.513257e+002, 1.206601e+003
9.518079e+002, 1.216047e+003
9.522900e+002, 1.226880e+003
9.527721e+002, 1.237975e+003
9.532542e+002, 1.247540e+003
9.537363e+002, 1.255927e+003
9.542184e+002, 1.265779e+003
9.547006e+002, 1.277465e+003
9.551827e+002, 1.290333e+003
9.556648e+002, 1.304648e+003
9.561469e+002, 1.319585e+003
9.566290e+002, 1.333842e+003
9.571111e+002, 1.347093e+003
9.575933e+002, 1.362976e+003
9.580754e+002, 1.382390e+003
9.585575e+002, 1.402874e+003
9.590396e+002, 1.423175e+003
9.595217e+002, 1.443463e+003
9.600038e+002, 1.464313e+003
9.604860e+002, 1.485907e+003
9.609681e+002, 1.509273e+003
9.614502e+002, 1.535398e+003
9.619323e+002, 1.562765e+003
9.624144e+002, 1.590093e+003
9.628965e+002, 1.617962e+003
9.633787e+002, 1.647151e+003
9.638608e+002, 1.678817e+003
9.643429e+002, 1.709178e+003
9.648250e+002, 1.737610e+003
9.653071e+002, 1.765600e+003
9.657892e+002, 1.794566e+003
9.662714e+002, 1.824387e+003
9.667535e+002, 1.855774e+003
9.672356e+002, 1.888885e+003
9.677177e+002, 1.921031e+003
9.681998e+002, 1.949627e+003
9.686819e+002, 1.977205e+003
9.691641e+002, 2.005274e+003
9.696462e+002, 2.034298e+003
9.701283e+002, 2.062121e+003
9.706104e+002, 2.088991e+003
9.710925e+002, 2.115237e+003
9.715746e+002, 2.142725e+003
9.720568e+002, 2.169119e+003
9.725389e+002, 2.190809e+003
9.730210e+002, 2.208052e+003
9.735031e+002, 2.221041e+003
9.739852e+002, 2.231435e+003
9.744673e+002, 2.235537e+003
9.749495e+002, 2.231952e+003
9.754316e+002, 2.221935e+003
9.759137e+002, 2.207534e+003
9.763958e+002, 2.188970e+003
9.768779e+002, 2.163638e+003
9.773600e+002, 2.130663e+003
9.778422e+002, 2.092958e+003
9.783243e+002, 2.052075e+003
9.788064e+002, 2.008595e+003
9.792885e+002, 1.963154e+003
9.797706e+002, 1.915055e+003
9.802527e+002, 1.869108e+003
9.807349e+002, 1.826136e+003
9.812170e+002, 1.785033e+003
9.816991e+002, 1.745913e+003
9.821812e+002, 1.708672e+003
9.826633e+002, 1.673887e+003
9.831454e+002, 1.641529e+003
9.836276e+002, 1.611459e+003
9.841097e+002, 1.583974e+003
9.845918e+002, 1.558261e+003
9.850739e+002, 1.533911e+003
9.855560e+002, 1.511000e+003
9.860381e+002, 1.490197e+003
9.865203e+002, 1.471603e+003
9.870024e+002, 1.454664e+003
9.874845e+002, 1.439497e+003
9.879666e+002, 1.425636e+003
9.884487e+002, 1.412293e+003
9.889308e+002, 1.399770e+003
9.894130e+002, 1.388750e+003
9.898951e+002, 1.379496e+003
9.903772e+002, 1.370722e+003
9.908593e+002, 1.361092e+003
9.913414e+002, 1.352156e+003
9.918235e+002, 1.345205e+003
9.923057e+002, 1.340238e+003
9.927878e+002, 1.335750e+003
9.932699e+002, 1.331840e+003
9.937520e+002, 1.327517e+003
9.942341e+002, 1.321806e+003
9.947162e+002, 1.315651e+003
9.951984e+002, 1.310693e+003
9.956805e+002, 1.306665e+003
9.961626e+002, 1.302994e+003
9.966447e+002, 1.299424e+003
9.971268e+002, 1.296189e+003
9.976089e+002, 1.293276e+003
9.980911e+002, 1.290692e+003
9.985732e+002, 1.288477e+003
9.990553e+002, 1.286618e+003
9.995374e+002, 1.285442e+003
1.000020e+003, 1.285159e+003
1.000502e+003, 1.284182e+003
1.000984e+003, 1.280170e+003
1.001466e+003, 1.275348e+003
1.001948e+003, 1.271846e+003
1.002430e+003, 1.270018e+003
1.002912e+003, 1.268714e+003
1.003394e+003, 1.268286e+003
1.003876e+003, 1.267459e+003
1.004359e+003, 1.265571e+003
1.004841e+003, 1.262997e+003
1.005323e+003, 1.260871e+003
1.005805e+003, 1.259113e+003
1.006287e+003, 1.257454e+003
1.006769e+003, 1.255790e+003
1.007251e+003, 1.254157e+003
1.007733e+003, 1.252378e+003
1.008216e+003, 1.250766e+003
1.008698e+003, 1.249674e+003
1.009180e+003, 1.248971e+003
1.009662e+003, 1.249649e+003
1.010144e+003, 1.252151e+003
1.010626e+003, 1.254051e+003
1.011108e+003, 1.251695e+003
1.011590e+003, 1.247765e+003
1.012072e+003, 1.246655e+003
1.012555e+003, 1.248490e+003
1.013037e+003, 1.249824e+003
1.013519e+003, 1.248475e+003
1.014001e+003, 1.247629e+003
1.014483e+003, 1.248818e+003
1.014965e+003, 1.251058e+003
1.015447e+003, 1.250675e+003
1.015929e+003, 1.247927e+003
1.016411e+003, 1.245517e+003
1.016894e+003, 1.244274e+003
1.017376e+003, 1.243789e+003
1.017858e+003, 1.244089e+003
1.018340e+003, 1.244780e+003
1.018822e+003, 1.245355e+003
1.019304e+003, 1.245614e+003
1.019786e+003, 1.246238e+003
1.020268e+003, 1.247490e+003
1.020751e+003, 1.248451e+003
1.021233e+003, 1.248218e+003
1.021715e+003, 1.247202e+003
1.022197e+003, 1.246329e+003
1.022679e+003, 1.245650e+003
1.023161e+003, 1.245337e+003
1.023643e+003, 1.245540e+003
1.024125e+003, 1.246050e+003
1.024607e+003, 1.246754e+003
1.025090e+003, 1.247700e+003
1.025572e+003, 1.249219e+003
1.026054e+003, 1.251389e+003
1.026536e+003, 1.252932e+003
1.027018e+003, 1.253631e+003
1.027500e+003, 1.253595e+003
1.027982e+003, 1.251806e+003
1.028464e+003, 1.249967e+003
1.028947e+003, 1.250469e+003
1.029429e+003, 1.254385e+003
1.029911e+003, 1.256842e+003
1.030393e+003, 1.257231e+003
1.030875e+003, 1.256731e+003
1.031357e+003, 1.255443e+003
1.031839e+003, 1.253939e+003
1.032321e+003, 1.254307e+003
1.032803e+003, 1.256284e+003
1.033286e+003, 1.258731e+003
1.033768e+003, 1.261726e+003
1.034250e+003, 1.264319e+003
1.034732e+003, 1.266279e+003
1.035214e+003, 1.267482e+003
1.035696e+003, 1.267624e+003
1.036178e+003, 1.266391e+003
1.036660e+003, 1.265640e+003
1.037143e+003, 1.265432e+003
1.037625e+003, 1.265951e+003
1.038107e+003, 1.268040e+003
1.038589e+003, 1.270527e+003
1.039071e+003, 1.271792e+003
1.039553e+003, 1.271801e+003
1.040035e+003, 1.272029e+003
1.040517e+003, 1.272913e+003
1.041000e+003, 1.273812e+003
1.041482e+003, 1.274391e+003
1.041964e+003, 1.275039e+003
1.042446e+003, 1.276809e+003
1.042928e+003, 1.279500e+003
1.043410e+003, 1.282345e+003
1.043892e+003, 1.285462e+003
1.044374e+003, 1.287722e+003
1.044856e+003, 1.287532e+003
1.045339e+003, 1.286765e+003
1.045821e+003, 1.287091e+003
1.046303e+003, 1.288649e+003
1.046785e+003, 1.290620e+003
1.047267e+003, 1.293073e+003
1.047749e+003, 1.295311e+003
1.048231e+003, 1.296752e+003
1.048713e+003, 1.297744e+003
1.049195e+003, 1.298442e+003
1.049677e+003, 1.299040e+003
1.050160e+003, 1.300066e+003
1.050642e+003, 1.301899e+003
1.051124e+003, 1.303889e+003
1.051606e+003, 1.306102e+003
1.052088e+003, 1.308224e+003
1.052570e+003, 1.309581e+003
1.053052e+003, 1.310450e+003
1.053534e+003, 1.311835e+003
1.054017e+003, 1.313857e+003
1.054499e+003, 1.316265e+003
1.054981e+003, 1.319439e+003
1.055463e+003, 1.322471e+003
1.055945e+003, 1.324643e+003
1.056427e+003, 1.326137e+003
1.056909e+003, 1.327939e+003
1.057391e+003, 1.330110e+003
1.057874e+003, 1.331967e+003
1.058356e+003, 1.333146e+003
1.058838e+003, 1.334223e+003
1.059320e+003, 1.335725e+003
1.059802e+003, 1.337658e+003
1.060284e+003, 1.340116e+003
1.060766e+003, 1.343463e+003
1.061248e+003, 1.346512e+003
1.061730e+003, 1.348951e+003
1.062213e+003, 1.351622e+003
1.062695e+003, 1.355444e+003
1.063177e+003, 1.359948e+003
1.063659e+003, 1.363270e+003
1.064141e+003, 1.365672e+003
1.064623e+003, 1.368390e+003
1.065105e+003, 1.372628e+003
1.065587e+003, 1.376596e+003
1.066070e+003, 1.379375e+003
1.066552e+003, 1.381592e+003
1.067034e+003, 1.384099e+003
1.067516e+003, 1.386884e+003
1.067998e+003, 1.389619e+003
1.068480e+003, 1.392199e+003
1.068962e+003, 1.395135e+003
1.069444e+003, 1.399482e+003
1.069927e+003, 1.403968e+003
1.070409e+003, 1.407517e+003
1.070891e+003, 1.409965e+003
1.071373e+003, 1.412143e+003
1.071855e+003, 1.414284e+003
1.072337e+003, 1.415572e+003
1.072819e+003, 1.415416e+003
1.073301e+003, 1.414875e+003
1.073783e+003, 1.415731e+003
1.074266e+003, 1.417692e+003
1.074748e+003, 1.420274e+003
1.075230e+003, 1.423795e+003
1.075712e+003, 1.426653e+003
1.076194e+003, 1.428168e+003
1.076676e+003, 1.429215e+003
1.077158e+003, 1.430235e+003
1.077640e+003, 1.431228e+003
1.078122e+003, 1.432423e+003
1.078604e+003, 1.433751e+003
1.079087e+003, 1.434660e+003
1.079569e+003, 1.434521e+003
1.080051e+003, 1.434195e+003
1.080533e+003, 1.433932e+003
1.081015e+003, 1.433916e+003
1.081497e+003, 1.434564e+003
1.081979e+003, 1.436195e+003
1.082461e+003, 1.436702e+003
1.082944e+003, 1.435745e+003
1.083426e+003, 1.434895e+003
1.083908e+003, 1.436190e+003
1.084390e+003, 1.438113e+003
1.084872e+003, 1.438911e+003
1.085354e+003, 1.438526e+003
1.085836e+003, 1.437629e+003
1.086318e+003, 1.435391e+003
1.086801e+003, 1.434556e+003
1.087283e+003, 1.436213e+003
1.087765e+003, 1.438920e+003
1.088247e+003, 1.440132e+003
1.088729e+003, 1.440241e+003
1.089211e+003, 1.440181e+003
1.089693e+003, 1.440089e+003
1.090175e+003, 1.440141e+003
1.090657e+003, 1.440518e+003
1.091140e+003, 1.440939e+003
1.091622e+003, 1.441204e+003
1.092104e+003, 1.441353e+003
1.092586e+003, 1.441903e+003
1.093068e+003, 1.442799e+003
1.093550e+003, 1.443336e+003
1.094032e+003, 1.442892e+003
1.094514e+003, 1.442455e+003
1.094997e+003, 1.442461e+003
1.095479e+003, 1.443055e+003
1.095961e+003, 1.444652e+003
1.096443e+003, 1.448160e+003
1.096925e+003, 1.449036e+003
1.097407e+003, 1.446819e+003
1.097889e+003, 1.444908e+003
1.098371e+003, 1.446617e+003
1.098854e+003, 1.449716e+003
1.099336e+003, 1.451598e+003
1.099818e+003, 1.452381e+003
1.100300e+003, 1.452798e+003
1.100782e+003, 1.452703e+003
1.101264e+003, 1.452766e+003
1.101746e+003, 1.453043e+003
1.102228e+003, 1.453551e+003
1.102710e+003, 1.454418e+003
1.103193e+003, 1.455520e+003
1.103675e+003, 1.456497e+003
1.104157e+003, 1.457313e+003
1.104639e+003, 1.458425e+003
1.105121e+003, 1.460919e+003
1.105603e+003, 1.462714e+003
1.106085e+003, 1.462842e+003
1.106567e+003, 1.461856e+003
1.107049e+003, 1.461004e+003
1.107531e+003, 1.460436e+003
1.108014e+003, 1.461579e+003
1.108496e+003, 1.465247e+003
1.108978e+003, 1.469167e+003
1.109460e+003, 1.471985e+003
1.109942e+003, 1.474131e+003
1.110424e+003, 1.476098e+003
1.110906e+003, 1.477972e+003
1.111388e+003, 1.477921e+003
1.111871e+003, 1.475778e+003
1.112353e+003, 1.474116e+003
1.112835e+003, 1.474571e+003
1.113317e+003, 1.475709e+003
1.113799e+003, 1.475769e+003
1.114281e+003, 1.475506e+003
1.114763e+003, 1.476219e+003
1.115245e+003, 1.478668e+003
1.115728e+003, 1.481039e+003
1.116210e+003, 1.483400e+003
1.116692e+003, 1.485505e+003
1.117174e+003, 1.486837e+003
1.117656e+003, 1.487904e+003
1.118138e+003, 1.489831e+003
1.118620e+003, 1.492374e+003
1.119102e+003, 1.494452e+003
1.119584e+003, 1.495128e+003
1.120067e+003, 1.496022e+003
1.120549e+003, 1.497333e+003
1.121031e+003, 1.498953e+003
1.121513e+003, 1.501054e+003
1.121995e+003, 1.503333e+003
1.122477e+003, 1.504483e+003
1.122959e+003, 1.504422e+003
1.123441e+003, 1.504758e+003
1.123924e+003, 1.507001e+003
1.124406e+003, 1.509067e+003
1.124888e+003, 1.509881e+003
1.125370e+003, 1.509993e+003
1.125852e+003, 1.511169e+003
1.126334e+003, 1.513273e+003
1.126816e+003, 1.514318e+003
1.127298e+003, 1.513594e+003
1.127781e+003, 1.513134e+003
1.128263e+003, 1.514979e+003
1.128745e+003, 1.517331e+003
1.129227e+003, 1.518554e+003
1.129709e+003, 1.518704e+003
1.130191e+003, 1.519675e+003
1.130673e+003, 1.521506e+003
1.131155e+003, 1.523645e+003
1.131637e+003, 1.525929e+003
1.132120e+003, 1.528321e+003
1.132602e+003, 1.531276e+003
1.133084e+003, 1.534090e+003
1.133566e+003, 1.535476e+003
1.134048e+003, 1.534427e+003
1.134530e+003, 1.535249e+003
1.135012e+003, 1.538482e+003
1.135494e+003, 1.541340e+003
1.135976e+003, 1.541169e+003
1.136458e+003, 1.540084e+003
1.136941e+003, 1.541543e+003
1.137423e+003, 1.544853e+003
1.137905e+003, 1.548309e+003
1.138387e+003, 1.552600e+003
1.138869e+003, 1.555033e+003
1.139351e+003, 1.554804e+003
1.139833e+003, 1.554122e+003
1.140315e+003, 1.555154e+003
1.140798e+003, 1.557371e+003
1.141280e+003, 1.559773e+003
1.141762e+003, 1.562236e+003
1.142244e+003, 1.564289e+003
1.142726e+003, 1.565677e+003
1.143208e+003, 1.566615e+003
1.143690e+003, 1.566706e+003
1.144172e+003, 1.566965e+003
1.144655e+003, 1.569916e+003
1.145137e+003, 1.574472e+003
1.145619e+003, 1.575785e+003
1.146101e+003, 1.573223e+003
1.146583e+003, 1.571364e+003
1.147065e+003, 1.573053e+003
1.147547e+003, 1.575825e+003
1.148029e+003, 1.578966e+003
1.148511e+003, 1.582071e+003
1.148994e+003, 1.583538e+003
1.149476e+003, 1.583640e+003
1.149958e+003, 1.584917e+003
1.150440e+003, 1.588179e+003
1.150922e+003, 1.591589e+003
1.151404e+003, 1.593829e+003
1.151886e+003, 1.595672e+003
1.152368e+003, 1.597822e+003
1.152851e+003, 1.600168e+003
1.153333e+003, 1.601285e+003
1.153815e+003, 1.601138e+003
1.154297e+003, 1.601888e+003
1.154779e+003, 1.604477e+003
1.155261e+003, 1.607880e+003
1.155743e+003, 1.612096e+003
1.156225e+003, 1.615995e+003
1.156708e+003, 1.617834e+003
1.157190e+003, 1.617167e+003
1.157672e+003, 1.618061e+003
1.158154e+003, 1.620701e+003
1.158636e+003, 1.623408e+003
1.159118e+003, 1.625004e+003
1.159600e+003, 1.626479e+003
1.160082e+003, 1.628903e+003
1.160564e+003, 1.632019e+003
1.161047e+003, 1.635430e+003
1.161529e+003, 1.639519e+003
1.162011e+003, 1.642940e+003
1.162493e+003, 1.645683e+003
1.162975e+003, 1.647916e+003
1.163457e+003, 1.649498e+003
1.163939e+003, 1.650837e+003
1.164421e+003, 1.652342e+003
1.164903e+003, 1.654064e+003
1.165385e+003, 1.656147e+003
1.165868e+003, 1.658271e+003
1.166350e+003, 1.661520e+003
1.166832e+003, 1.666356e+003
1.167314e+003, 1.671104e+003
1.167796e+003, 1.673473e+003
1.168278e+003, 1.674729e+003
1.168760e+003, 1.676889e+003
1.169242e+003, 1.680065e+003
1.169725e+003, 1.684008e+003
1.170207e+003, 1.690042e+003
1.170689e+003, 1.694765e+003
1.171171e+003, 1.697266e+003
1.171653e+003, 1.699043e+003
1.172135e+003, 1.702339e+003
1.172617e+003, 1.706484e+003
1.173099e+003, 1.709881e+003
1.173582e+003, 1.712365e+003
1.174064e+003, 1.715325e+003
1.174546e+003, 1.719496e+003
1.175028e+003, 1.724057e+003
1.175510e+003, 1.729260e+003
1.175992e+003, 1.734081e+003
1.176474e+003, 1.735654e+003
1.176956e+003, 1.735126e+003
1.177438e+003, 1.736015e+003
1.177921e+003, 1.739201e+003
1.178403e+003, 1.741738e+003
1.178885e+003, 1.741247e+003
1.179367e+003, 1.741306e+003
1.179849e+003, 1.743682e+003
1.180331e+003, 1.747393e+003
1.180813e+003, 1.749556e+003
1.181295e+003, 1.750342e+003
1.181778e+003, 1.750206e+003
1.182260e+003, 1.748964e+003
1.182742e+003, 1.747992e+003
1.183224e+003, 1.748364e+003
1.183706e+003, 1.748707e+003
1.184188e+003, 1.748151e+003
1.184670e+003, 1.746918e+003
1.185152e+003, 1.746304e+003
1.185635e+003, 1.746200e+003
1.186117e+003, 1.746084e+003
1.186599e+003, 1.745833e+003
1.187081e+003, 1.745343e+003
1.187563e+003, 1.744597e+003
1.188045e+003, 1.743524e+003
1.188527e+003, 1.741808e+003
1.189009e+003, 1.739603e+003
1.189491e+003, 1.739089e+003
1.189974e+003, 1.740008e+003
1.190456e+003, 1.740428e+003
1.190938e+003, 1.738323e+003
1.191420e+003, 1.736941e+003
1.191902e+003, 1.739114e+003
1.192384e+003, 1.741902e+003
1.192866e+003, 1.742094e+003
1.193348e+003, 1.739607e+003
1.193830e+003, 1.739194e+003
1.194313e+003, 1.740652e+003
1.194795e+003, 1.741379e+003
1.195277e+003, 1.738795e+003
1.195759e+003, 1.736189e+003
1.196241e+003, 1.735127e+003
1.196723e+003, 1.735257e+003
1.197205e+003, 1.736353e+003
1.197687e+003, 1.738457e+003
1.198169e+003, 1.740210e+003
1.198652e+003, 1.741552e+003
1.199134e+003, 1.742561e+003
1.199616e+003, 1.742923e+003
1.200098e+003, 1.743354e+003
1.200580e+003, 1.744929e+003
1.201062e+003, 1.746553e+003
1.201544e+003, 1.745860e+003
1.202026e+003, 1.742734e+003
1.202509e+003, 1.742270e+003
1.202991e+003, 1.744926e+003
1.203473e+003, 1.748542e+003
1.203955e+003, 1.752366e+003
1.204437e+003, 1.755813e+003
1.204919e+003, 1.758383e+003
1.205401e+003, 1.760322e+003
1.205883e+003, 1.762098e+003
1.206365e+003, 1.763704e+003
1.206848e+003, 1.765213e+003
1.207330e+003, 1.766645e+003
1.207812e+003, 1.767610e+003
1.208294e+003, 1.767264e+003
1.208776e+003, 1.766860e+003
1.209258e+003, 1.767341e+003
1.209740e+003, 1.768468e+003
1.210222e+003, 1.769599e+003
1.210705e+003, 1.770760e+003
1.211187e+003, 1.771949e+003
1.211669e+003, 1.773160e+003
1.212151e+003, 1.774689e+003
1.212633e+003, 1.777717e+003
1.213115e+003, 1.780325e+003
1.213597e+003, 1.780292e+003
1.214079e+003, 1.778669e+003
1.214562e+003, 1.779373e+003
1.215044e+003, 1.782355e+003
1.215526e+003, 1.785291e+003
1.216008e+003, 1.787715e+003
1.216490e+003, 1.789735e+003
1.216972e+003, 1.790799e+003
1.217454e+003, 1.792041e+003
1.217936e+003, 1.794485e+003
1.218418e+003, 1.797818e+003
1.218901e+003, 1.800641e+003
1.219383e+003, 1.802952e+003
1.219865e+003, 1.804670e+003
1.220347e+003, 1.805644e+003
1.220829e+003, 1.806471e+003
1.221311e+003, 1.807614e+003
1.221793e+003, 1.808743e+003
1.222275e+003, 1.809457e+003
1.222757e+003, 1.809915e+003
1.223240e+003, 1.811614e+003
1.223722e+003, 1.814433e+003
1.224204e+003, 1.816504e+003
1.224686e+003, 1.816975e+003
1.225168e+003, 1.817343e+003
1.225650e+003, 1.818439e+003
1.226132e+003, 1.820079e+003
1.226614e+003, 1.822251e+003
1.227096e+003, 1.824848e+003
1.227579e+003, 1.826752e+003
1.228061e+003, 1.828036e+003
1.228543e+003, 1.829299e+003
1.229025e+003, 1.830716e+003
1.229507e+003, 1.832219e+003
1.229989e+003, 1.833711e+003
1.230471e+003, 1.835292e+003
1.230953e+003, 1.836944e+003
1.231436e+003, 1.838689e+003
1.231918e+003, 1.841051e+003
1.232400e+003, 1.843900e+003
1.232882e+003, 1.846367e+003
1.233364e+003, 1.848140e+003
1.233846e+003, 1.849416e+003
1.234328e+003, 1.849703e+003
1.234810e+003, 1.850100e+003
1.235292e+003, 1.851333e+003
1.235775e+003, 1.853388e+003
1.236257e+003, 1.856778e+003
1.236739e+003, 1.861094e+003
1.237221e+003, 1.864121e+003
1.237703e+003, 1.863678e+003
1.238185e+003, 1.863801e+003
1.238667e+003, 1.866512e+003
1.239149e+003, 1.869848e+003
1.239632e+003, 1.872533e+003
1.240114e+003, 1.874631e+003
1.240596e+003, 1.876721e+003
1.241078e+003, 1.878797e+003
1.241560e+003, 1.880941e+003
1.242042e+003, 1.883536e+003
1.242524e+003, 1.885568e+003
1.243006e+003, 1.886075e+003
1.243489e+003, 1.886884e+003
1.243971e+003, 1.890316e+003
1.244453e+003, 1.895230e+003
1.244935e+003, 1.895548e+003
1.245417e+003, 1.892760e+003
1.245899e+003, 1.892407e+003
1.246381e+003, 1.899749e+003
1.246863e+003, 1.905429e+003
1.247345e+003, 1.907792e+003
1.247828e+003, 1.908845e+003
1.248310e+003, 1.909952e+003
1.248792e+003, 1.911128e+003
1.249274e+003, 1.912255e+003
1.249756e+003, 1.913484e+003
1.250238e+003, 1.915307e+003
1.250720e+003, 1.918580e+003
1.251202e+003, 1.921464e+003
1.251684e+003, 1.923830e+003
1.252167e+003, 1.925741e+003
1.252649e+003, 1.926792e+003
1.253131e+003, 1.927650e+003
1.253613e+003, 1.929982e+003
1.254095e+003, 1.933287e+003
1.254577e+003, 1.935863e+003
1.255059e+003, 1.936539e+003
1.255541e+003, 1.937899e+003
1.256023e+003, 1.940219e+003
1.256506e+003, 1.942659e+003
1.256988e+003, 1.944246e+003
1.257470e+003, 1.945701e+003
1.257952e+003, 1.948571e+003
1.258434e+003, 1.952165e+003
1.258916e+003, 1.954083e+003
1.259398e+003, 1.952938e+003
1.259880e+003, 1.953841e+003
1.260363e+003, 1.957398e+003
1.260845e+003, 1.961224e+003
1.261327e+003, 1.963480e+003
1.261809e+003, 1.964842e+003
1.262291e+003, 1.965526e+003
1.262773e+003, 1.965978e+003
1.263255e+003, 1.967425e+003
1.263737e+003, 1.970314e+003
1.264219e+003, 1.971854e+003
1.264702e+003, 1.971739e+003
1.265184e+003, 1.971854e+003
1.265666e+003, 1.974254e+003
1.266148e+003, 1.976888e+003
1.266630e+003, 1.977840e+003
1.267112e+003, 1.978001e+003
1.267594e+003, 1.979360e+003
1.268076e+003, 1.982039e+003
1.268559e+003, 1.983947e+003
1.269041e+003, 1.984967e+003
1.269523e+003, 1.987028e+003
1.270005e+003, 1.992732e+003
1.270487e+003, 1.998521e+003
1.270969e+003, 2.002467e+003
1.271451e+003, 2.005066e+003
1.271933e+003, 2.006540e+003
1.272416e+003, 2.006993e+003
1.272898e+003, 2.007863e+003
1.273380e+003, 2.009239e+003
1.273862e+003, 2.011166e+003
1.274344e+003, 2.014566e+003
1.274826e+003, 2.017337e+003
1.275308e+003, 2.018480e+003
1.275790e+003, 2.019053e+003
1.276272e+003, 2.020167e+003
1.276755e+003, 2.021859e+003
1.277237e+003, 2.024641e+003
1.277719e+003, 2.028320e+003
1.278201e+003, 2.031555e+003
1.278683e+003, 2.033460e+003
1.279165e+003, 2.035226e+003
1.279647e+003, 2.037187e+003
1.280129e+003, 2.038943e+003
1.280611e+003, 2.039781e+003
1.281094e+003, 2.040237e+003
1.281576e+003, 2.041004e+003
1.282058e+003, 2.042366e+003
1.282540e+003, 2.045528e+003
1.283022e+003, 2.052632e+003
1.283504e+003, 2.058032e+003
1.283986e+003, 2.061099e+003
1.284468e+003, 2.062595e+003
1.284950e+003, 2.062448e+003
1.285433e+003, 2.061775e+003
1.285915e+003, 2.061560e+003
1.286397e+003, 2.062115e+003
1.286879e+003, 2.064685e+003
1.287361e+003, 2.070339e+003
1.287843e+003, 2.073235e+003
1.288325e+003, 2.072454e+003
1.288807e+003, 2.072303e+003
1.289290e+003, 2.077939e+003
1.289772e+003, 2.084494e+003
1.290254e+003, 2.087861e+003
1.290736e+003, 2.088758e+003
1.291218e+003, 2.089289e+003
1.291700e+003, 2.089333e+003
1.292182e+003, 2.090900e+003
1.292664e+003, 2.094098e+003
1.293146e+003, 2.097016e+003
1.293629e+003, 2.098075e+003
1.294111e+003, 2.098720e+003
1.294593e+003, 2.099498e+003
1.295075e+003, 2.100490e+003
1.295557e+003, 2.101938e+003
1.296039e+003, 2.103758e+003
1.296521e+003, 2.104791e+003
1.297003e+003, 2.105170e+003
1.297486e+003, 2.106865e+003
1.297968e+003, 2.113691e+003
1.298450e+003, 2.118374e+003
1.298932e+003, 2.118380e+003
1.299414e+003, 2.117108e+003
1.299896e+003, 2.118388e+003
1.300378e+003, 2.121392e+003
1.300860e+003, 2.123876e+003
1.301343e+003, 2.125958e+003
1.301825e+003, 2.128580e+003
##END=



