##NAMES=Whiteite-(CaMnMg)
##RRUFFID=R140770
##IDEAL CHEMISTRY=CaMn^2+^Mg_2_Al_2_(PO_4_)_4_(OH)_2_&#183;8H_2_O
##LOCALITY=Tip Top mine, Fourmile, Custer District, Custer County, South Dakota, USA
##OWNER=RRUFF
##SOURCE=Thomas A. Loomis
##DESCRIPTION=Light tan with triangular striated faces, associated with deep red roscherite and colorless acicular sprays of tiptopite. Crystals are twinned by a 2-fold rotation around a*.
##STATUS=The identification of this mineral has been confirmed only by single crystal X-ray diffraction.
##URL=rruff.info/R140770
9.059570e+001, 4.155469e+002
9.107782e+001, 4.089268e+002
9.155994e+001, 4.065930e+002
9.204205e+001, 4.119651e+002
9.252417e+001, 4.192905e+002
9.300629e+001, 4.263429e+002
9.348840e+001, 4.303284e+002
9.397052e+001, 4.291585e+002
9.445264e+001, 4.230388e+002
9.493475e+001, 4.183404e+002
9.541687e+001, 4.134053e+002
9.589898e+001, 4.085190e+002
9.638110e+001, 4.037453e+002
9.686321e+001, 3.991217e+002
9.734533e+001, 3.943863e+002
9.782745e+001, 3.888251e+002
9.830956e+001, 3.836986e+002
9.879168e+001, 3.787609e+002
9.927380e+001, 3.744876e+002
9.975591e+001, 3.712618e+002
1.002380e+002, 3.687249e+002
1.007201e+002, 3.660200e+002
1.012023e+002, 3.625399e+002
1.016844e+002, 3.584744e+002
1.021665e+002, 3.547833e+002
1.026486e+002, 3.513778e+002
1.031307e+002, 3.483058e+002
1.036128e+002, 3.456183e+002
1.040950e+002, 3.432749e+002
1.045771e+002, 3.413089e+002
1.050592e+002, 3.397574e+002
1.055413e+002, 3.384726e+002
1.060234e+002, 3.373190e+002
1.065055e+002, 3.362694e+002
1.069877e+002, 3.352884e+002
1.074698e+002, 3.342870e+002
1.079519e+002, 3.334540e+002
1.084340e+002, 3.322852e+002
1.089161e+002, 3.305179e+002
1.093982e+002, 3.282539e+002
1.098804e+002, 3.257594e+002
1.103625e+002, 3.231320e+002
1.108446e+002, 3.202244e+002
1.113267e+002, 3.180154e+002
1.118088e+002, 3.171230e+002
1.122909e+002, 3.163534e+002
1.127731e+002, 3.150681e+002
1.132552e+002, 3.132267e+002
1.137373e+002, 3.112583e+002
1.142194e+002, 3.097921e+002
1.147015e+002, 3.090501e+002
1.151836e+002, 3.084857e+002
1.156658e+002, 3.084190e+002
1.161479e+002, 3.083777e+002
1.166300e+002, 3.078367e+002
1.171121e+002, 3.065894e+002
1.175942e+002, 3.049417e+002
1.180763e+002, 3.036274e+002
1.185584e+002, 3.027917e+002
1.190406e+002, 3.018961e+002
1.195227e+002, 3.007529e+002
1.200048e+002, 2.994264e+002
1.204869e+002, 2.980325e+002
1.209690e+002, 2.964684e+002
1.214511e+002, 2.950303e+002
1.219333e+002, 2.941788e+002
1.224154e+002, 2.940433e+002
1.228975e+002, 2.942606e+002
1.233796e+002, 2.947188e+002
1.238617e+002, 2.954900e+002
1.243438e+002, 2.958857e+002
1.248260e+002, 2.953615e+002
1.253081e+002, 2.943510e+002
1.257902e+002, 2.930898e+002
1.262723e+002, 2.915206e+002
1.267544e+002, 2.899273e+002
1.272365e+002, 2.890440e+002
1.277187e+002, 2.893830e+002
1.282008e+002, 2.895984e+002
1.286829e+002, 2.891986e+002
1.291650e+002, 2.884662e+002
1.296471e+002, 2.877704e+002
1.301292e+002, 2.873394e+002
1.306114e+002, 2.871602e+002
1.310935e+002, 2.870335e+002
1.315756e+002, 2.870617e+002
1.320577e+002, 2.870501e+002
1.325398e+002, 2.870286e+002
1.330219e+002, 2.869384e+002
1.335041e+002, 2.866342e+002
1.339862e+002, 2.859375e+002
1.344683e+002, 2.847148e+002
1.349504e+002, 2.840321e+002
1.354325e+002, 2.840913e+002
1.359146e+002, 2.844066e+002
1.363968e+002, 2.847913e+002
1.368789e+002, 2.851925e+002
1.373610e+002, 2.855370e+002
1.378431e+002, 2.856934e+002
1.383252e+002, 2.855886e+002
1.388073e+002, 2.857242e+002
1.392895e+002, 2.863457e+002
1.397716e+002, 2.871362e+002
1.402537e+002, 2.877343e+002
1.407358e+002, 2.880519e+002
1.412179e+002, 2.882002e+002
1.417000e+002, 2.882939e+002
1.421821e+002, 2.883411e+002
1.426643e+002, 2.883335e+002
1.431464e+002, 2.882992e+002
1.436285e+002, 2.882149e+002
1.441106e+002, 2.879910e+002
1.445927e+002, 2.875729e+002
1.450748e+002, 2.870318e+002
1.455570e+002, 2.863854e+002
1.460391e+002, 2.856401e+002
1.465212e+002, 2.849789e+002
1.470033e+002, 2.845771e+002
1.474854e+002, 2.844550e+002
1.479675e+002, 2.843919e+002
1.484497e+002, 2.846996e+002
1.489318e+002, 2.848219e+002
1.494139e+002, 2.843105e+002
1.498960e+002, 2.831025e+002
1.503781e+002, 2.816469e+002
1.508602e+002, 2.806102e+002
1.513424e+002, 2.801181e+002
1.518245e+002, 2.797959e+002
1.523066e+002, 2.797083e+002
1.527887e+002, 2.796785e+002
1.532708e+002, 2.796023e+002
1.537529e+002, 2.794359e+002
1.542351e+002, 2.791533e+002
1.547172e+002, 2.786890e+002
1.551993e+002, 2.780168e+002
1.556814e+002, 2.771552e+002
1.561635e+002, 2.757666e+002
1.566456e+002, 2.742889e+002
1.571278e+002, 2.733326e+002
1.576099e+002, 2.732303e+002
1.580920e+002, 2.737198e+002
1.585741e+002, 2.736766e+002
1.590562e+002, 2.728720e+002
1.595383e+002, 2.718841e+002
1.600205e+002, 2.705968e+002
1.605026e+002, 2.692041e+002
1.609847e+002, 2.681607e+002
1.614668e+002, 2.677797e+002
1.619489e+002, 2.679429e+002
1.624310e+002, 2.680217e+002
1.629131e+002, 2.682229e+002
1.633953e+002, 2.681667e+002
1.638774e+002, 2.675305e+002
1.643595e+002, 2.663594e+002
1.648416e+002, 2.650894e+002
1.653237e+002, 2.639003e+002
1.658058e+002, 2.628260e+002
1.662880e+002, 2.619294e+002
1.667701e+002, 2.613999e+002
1.672522e+002, 2.609026e+002
1.677343e+002, 2.599757e+002
1.682164e+002, 2.585120e+002
1.686985e+002, 2.571372e+002
1.691807e+002, 2.563737e+002
1.696628e+002, 2.558875e+002
1.701449e+002, 2.552739e+002
1.706270e+002, 2.543377e+002
1.711091e+002, 2.532110e+002
1.715912e+002, 2.521887e+002
1.720734e+002, 2.512829e+002
1.725555e+002, 2.504753e+002
1.730376e+002, 2.497982e+002
1.735197e+002, 2.491834e+002
1.740018e+002, 2.485132e+002
1.744839e+002, 2.476822e+002
1.749661e+002, 2.467470e+002
1.754482e+002, 2.460809e+002
1.759303e+002, 2.461139e+002
1.764124e+002, 2.459342e+002
1.768945e+002, 2.451474e+002
1.773766e+002, 2.439889e+002
1.778588e+002, 2.428875e+002
1.783409e+002, 2.421572e+002
1.788230e+002, 2.418002e+002
1.793051e+002, 2.414218e+002
1.797872e+002, 2.410263e+002
1.802693e+002, 2.406040e+002
1.807515e+002, 2.401365e+002
1.812336e+002, 2.396355e+002
1.817157e+002, 2.391261e+002
1.821978e+002, 2.386202e+002
1.826799e+002, 2.381066e+002
1.831620e+002, 2.377166e+002
1.836441e+002, 2.375882e+002
1.841263e+002, 2.374308e+002
1.846084e+002, 2.371338e+002
1.850905e+002, 2.366809e+002
1.855726e+002, 2.360693e+002
1.860547e+002, 2.352619e+002
1.865368e+002, 2.342181e+002
1.870190e+002, 2.333719e+002
1.875011e+002, 2.329388e+002
1.879832e+002, 2.325509e+002
1.884653e+002, 2.318237e+002
1.889474e+002, 2.307411e+002
1.894296e+002, 2.297929e+002
1.899117e+002, 2.296250e+002
1.903938e+002, 2.302027e+002
1.908759e+002, 2.302821e+002
1.913580e+002, 2.292073e+002
1.918401e+002, 2.278120e+002
1.923223e+002, 2.271069e+002
1.928044e+002, 2.272960e+002
1.932865e+002, 2.276963e+002
1.937686e+002, 2.277056e+002
1.942507e+002, 2.274103e+002
1.947328e+002, 2.269772e+002
1.952150e+002, 2.262238e+002
1.956971e+002, 2.254006e+002
1.961792e+002, 2.250796e+002
1.966613e+002, 2.255133e+002
1.971434e+002, 2.259963e+002
1.976255e+002, 2.259826e+002
1.981077e+002, 2.256054e+002
1.985898e+002, 2.251789e+002
1.990719e+002, 2.247576e+002
1.995540e+002, 2.243902e+002
2.000361e+002, 2.242921e+002
2.005182e+002, 2.245140e+002
2.010004e+002, 2.249814e+002
2.014825e+002, 2.258349e+002
2.019646e+002, 2.268923e+002
2.024467e+002, 2.276974e+002
2.029288e+002, 2.277874e+002
2.034109e+002, 2.272218e+002
2.038930e+002, 2.270209e+002
2.043752e+002, 2.275070e+002
2.048573e+002, 2.280585e+002
2.053394e+002, 2.285040e+002
2.058215e+002, 2.288271e+002
2.063036e+002, 2.290267e+002
2.067857e+002, 2.290398e+002
2.072679e+002, 2.288430e+002
2.077500e+002, 2.289281e+002
2.082321e+002, 2.294836e+002
2.087142e+002, 2.301695e+002
2.091963e+002, 2.310883e+002
2.096784e+002, 2.320826e+002
2.101606e+002, 2.327942e+002
2.106427e+002, 2.328274e+002
2.111248e+002, 2.320498e+002
2.116069e+002, 2.317785e+002
2.120890e+002, 2.324657e+002
2.125711e+002, 2.331846e+002
2.130533e+002, 2.334619e+002
2.135354e+002, 2.334030e+002
2.140175e+002, 2.334839e+002
2.144996e+002, 2.341951e+002
2.149817e+002, 2.357033e+002
2.154638e+002, 2.366430e+002
2.159460e+002, 2.368397e+002
2.164281e+002, 2.367714e+002
2.169102e+002, 2.365357e+002
2.173923e+002, 2.362134e+002
2.178744e+002, 2.359834e+002
2.183565e+002, 2.360375e+002
2.188387e+002, 2.364272e+002
2.193208e+002, 2.366162e+002
2.198029e+002, 2.364297e+002
2.202850e+002, 2.362103e+002
2.207671e+002, 2.361717e+002
2.212492e+002, 2.363151e+002
2.217314e+002, 2.364961e+002
2.222135e+002, 2.365612e+002
2.226956e+002, 2.365100e+002
2.231777e+002, 2.367056e+002
2.236598e+002, 2.375426e+002
2.241419e+002, 2.383376e+002
2.246240e+002, 2.384841e+002
2.251062e+002, 2.379767e+002
2.255883e+002, 2.373762e+002
2.260704e+002, 2.371273e+002
2.265525e+002, 2.372008e+002
2.270346e+002, 2.372365e+002
2.275167e+002, 2.371975e+002
2.279989e+002, 2.371230e+002
2.284810e+002, 2.370067e+002
2.289631e+002, 2.368444e+002
2.294452e+002, 2.367776e+002
2.299273e+002, 2.369935e+002
2.304094e+002, 2.373880e+002
2.308916e+002, 2.376689e+002
2.313737e+002, 2.377200e+002
2.318558e+002, 2.376737e+002
2.323379e+002, 2.377472e+002
2.328200e+002, 2.379864e+002
2.333021e+002, 2.380184e+002
2.337843e+002, 2.373327e+002
2.342664e+002, 2.363271e+002
2.347485e+002, 2.356128e+002
2.352306e+002, 2.354249e+002
2.357127e+002, 2.355240e+002
2.361948e+002, 2.355806e+002
2.366770e+002, 2.355622e+002
2.371591e+002, 2.356404e+002
2.376412e+002, 2.362007e+002
2.381233e+002, 2.368172e+002
2.386054e+002, 2.369680e+002
2.390875e+002, 2.363936e+002
2.395697e+002, 2.354282e+002
2.400518e+002, 2.345375e+002
2.405339e+002, 2.336698e+002
2.410160e+002, 2.330434e+002
2.414981e+002, 2.330990e+002
2.419802e+002, 2.332778e+002
2.424624e+002, 2.329838e+002
2.429445e+002, 2.319433e+002
2.434266e+002, 2.305746e+002
2.439087e+002, 2.295743e+002
2.443908e+002, 2.290080e+002
2.448729e+002, 2.286513e+002
2.453550e+002, 2.286919e+002
2.458372e+002, 2.287706e+002
2.463193e+002, 2.285133e+002
2.468014e+002, 2.277753e+002
2.472835e+002, 2.268751e+002
2.477656e+002, 2.264193e+002
2.482477e+002, 2.267181e+002
2.487299e+002, 2.267113e+002
2.492120e+002, 2.261011e+002
2.496941e+002, 2.252257e+002
2.501762e+002, 2.242896e+002
2.506583e+002, 2.233613e+002
2.511404e+002, 2.224665e+002
2.516226e+002, 2.216415e+002
2.521047e+002, 2.209069e+002
2.525868e+002, 2.202131e+002
2.530689e+002, 2.196062e+002
2.535510e+002, 2.190004e+002
2.540331e+002, 2.182944e+002
2.545153e+002, 2.174791e+002
2.549974e+002, 2.166694e+002
2.554795e+002, 2.160658e+002
2.559616e+002, 2.158560e+002
2.564437e+002, 2.154463e+002
2.569258e+002, 2.147174e+002
2.574080e+002, 2.139061e+002
2.578901e+002, 2.131014e+002
2.583722e+002, 2.123517e+002
2.588543e+002, 2.117229e+002
2.593364e+002, 2.113244e+002
2.598185e+002, 2.112759e+002
2.603007e+002, 2.111619e+002
2.607828e+002, 2.107346e+002
2.612649e+002, 2.104387e+002
2.617470e+002, 2.107717e+002
2.622291e+002, 2.116552e+002
2.627112e+002, 2.124093e+002
2.631934e+002, 2.121586e+002
2.636755e+002, 2.103813e+002
2.641576e+002, 2.095318e+002
2.646397e+002, 2.102512e+002
2.651218e+002, 2.111682e+002
2.656039e+002, 2.115767e+002
2.660861e+002, 2.114364e+002
2.665682e+002, 2.110534e+002
2.670503e+002, 2.106860e+002
2.675324e+002, 2.102948e+002
2.680145e+002, 2.102273e+002
2.684966e+002, 2.108188e+002
2.689788e+002, 2.113616e+002
2.694609e+002, 2.114074e+002
2.699430e+002, 2.110525e+002
2.704251e+002, 2.107381e+002
2.709072e+002, 2.108418e+002
2.713893e+002, 2.113825e+002
2.718715e+002, 2.117720e+002
2.723536e+002, 2.118799e+002
2.728357e+002, 2.119978e+002
2.733178e+002, 2.122467e+002
2.737999e+002, 2.126078e+002
2.742820e+002, 2.130077e+002
2.747642e+002, 2.133979e+002
2.752463e+002, 2.137820e+002
2.757284e+002, 2.141982e+002
2.762105e+002, 2.146719e+002
2.766926e+002, 2.151422e+002
2.771747e+002, 2.156077e+002
2.776568e+002, 2.160567e+002
2.781389e+002, 2.164440e+002
2.786211e+002, 2.167276e+002
2.791032e+002, 2.169564e+002
2.795853e+002, 2.173555e+002
2.800674e+002, 2.182616e+002
2.805495e+002, 2.189168e+002
2.810316e+002, 2.189200e+002
2.815138e+002, 2.185707e+002
2.819959e+002, 2.184513e+002
2.824780e+002, 2.188520e+002
2.829601e+002, 2.194960e+002
2.834422e+002, 2.196372e+002
2.839243e+002, 2.190741e+002
2.844065e+002, 2.184914e+002
2.848886e+002, 2.179059e+002
2.853707e+002, 2.174141e+002
2.858528e+002, 2.172422e+002
2.863349e+002, 2.175016e+002
2.868170e+002, 2.178690e+002
2.872992e+002, 2.177472e+002
2.877813e+002, 2.169710e+002
2.882634e+002, 2.163211e+002
2.887455e+002, 2.159831e+002
2.892276e+002, 2.158103e+002
2.897097e+002, 2.156391e+002
2.901919e+002, 2.154327e+002
2.906740e+002, 2.152257e+002
2.911561e+002, 2.150878e+002
2.916382e+002, 2.150456e+002
2.921203e+002, 2.148419e+002
2.926024e+002, 2.143593e+002
2.930846e+002, 2.137548e+002
2.935667e+002, 2.131844e+002
2.940488e+002, 2.126654e+002
2.945309e+002, 2.121001e+002
2.950130e+002, 2.112833e+002
2.954951e+002, 2.102397e+002
2.959773e+002, 2.097586e+002
2.964594e+002, 2.104325e+002
2.969415e+002, 2.112695e+002
2.974236e+002, 2.114419e+002
2.979057e+002, 2.109593e+002
2.983878e+002, 2.104251e+002
2.988700e+002, 2.103136e+002
2.993521e+002, 2.105109e+002
2.998342e+002, 2.103097e+002
3.003163e+002, 2.093383e+002
3.007984e+002, 2.083169e+002
3.012805e+002, 2.076818e+002
3.017627e+002, 2.073694e+002
3.022448e+002, 2.070908e+002
3.027269e+002, 2.067661e+002
3.032090e+002, 2.063077e+002
3.036911e+002, 2.054840e+002
3.041732e+002, 2.041177e+002
3.046554e+002, 2.027159e+002
3.051375e+002, 2.014035e+002
3.056196e+002, 2.002209e+002
3.061017e+002, 1.993181e+002
3.065838e+002, 1.988220e+002
3.070659e+002, 1.985074e+002
3.075481e+002, 1.979343e+002
3.080302e+002, 1.970681e+002
3.085123e+002, 1.961731e+002
3.089944e+002, 1.953517e+002
3.094765e+002, 1.945542e+002
3.099586e+002, 1.936895e+002
3.104408e+002, 1.927262e+002
3.109229e+002, 1.917397e+002
3.114050e+002, 1.908163e+002
3.118871e+002, 1.899420e+002
3.123692e+002, 1.891922e+002
3.128513e+002, 1.885978e+002
3.133335e+002, 1.881280e+002
3.138156e+002, 1.877948e+002
3.142977e+002, 1.876076e+002
3.147798e+002, 1.873886e+002
3.152619e+002, 1.869555e+002
3.157440e+002, 1.863149e+002
3.162262e+002, 1.856778e+002
3.167083e+002, 1.850436e+002
3.171904e+002, 1.844303e+002
3.176725e+002, 1.838034e+002
3.181546e+002, 1.831743e+002
3.186367e+002, 1.827045e+002
3.191188e+002, 1.825423e+002
3.196010e+002, 1.826364e+002
3.200831e+002, 1.826665e+002
3.205652e+002, 1.827181e+002
3.210473e+002, 1.826267e+002
3.215294e+002, 1.822166e+002
3.220115e+002, 1.815677e+002
3.224937e+002, 1.809321e+002
3.229758e+002, 1.803933e+002
3.234579e+002, 1.799884e+002
3.239400e+002, 1.798594e+002
3.244221e+002, 1.801969e+002
3.249042e+002, 1.803572e+002
3.253864e+002, 1.798863e+002
3.258685e+002, 1.791157e+002
3.263506e+002, 1.787422e+002
3.268327e+002, 1.790513e+002
3.273148e+002, 1.795640e+002
3.277969e+002, 1.794389e+002
3.282791e+002, 1.785321e+002
3.287612e+002, 1.779450e+002
3.292433e+002, 1.782097e+002
3.297254e+002, 1.787475e+002
3.302075e+002, 1.787693e+002
3.306896e+002, 1.781385e+002
3.311718e+002, 1.775408e+002
3.316539e+002, 1.777266e+002
3.321360e+002, 1.787735e+002
3.326181e+002, 1.795738e+002
3.331002e+002, 1.799767e+002
3.335823e+002, 1.802067e+002
3.340645e+002, 1.803568e+002
3.345466e+002, 1.804567e+002
3.350287e+002, 1.806171e+002
3.355108e+002, 1.809151e+002
3.359929e+002, 1.813437e+002
3.364750e+002, 1.818046e+002
3.369572e+002, 1.824537e+002
3.374393e+002, 1.829747e+002
3.379214e+002, 1.831837e+002
3.384035e+002, 1.831618e+002
3.388856e+002, 1.830604e+002
3.393677e+002, 1.829153e+002
3.398499e+002, 1.828113e+002
3.403320e+002, 1.830155e+002
3.408141e+002, 1.836988e+002
3.412962e+002, 1.843259e+002
3.417783e+002, 1.848220e+002
3.422604e+002, 1.851980e+002
3.427426e+002, 1.854190e+002
3.432247e+002, 1.854740e+002
3.437068e+002, 1.854972e+002
3.441889e+002, 1.856666e+002
3.446710e+002, 1.860131e+002
3.451531e+002, 1.864695e+002
3.456353e+002, 1.871389e+002
3.461174e+002, 1.878447e+002
3.465995e+002, 1.884631e+002
3.470816e+002, 1.889774e+002
3.475637e+002, 1.894476e+002
3.480458e+002, 1.899488e+002
3.485280e+002, 1.904931e+002
3.490101e+002, 1.906875e+002
3.494922e+002, 1.902269e+002
3.499743e+002, 1.897876e+002
3.504564e+002, 1.896138e+002
3.509385e+002, 1.896897e+002
3.514207e+002, 1.899760e+002
3.519028e+002, 1.904791e+002
3.523849e+002, 1.911095e+002
3.528670e+002, 1.914785e+002
3.533491e+002, 1.912414e+002
3.538312e+002, 1.911716e+002
3.543134e+002, 1.915548e+002
3.547955e+002, 1.920779e+002
3.552776e+002, 1.923324e+002
3.557597e+002, 1.921833e+002
3.562418e+002, 1.918800e+002
3.567239e+002, 1.918717e+002
3.572061e+002, 1.925274e+002
3.576882e+002, 1.926973e+002
3.581703e+002, 1.920461e+002
3.586524e+002, 1.912079e+002
3.591345e+002, 1.905327e+002
3.596166e+002, 1.900933e+002
3.600987e+002, 1.898898e+002
3.605808e+002, 1.899881e+002
3.610630e+002, 1.904742e+002
3.615451e+002, 1.903972e+002
3.620272e+002, 1.892108e+002
3.625093e+002, 1.880677e+002
3.629914e+002, 1.874036e+002
3.634735e+002, 1.870597e+002
3.639557e+002, 1.866956e+002
3.644378e+002, 1.861014e+002
3.649199e+002, 1.853349e+002
3.654020e+002, 1.846468e+002
3.658841e+002, 1.841885e+002
3.663662e+002, 1.835965e+002
3.668484e+002, 1.825531e+002
3.673305e+002, 1.815037e+002
3.678126e+002, 1.810352e+002
3.682947e+002, 1.812918e+002
3.687768e+002, 1.816904e+002
3.692589e+002, 1.812219e+002
3.697411e+002, 1.793978e+002
3.702232e+002, 1.780416e+002
3.707053e+002, 1.776540e+002
3.711874e+002, 1.773455e+002
3.716695e+002, 1.766062e+002
3.721516e+002, 1.754689e+002
3.726338e+002, 1.742938e+002
3.731159e+002, 1.734046e+002
3.735980e+002, 1.727935e+002
3.740801e+002, 1.721542e+002
3.745622e+002, 1.714037e+002
3.750443e+002, 1.707304e+002
3.755265e+002, 1.702857e+002
3.760086e+002, 1.699329e+002
3.764907e+002, 1.694661e+002
3.769728e+002, 1.687756e+002
3.774549e+002, 1.679307e+002
3.779370e+002, 1.670293e+002
3.784192e+002, 1.659651e+002
3.789013e+002, 1.651543e+002
3.793834e+002, 1.648540e+002
3.798655e+002, 1.647605e+002
3.803476e+002, 1.647330e+002
3.808297e+002, 1.647374e+002
3.813119e+002, 1.645975e+002
3.817940e+002, 1.640333e+002
3.822761e+002, 1.630562e+002
3.827582e+002, 1.622665e+002
3.832403e+002, 1.617727e+002
3.837224e+002, 1.614653e+002
3.842046e+002, 1.613511e+002
3.846867e+002, 1.613616e+002
3.851688e+002, 1.612531e+002
3.856509e+002, 1.608151e+002
3.861330e+002, 1.601821e+002
3.866151e+002, 1.596597e+002
3.870973e+002, 1.592734e+002
3.875794e+002, 1.589072e+002
3.880615e+002, 1.583567e+002
3.885436e+002, 1.578235e+002
3.890257e+002, 1.576447e+002
3.895078e+002, 1.580125e+002
3.899900e+002, 1.585092e+002
3.904721e+002, 1.588028e+002
3.909542e+002, 1.589066e+002
3.914363e+002, 1.589288e+002
3.919184e+002, 1.589380e+002
3.924005e+002, 1.588288e+002
3.928827e+002, 1.583674e+002
3.933648e+002, 1.575101e+002
3.938469e+002, 1.568778e+002
3.943290e+002, 1.568791e+002
3.948111e+002, 1.572047e+002
3.952932e+002, 1.574067e+002
3.957754e+002, 1.574286e+002
3.962575e+002, 1.572652e+002
3.967396e+002, 1.567780e+002
3.972217e+002, 1.560323e+002
3.977038e+002, 1.556895e+002
3.981859e+002, 1.561489e+002
3.986681e+002, 1.566917e+002
3.991501e+002, 1.568272e+002
3.996323e+002, 1.566367e+002
4.001144e+002, 1.564383e+002
4.005965e+002, 1.563753e+002
4.010786e+002, 1.564316e+002
4.015607e+002, 1.565751e+002
4.020428e+002, 1.568145e+002
4.025250e+002, 1.571059e+002
4.030071e+002, 1.576134e+002
4.034892e+002, 1.580904e+002
4.039713e+002, 1.581683e+002
4.044534e+002, 1.577864e+002
4.049355e+002, 1.573000e+002
4.054177e+002, 1.571216e+002
4.058998e+002, 1.573120e+002
4.063819e+002, 1.575478e+002
4.068640e+002, 1.579339e+002
4.073461e+002, 1.582601e+002
4.078282e+002, 1.582506e+002
4.083104e+002, 1.580888e+002
4.087925e+002, 1.582846e+002
4.092746e+002, 1.592097e+002
4.097567e+002, 1.606248e+002
4.102388e+002, 1.614302e+002
4.107209e+002, 1.608501e+002
4.112031e+002, 1.606463e+002
4.116852e+002, 1.612670e+002
4.121673e+002, 1.621547e+002
4.126494e+002, 1.627191e+002
4.131315e+002, 1.628327e+002
4.136136e+002, 1.628739e+002
4.140958e+002, 1.633757e+002
4.145779e+002, 1.644790e+002
4.150600e+002, 1.654893e+002
4.155421e+002, 1.665585e+002
4.160242e+002, 1.673813e+002
4.165063e+002, 1.676208e+002
4.169885e+002, 1.675048e+002
4.174706e+002, 1.675540e+002
4.179527e+002, 1.681172e+002
4.184348e+002, 1.690751e+002
4.189169e+002, 1.700636e+002
4.193990e+002, 1.711525e+002
4.198812e+002, 1.721013e+002
4.203633e+002, 1.727185e+002
4.208454e+002, 1.732294e+002
4.213275e+002, 1.738683e+002
4.218096e+002, 1.746955e+002
4.222917e+002, 1.754862e+002
4.227739e+002, 1.759417e+002
4.232560e+002, 1.760822e+002
4.237381e+002, 1.763497e+002
4.242202e+002, 1.767599e+002
4.247023e+002, 1.773912e+002
4.251844e+002, 1.784040e+002
4.256666e+002, 1.796908e+002
4.261487e+002, 1.808688e+002
4.266308e+002, 1.817778e+002
4.271129e+002, 1.824871e+002
4.275950e+002, 1.830903e+002
4.280771e+002, 1.835934e+002
4.285593e+002, 1.839513e+002
4.290414e+002, 1.840195e+002
4.295235e+002, 1.839880e+002
4.300056e+002, 1.843059e+002
4.304877e+002, 1.852073e+002
4.309698e+002, 1.859317e+002
4.314520e+002, 1.860731e+002
4.319341e+002, 1.857771e+002
4.324162e+002, 1.852358e+002
4.328983e+002, 1.844576e+002
4.333804e+002, 1.837354e+002
4.338625e+002, 1.834114e+002
4.343447e+002, 1.835360e+002
4.348268e+002, 1.838036e+002
4.353089e+002, 1.845993e+002
4.357910e+002, 1.851988e+002
4.362731e+002, 1.850874e+002
4.367552e+002, 1.843469e+002
4.372374e+002, 1.832638e+002
4.377195e+002, 1.819389e+002
4.382016e+002, 1.805283e+002
4.386837e+002, 1.796574e+002
4.391658e+002, 1.800193e+002
4.396479e+002, 1.800356e+002
4.401301e+002, 1.793035e+002
4.406122e+002, 1.783516e+002
4.410943e+002, 1.777127e+002
4.415764e+002, 1.774764e+002
4.420585e+002, 1.773281e+002
4.425406e+002, 1.769102e+002
4.430227e+002, 1.761856e+002
4.435049e+002, 1.754612e+002
4.439870e+002, 1.747200e+002
4.444691e+002, 1.739998e+002
4.449512e+002, 1.732718e+002
4.454333e+002, 1.725862e+002
4.459154e+002, 1.720299e+002
4.463976e+002, 1.716636e+002
4.468797e+002, 1.713960e+002
4.473618e+002, 1.709929e+002
4.478439e+002, 1.703498e+002
4.483260e+002, 1.698837e+002
4.488081e+002, 1.699124e+002
4.492903e+002, 1.699634e+002
4.497724e+002, 1.697037e+002
4.502545e+002, 1.691348e+002
4.507366e+002, 1.685308e+002
4.512187e+002, 1.680535e+002
4.517008e+002, 1.677048e+002
4.521830e+002, 1.675480e+002
4.526651e+002, 1.676735e+002
4.531472e+002, 1.677669e+002
4.536293e+002, 1.675582e+002
4.541114e+002, 1.672192e+002
4.545935e+002, 1.669943e+002
4.550757e+002, 1.669567e+002
4.555578e+002, 1.670004e+002
4.560399e+002, 1.671190e+002
4.565220e+002, 1.672667e+002
4.570041e+002, 1.672106e+002
4.574862e+002, 1.668221e+002
4.579684e+002, 1.663405e+002
4.584505e+002, 1.660368e+002
4.589326e+002, 1.658940e+002
4.594147e+002, 1.659705e+002
4.598968e+002, 1.664941e+002
4.603789e+002, 1.670874e+002
4.608611e+002, 1.674620e+002
4.613432e+002, 1.676042e+002
4.618253e+002, 1.675469e+002
4.623074e+002, 1.672649e+002
4.627895e+002, 1.668447e+002
4.632716e+002, 1.666440e+002
4.637538e+002, 1.667573e+002
4.642359e+002, 1.669488e+002
4.647180e+002, 1.672282e+002
4.652001e+002, 1.675550e+002
4.656822e+002, 1.678574e+002
4.661643e+002, 1.681373e+002
4.666465e+002, 1.685066e+002
4.671286e+002, 1.691254e+002
4.676107e+002, 1.700538e+002
4.680928e+002, 1.706834e+002
4.685749e+002, 1.706820e+002
4.690570e+002, 1.707306e+002
4.695392e+002, 1.710679e+002
4.700213e+002, 1.715530e+002
4.705034e+002, 1.719411e+002
4.709855e+002, 1.721202e+002
4.714676e+002, 1.722375e+002
4.719497e+002, 1.726187e+002
4.724319e+002, 1.733876e+002
4.729140e+002, 1.738685e+002
4.733961e+002, 1.735277e+002
4.738782e+002, 1.732486e+002
4.743603e+002, 1.737305e+002
4.748424e+002, 1.747877e+002
4.753246e+002, 1.755882e+002
4.758067e+002, 1.755098e+002
4.762888e+002, 1.748862e+002
4.767709e+002, 1.743673e+002
4.772530e+002, 1.739318e+002
4.777351e+002, 1.737662e+002
4.782173e+002, 1.741496e+002
4.786994e+002, 1.747603e+002
4.791815e+002, 1.750848e+002
4.796636e+002, 1.750528e+002
4.801457e+002, 1.749190e+002
4.806278e+002, 1.747885e+002
4.811100e+002, 1.746462e+002
4.815920e+002, 1.744954e+002
4.820742e+002, 1.743413e+002
4.825563e+002, 1.740480e+002
4.830384e+002, 1.733897e+002
4.835205e+002, 1.723926e+002
4.840026e+002, 1.718936e+002
4.844847e+002, 1.723816e+002
4.849669e+002, 1.728047e+002
4.854490e+002, 1.727737e+002
4.859311e+002, 1.723777e+002
4.864132e+002, 1.717071e+002
4.868953e+002, 1.707994e+002
4.873774e+002, 1.698894e+002
4.878596e+002, 1.694106e+002
4.883417e+002, 1.696673e+002
4.888238e+002, 1.695024e+002
4.893059e+002, 1.684638e+002
4.897880e+002, 1.675088e+002
4.902701e+002, 1.672325e+002
4.907523e+002, 1.674161e+002
4.912344e+002, 1.674687e+002
4.917165e+002, 1.670046e+002
4.921986e+002, 1.662657e+002
4.926807e+002, 1.659981e+002
4.931628e+002, 1.665103e+002
4.936450e+002, 1.666428e+002
4.941271e+002, 1.657567e+002
4.946092e+002, 1.646950e+002
4.950913e+002, 1.640276e+002
4.955734e+002, 1.637709e+002
4.960555e+002, 1.635452e+002
4.965377e+002, 1.630107e+002
4.970198e+002, 1.623174e+002
4.975019e+002, 1.619494e+002
4.979840e+002, 1.620062e+002
4.984661e+002, 1.619599e+002
4.989482e+002, 1.615150e+002
4.994304e+002, 1.607678e+002
4.999125e+002, 1.599092e+002
5.003946e+002, 1.588890e+002
5.008767e+002, 1.578989e+002
5.013588e+002, 1.569724e+002
5.018409e+002, 1.561503e+002
5.023231e+002, 1.555444e+002
5.028052e+002, 1.551825e+002
5.032873e+002, 1.548498e+002
5.037694e+002, 1.543513e+002
5.042515e+002, 1.536758e+002
5.047336e+002, 1.529517e+002
5.052158e+002, 1.518349e+002
5.056979e+002, 1.510555e+002
5.061800e+002, 1.512006e+002
5.066621e+002, 1.517514e+002
5.071442e+002, 1.519137e+002
5.076263e+002, 1.514059e+002
5.081085e+002, 1.505386e+002
5.085906e+002, 1.497722e+002
5.090727e+002, 1.491194e+002
5.095548e+002, 1.485166e+002
5.100369e+002, 1.479500e+002
5.105190e+002, 1.474483e+002
5.110012e+002, 1.470647e+002
5.114833e+002, 1.467468e+002
5.119654e+002, 1.464006e+002
5.124475e+002, 1.459778e+002
5.129296e+002, 1.455068e+002
5.134117e+002, 1.450476e+002
5.138939e+002, 1.446086e+002
5.143760e+002, 1.440962e+002
5.148581e+002, 1.433904e+002
5.153402e+002, 1.427050e+002
5.158223e+002, 1.422052e+002
5.163044e+002, 1.418814e+002
5.167866e+002, 1.416534e+002
5.172687e+002, 1.415530e+002
5.177508e+002, 1.414918e+002
5.182329e+002, 1.413443e+002
5.187150e+002, 1.411158e+002
5.191971e+002, 1.409051e+002
5.196793e+002, 1.407679e+002
5.201614e+002, 1.406649e+002
5.206435e+002, 1.405249e+002
5.211256e+002, 1.403881e+002
5.216077e+002, 1.401131e+002
5.220898e+002, 1.395172e+002
5.225720e+002, 1.388846e+002
5.230541e+002, 1.384198e+002
5.235362e+002, 1.381596e+002
5.240183e+002, 1.381343e+002
5.245004e+002, 1.384068e+002
5.249825e+002, 1.388786e+002
5.254647e+002, 1.390341e+002
5.259468e+002, 1.386081e+002
5.264289e+002, 1.382285e+002
5.269110e+002, 1.379521e+002
5.273931e+002, 1.377391e+002
5.278752e+002, 1.374815e+002
5.283574e+002, 1.372154e+002
5.288395e+002, 1.371829e+002
5.293216e+002, 1.377705e+002
5.298037e+002, 1.388047e+002
5.302858e+002, 1.390954e+002
5.307679e+002, 1.381787e+002
5.312501e+002, 1.375955e+002
5.317322e+002, 1.384609e+002
5.322143e+002, 1.397845e+002
5.326964e+002, 1.405376e+002
5.331785e+002, 1.405073e+002
5.336606e+002, 1.403296e+002
5.341428e+002, 1.403116e+002
5.346249e+002, 1.404636e+002
5.351070e+002, 1.408947e+002
5.355891e+002, 1.416454e+002
5.360712e+002, 1.423023e+002
5.365533e+002, 1.424692e+002
5.370355e+002, 1.422661e+002
5.375176e+002, 1.424417e+002
5.379997e+002, 1.434468e+002
5.384818e+002, 1.442450e+002
5.389639e+002, 1.442689e+002
5.394460e+002, 1.440538e+002
5.399282e+002, 1.443407e+002
5.404103e+002, 1.452433e+002
5.408924e+002, 1.462570e+002
5.413745e+002, 1.468449e+002
5.418566e+002, 1.469938e+002
5.423387e+002, 1.471782e+002
5.428209e+002, 1.473288e+002
5.433029e+002, 1.476055e+002
5.437850e+002, 1.481335e+002
5.442672e+002, 1.487581e+002
5.447493e+002, 1.493298e+002
5.452314e+002, 1.498038e+002
5.457135e+002, 1.501733e+002
5.461956e+002, 1.503639e+002
5.466777e+002, 1.504004e+002
5.471599e+002, 1.505945e+002
5.476420e+002, 1.510553e+002
5.481241e+002, 1.514767e+002
5.486062e+002, 1.515889e+002
5.490883e+002, 1.515521e+002
5.495704e+002, 1.516297e+002
5.500526e+002, 1.519131e+002
5.505347e+002, 1.522125e+002
5.510168e+002, 1.523697e+002
5.514989e+002, 1.524649e+002
5.519810e+002, 1.527079e+002
5.524631e+002, 1.531471e+002
5.529453e+002, 1.535473e+002
5.534274e+002, 1.536491e+002
5.539095e+002, 1.534512e+002
5.543916e+002, 1.535083e+002
5.548737e+002, 1.540119e+002
5.553558e+002, 1.544994e+002
5.558380e+002, 1.548218e+002
5.563201e+002, 1.550697e+002
5.568022e+002, 1.553311e+002
5.572843e+002, 1.556406e+002
5.577664e+002, 1.560272e+002
5.582485e+002, 1.565791e+002
5.587307e+002, 1.573093e+002
5.592128e+002, 1.577306e+002
5.596949e+002, 1.574338e+002
5.601770e+002, 1.574220e+002
5.606591e+002, 1.583429e+002
5.611412e+002, 1.595617e+002
5.616234e+002, 1.602762e+002
5.621055e+002, 1.602541e+002
5.625876e+002, 1.600453e+002
5.630697e+002, 1.598989e+002
5.635518e+002, 1.599375e+002
5.640339e+002, 1.607881e+002
5.645161e+002, 1.627280e+002
5.649982e+002, 1.644162e+002
5.654803e+002, 1.646634e+002
5.659624e+002, 1.638567e+002
5.664445e+002, 1.638154e+002
5.669266e+002, 1.650319e+002
5.674088e+002, 1.663030e+002
5.678909e+002, 1.672829e+002
5.683730e+002, 1.680606e+002
5.688551e+002, 1.687091e+002
5.693372e+002, 1.692598e+002
5.698193e+002, 1.698114e+002
5.703015e+002, 1.704600e+002
5.707836e+002, 1.711971e+002
5.712657e+002, 1.718163e+002
5.717478e+002, 1.723672e+002
5.722299e+002, 1.727176e+002
5.727120e+002, 1.726794e+002
5.731942e+002, 1.725470e+002
5.736763e+002, 1.726077e+002
5.741584e+002, 1.728961e+002
5.746405e+002, 1.732184e+002
5.751226e+002, 1.733284e+002
5.756047e+002, 1.733218e+002
5.760869e+002, 1.736674e+002
5.765690e+002, 1.744716e+002
5.770511e+002, 1.751728e+002
5.775332e+002, 1.754156e+002
5.780153e+002, 1.754427e+002
5.784974e+002, 1.757127e+002
5.789796e+002, 1.763443e+002
5.794617e+002, 1.767125e+002
5.799438e+002, 1.763184e+002
5.804259e+002, 1.756944e+002
5.809080e+002, 1.754204e+002
5.813901e+002, 1.755325e+002
5.818723e+002, 1.758601e+002
5.823544e+002, 1.763327e+002
5.828365e+002, 1.768725e+002
5.833186e+002, 1.772192e+002
5.838007e+002, 1.773486e+002
5.842828e+002, 1.773051e+002
5.847650e+002, 1.770450e+002
5.852471e+002, 1.766634e+002
5.857292e+002, 1.761700e+002
5.862113e+002, 1.756078e+002
5.866934e+002, 1.750704e+002
5.871755e+002, 1.746251e+002
5.876577e+002, 1.742245e+002
5.881398e+002, 1.737935e+002
5.886219e+002, 1.733483e+002
5.891040e+002, 1.727293e+002
5.895861e+002, 1.717122e+002
5.900682e+002, 1.707104e+002
5.905504e+002, 1.703324e+002
5.910325e+002, 1.704240e+002
5.915146e+002, 1.699531e+002
5.919967e+002, 1.682216e+002
5.924788e+002, 1.661304e+002
5.929609e+002, 1.644424e+002
5.934431e+002, 1.630435e+002
5.939252e+002, 1.615336e+002
5.944073e+002, 1.597681e+002
5.948894e+002, 1.579052e+002
5.953715e+002, 1.561585e+002
5.958536e+002, 1.545572e+002
5.963358e+002, 1.529286e+002
5.968179e+002, 1.511817e+002
5.973000e+002, 1.495135e+002
5.977821e+002, 1.480490e+002
5.982642e+002, 1.466797e+002
5.987463e+002, 1.452251e+002
5.992285e+002, 1.436245e+002
5.997106e+002, 1.420233e+002
6.001927e+002, 1.405920e+002
6.006748e+002, 1.393208e+002
6.011569e+002, 1.380723e+002
6.016390e+002, 1.367828e+002
6.021212e+002, 1.356478e+002
6.026033e+002, 1.348870e+002
6.030854e+002, 1.343247e+002
6.035675e+002, 1.337219e+002
6.040496e+002, 1.330358e+002
6.045317e+002, 1.323443e+002
6.050139e+002, 1.316530e+002
6.054960e+002, 1.309910e+002
6.059781e+002, 1.304910e+002
6.064602e+002, 1.301311e+002
6.069423e+002, 1.295473e+002
6.074244e+002, 1.284068e+002
6.079066e+002, 1.269161e+002
6.083887e+002, 1.260070e+002
6.088708e+002, 1.262559e+002
6.093529e+002, 1.262882e+002
6.098350e+002, 1.258641e+002
6.103171e+002, 1.253681e+002
6.107993e+002, 1.250632e+002
6.112814e+002, 1.249411e+002
6.117635e+002, 1.248685e+002
6.122456e+002, 1.247843e+002
6.127277e+002, 1.246592e+002
6.132098e+002, 1.243459e+002
6.136920e+002, 1.238020e+002
6.141741e+002, 1.235962e+002
6.146562e+002, 1.240990e+002
6.151383e+002, 1.246766e+002
6.156204e+002, 1.245888e+002
6.161025e+002, 1.239588e+002
6.165847e+002, 1.235239e+002
6.170668e+002, 1.236352e+002
6.175489e+002, 1.237854e+002
6.180310e+002, 1.235735e+002
6.185131e+002, 1.231791e+002
6.189952e+002, 1.230071e+002
6.194774e+002, 1.231712e+002
6.199595e+002, 1.234086e+002
6.204416e+002, 1.233891e+002
6.209237e+002, 1.230835e+002
6.214058e+002, 1.229748e+002
6.218879e+002, 1.232460e+002
6.223701e+002, 1.234984e+002
6.228522e+002, 1.237694e+002
6.233343e+002, 1.239154e+002
6.238164e+002, 1.236780e+002
6.242985e+002, 1.230524e+002
6.247806e+002, 1.225100e+002
6.252628e+002, 1.225017e+002
6.257448e+002, 1.228597e+002
6.262269e+002, 1.231739e+002
6.267090e+002, 1.234416e+002
6.271912e+002, 1.235879e+002
6.276733e+002, 1.235419e+002
6.281554e+002, 1.233908e+002
6.286375e+002, 1.233306e+002
6.291196e+002, 1.234259e+002
6.296017e+002, 1.233123e+002
6.300839e+002, 1.226983e+002
6.305660e+002, 1.220700e+002
6.310481e+002, 1.218050e+002
6.315302e+002, 1.217971e+002
6.320123e+002, 1.217230e+002
6.324944e+002, 1.214344e+002
6.329766e+002, 1.210950e+002
6.334587e+002, 1.210202e+002
6.339408e+002, 1.212922e+002
6.344229e+002, 1.214083e+002
6.349050e+002, 1.213655e+002
6.353871e+002, 1.211488e+002
6.358693e+002, 1.206241e+002
6.363514e+002, 1.199836e+002
6.368335e+002, 1.195140e+002
6.373156e+002, 1.192901e+002
6.377977e+002, 1.192155e+002
6.382798e+002, 1.193320e+002
6.387620e+002, 1.195184e+002
6.392441e+002, 1.195671e+002
6.397262e+002, 1.194510e+002
6.402083e+002, 1.191567e+002
6.406904e+002, 1.186370e+002
6.411725e+002, 1.179764e+002
6.416547e+002, 1.174536e+002
6.421368e+002, 1.172602e+002
6.426189e+002, 1.169235e+002
6.431010e+002, 1.163311e+002
6.435831e+002, 1.156964e+002
6.440652e+002, 1.151052e+002
6.445474e+002, 1.145871e+002
6.450295e+002, 1.141710e+002
6.455116e+002, 1.138798e+002
6.459937e+002, 1.136716e+002
6.464758e+002, 1.135283e+002
6.469579e+002, 1.134483e+002
6.474401e+002, 1.131797e+002
6.479222e+002, 1.125603e+002
6.484043e+002, 1.120177e+002
6.488864e+002, 1.119765e+002
6.493685e+002, 1.122781e+002
6.498506e+002, 1.124346e+002
6.503328e+002, 1.124518e+002
6.508149e+002, 1.122570e+002
6.512970e+002, 1.115542e+002
6.517791e+002, 1.107707e+002
6.522612e+002, 1.104880e+002
6.527433e+002, 1.107142e+002
6.532255e+002, 1.110288e+002
6.537076e+002, 1.111391e+002
6.541897e+002, 1.110559e+002
6.546718e+002, 1.107756e+002
6.551539e+002, 1.101281e+002
6.556360e+002, 1.096968e+002
6.561182e+002, 1.098512e+002
6.566003e+002, 1.099921e+002
6.570824e+002, 1.096940e+002
6.575645e+002, 1.090976e+002
6.580466e+002, 1.086703e+002
6.585287e+002, 1.086036e+002
6.590109e+002, 1.087399e+002
6.594930e+002, 1.091116e+002
6.599751e+002, 1.095617e+002
6.604572e+002, 1.095738e+002
6.609393e+002, 1.090248e+002
6.614214e+002, 1.083968e+002
6.619036e+002, 1.080943e+002
6.623857e+002, 1.080974e+002
6.628678e+002, 1.081880e+002
6.633499e+002, 1.086325e+002
6.638320e+002, 1.088094e+002
6.643141e+002, 1.084738e+002
6.647963e+002, 1.079999e+002
6.652784e+002, 1.076444e+002
6.657605e+002, 1.074327e+002
6.662426e+002, 1.072950e+002
6.667247e+002, 1.071938e+002
6.672068e+002, 1.071314e+002
6.676890e+002, 1.071503e+002
6.681711e+002, 1.072453e+002
6.686532e+002, 1.071972e+002
6.691353e+002, 1.068926e+002
6.696174e+002, 1.065917e+002
6.700995e+002, 1.065714e+002
6.705817e+002, 1.068010e+002
6.710638e+002, 1.069325e+002
6.715459e+002, 1.068431e+002
6.720280e+002, 1.067983e+002
6.725101e+002, 1.070238e+002
6.729922e+002, 1.072509e+002
6.734744e+002, 1.071184e+002
6.739565e+002, 1.066415e+002
6.744386e+002, 1.061479e+002
6.749207e+002, 1.058648e+002
6.754028e+002, 1.057848e+002
6.758849e+002, 1.059622e+002
6.763671e+002, 1.065215e+002
6.768492e+002, 1.067628e+002
6.773313e+002, 1.062906e+002
6.778134e+002, 1.057520e+002
6.782955e+002, 1.057340e+002
6.787776e+002, 1.060891e+002
6.792598e+002, 1.062874e+002
6.797419e+002, 1.061180e+002
6.802240e+002, 1.058806e+002
6.807061e+002, 1.057415e+002
6.811882e+002, 1.056524e+002
6.816703e+002, 1.055390e+002
6.821525e+002, 1.053883e+002
6.826346e+002, 1.052276e+002
6.831167e+002, 1.050878e+002
6.835988e+002, 1.049462e+002
6.840809e+002, 1.046535e+002
6.845630e+002, 1.039962e+002
6.850452e+002, 1.036569e+002
6.855273e+002, 1.040523e+002
6.860094e+002, 1.045057e+002
6.864915e+002, 1.045892e+002
6.869736e+002, 1.044025e+002
6.874557e+002, 1.043245e+002
6.879379e+002, 1.046315e+002
6.884200e+002, 1.048496e+002
6.889021e+002, 1.043710e+002
6.893842e+002, 1.035116e+002
6.898663e+002, 1.030413e+002
6.903484e+002, 1.030921e+002
6.908306e+002, 1.032857e+002
6.913127e+002, 1.033391e+002
6.917948e+002, 1.032774e+002
6.922769e+002, 1.032240e+002
6.927590e+002, 1.031415e+002
6.932411e+002, 1.031324e+002
6.937233e+002, 1.033370e+002
6.942054e+002, 1.034896e+002
6.946875e+002, 1.033664e+002
6.951696e+002, 1.030618e+002
6.956517e+002, 1.028315e+002
6.961339e+002, 1.027917e+002
6.966160e+002, 1.028529e+002
6.970981e+002, 1.029800e+002
6.975802e+002, 1.031291e+002
6.980623e+002, 1.031143e+002
6.985444e+002, 1.028966e+002
6.990266e+002, 1.026700e+002
6.995087e+002, 1.025603e+002
6.999908e+002, 1.025520e+002
7.004729e+002, 1.025932e+002
7.009550e+002, 1.029309e+002
7.014371e+002, 1.029268e+002
7.019193e+002, 1.021170e+002
7.024014e+002, 1.013845e+002
7.028835e+002, 1.013820e+002
7.033656e+002, 1.018667e+002
7.038477e+002, 1.022531e+002
7.043298e+002, 1.022897e+002
7.048120e+002, 1.021556e+002
7.052941e+002, 1.020301e+002
7.057762e+002, 1.019170e+002
7.062583e+002, 1.018382e+002
7.067404e+002, 1.018005e+002
7.072225e+002, 1.017730e+002
7.077046e+002, 1.017576e+002
7.081867e+002, 1.017248e+002
7.086688e+002, 1.015778e+002
7.091509e+002, 1.012073e+002
7.096331e+002, 1.010060e+002
7.101152e+002, 1.011675e+002
7.105973e+002, 1.013392e+002
7.110794e+002, 1.012776e+002
7.115615e+002, 1.010848e+002
7.120436e+002, 1.009697e+002
7.125258e+002, 1.010064e+002
7.130079e+002, 1.010942e+002
7.134900e+002, 1.011399e+002
7.139721e+002, 1.011396e+002
7.144542e+002, 1.010704e+002
7.149363e+002, 1.009292e+002
7.154185e+002, 1.007182e+002
7.159006e+002, 1.003554e+002
7.163827e+002, 1.000111e+002
7.168648e+002, 1.000511e+002
7.173469e+002, 1.005791e+002
7.178290e+002, 1.008324e+002
7.183112e+002, 1.005643e+002
7.187933e+002, 1.002033e+002
7.192754e+002, 9.989898e+001
7.197575e+002, 9.966320e+001
7.202396e+002, 9.947684e+001
7.207217e+002, 9.934226e+001
7.212039e+002, 9.931293e+001
7.216860e+002, 9.951906e+001
7.221681e+002, 9.985601e+001
7.226502e+002, 9.986415e+001
7.231323e+002, 9.949866e+001
7.236144e+002, 9.916686e+001
7.240966e+002, 9.895824e+001
7.245787e+002, 9.889694e+001
7.250608e+002, 9.912521e+001
7.255429e+002, 9.963310e+001
7.260250e+002, 9.979602e+001
7.265071e+002, 9.924369e+001
7.269893e+002, 9.874820e+001
7.274714e+002, 9.870534e+001
7.279535e+002, 9.879648e+001
7.284356e+002, 9.856294e+001
7.289177e+002, 9.803151e+001
7.293998e+002, 9.769070e+001
7.298820e+002, 9.794521e+001
7.303641e+002, 9.853523e+001
7.308462e+002, 9.889078e+001
7.313283e+002, 9.900629e+001
7.318104e+002, 9.898382e+001
7.322925e+002, 9.879008e+001
7.327747e+002, 9.858260e+001
7.332568e+002, 9.850145e+001
7.337389e+002, 9.851810e+001
7.342210e+002, 9.847428e+001
7.347031e+002, 9.828746e+001
7.351852e+002, 9.816674e+001
7.356674e+002, 9.831004e+001
7.361495e+002, 9.840919e+001
7.366316e+002, 9.805895e+001
7.371137e+002, 9.744027e+001
7.375958e+002, 9.713102e+001
7.380779e+002, 9.743891e+001
7.385601e+002, 9.794490e+001
7.390422e+002, 9.799944e+001
7.395243e+002, 9.765488e+001
7.400064e+002, 9.739345e+001
7.404885e+002, 9.724034e+001
7.409706e+002, 9.725246e+001
7.414528e+002, 9.757406e+001
7.419349e+002, 9.800278e+001
7.424170e+002, 9.804716e+001
7.428991e+002, 9.756466e+001
7.433812e+002, 9.723100e+001
7.438633e+002, 9.723609e+001
7.443455e+002, 9.726218e+001
7.448276e+002, 9.713986e+001
7.453097e+002, 9.692937e+001
7.457918e+002, 9.671690e+001
7.462739e+002, 9.653584e+001
7.467560e+002, 9.641592e+001
7.472382e+002, 9.639149e+001
7.477203e+002, 9.645067e+001
7.482024e+002, 9.651709e+001
7.486845e+002, 9.658659e+001
7.491666e+002, 9.697507e+001
7.496487e+002, 9.798502e+001
7.501309e+002, 9.885900e+001
7.506130e+002, 9.858308e+001
7.510951e+002, 9.706808e+001
7.515772e+002, 9.606442e+001
7.520593e+002, 9.571083e+001
7.525414e+002, 9.564096e+001
7.530236e+002, 9.590646e+001
7.535057e+002, 9.632417e+001
7.539878e+002, 9.683684e+001
7.544699e+002, 9.735754e+001
7.549520e+002, 9.768768e+001
7.554341e+002, 9.770418e+001
7.559163e+002, 9.749899e+001
7.563984e+002, 9.713853e+001
7.568805e+002, 9.665786e+001
7.573626e+002, 9.617452e+001
7.578447e+002, 9.569517e+001
7.583268e+002, 9.542288e+001
7.588090e+002, 9.557751e+001
7.592911e+002, 9.597484e+001
7.597732e+002, 9.597437e+001
7.602553e+002, 9.507246e+001
7.607374e+002, 9.470203e+001
7.612195e+002, 9.533678e+001
7.617017e+002, 9.596891e+001
7.621838e+002, 9.616298e+001
7.626659e+002, 9.602720e+001
7.631480e+002, 9.569260e+001
7.636301e+002, 9.518067e+001
7.641122e+002, 9.483355e+001
7.645944e+002, 9.508770e+001
7.650765e+002, 9.557102e+001
7.655586e+002, 9.567673e+001
7.660407e+002, 9.543733e+001
7.665228e+002, 9.517097e+001
7.670049e+002, 9.499788e+001
7.674871e+002, 9.484973e+001
7.679692e+002, 9.462312e+001
7.684513e+002, 9.430662e+001
7.689334e+002, 9.414098e+001
7.694155e+002, 9.413135e+001
7.698976e+002, 9.426611e+001
7.703798e+002, 9.469934e+001
7.708619e+002, 9.514503e+001
7.713440e+002, 9.536913e+001
7.718261e+002, 9.539069e+001
7.723082e+002, 9.537996e+001
7.727903e+002, 9.542003e+001
7.732725e+002, 9.541322e+001
7.737546e+002, 9.517355e+001
7.742367e+002, 9.489499e+001
7.747188e+002, 9.498663e+001
7.752009e+002, 9.541826e+001
7.756830e+002, 9.570353e+001
7.761652e+002, 9.551498e+001
7.766473e+002, 9.501225e+001
7.771294e+002, 9.449525e+001
7.776115e+002, 9.390092e+001
7.780936e+002, 9.375312e+001
7.785757e+002, 9.433827e+001
7.790579e+002, 9.490800e+001
7.795400e+002, 9.507486e+001
7.800221e+002, 9.496192e+001
7.805042e+002, 9.473802e+001
7.809863e+002, 9.436536e+001
7.814684e+002, 9.408810e+001
7.819506e+002, 9.399982e+001
7.824327e+002, 9.398965e+001
7.829148e+002, 9.404060e+001
7.833969e+002, 9.410012e+001
7.838790e+002, 9.406603e+001
7.843611e+002, 9.392693e+001
7.848433e+002, 9.380959e+001
7.853254e+002, 9.383165e+001
7.858075e+002, 9.396367e+001
7.862896e+002, 9.416051e+001
7.867717e+002, 9.442416e+001
7.872538e+002, 9.454980e+001
7.877360e+002, 9.446773e+001
7.882181e+002, 9.428537e+001
7.887002e+002, 9.406242e+001
7.891823e+002, 9.381702e+001
7.896644e+002, 9.371200e+001
7.901465e+002, 9.396939e+001
7.906286e+002, 9.404101e+001
7.911107e+002, 9.367775e+001
7.915928e+002, 9.331041e+001
7.920750e+002, 9.322379e+001
7.925571e+002, 9.335097e+001
7.930392e+002, 9.350365e+001
7.935213e+002, 9.361347e+001
7.940034e+002, 9.374875e+001
7.944855e+002, 9.408529e+001
7.949677e+002, 9.444070e+001
7.954498e+002, 9.436416e+001
7.959319e+002, 9.391373e+001
7.964140e+002, 9.364212e+001
7.968961e+002, 9.378567e+001
7.973782e+002, 9.411694e+001
7.978604e+002, 9.436175e+001
7.983425e+002, 9.452902e+001
7.988246e+002, 9.434684e+001
7.993067e+002, 9.347039e+001
7.997888e+002, 9.286616e+001
8.002709e+002, 9.294900e+001
8.007531e+002, 9.325479e+001
8.012352e+002, 9.352809e+001
8.017173e+002, 9.374098e+001
8.021994e+002, 9.382494e+001
8.026815e+002, 9.363718e+001
8.031636e+002, 9.349999e+001
8.036458e+002, 9.371812e+001
8.041279e+002, 9.399277e+001
8.046100e+002, 9.394205e+001
8.050921e+002, 9.359461e+001
8.055742e+002, 9.314632e+001
8.060563e+002, 9.268806e+001
8.065385e+002, 9.242060e+001
8.070206e+002, 9.284937e+001
8.075027e+002, 9.389396e+001
8.079848e+002, 9.434474e+001
8.084669e+002, 9.404259e+001
8.089490e+002, 9.372426e+001
8.094312e+002, 9.372652e+001
8.099133e+002, 9.386375e+001
8.103954e+002, 9.385188e+001
8.108775e+002, 9.365544e+001
8.113596e+002, 9.354353e+001
8.118417e+002, 9.364599e+001
8.123239e+002, 9.366758e+001
8.128060e+002, 9.352233e+001
8.132881e+002, 9.326519e+001
8.137702e+002, 9.282935e+001
8.142523e+002, 9.231393e+001
8.147344e+002, 9.207420e+001
8.152166e+002, 9.238548e+001
8.156987e+002, 9.282914e+001
8.161808e+002, 9.295775e+001
8.166629e+002, 9.289086e+001
8.171450e+002, 9.289905e+001
8.176271e+002, 9.300532e+001
8.181093e+002, 9.308305e+001
8.185914e+002, 9.305802e+001
8.190735e+002, 9.297099e+001
8.195556e+002, 9.287539e+001
8.200377e+002, 9.273954e+001
8.205198e+002, 9.282423e+001
8.210020e+002, 9.334288e+001
8.214841e+002, 9.367263e+001
8.219662e+002, 9.335621e+001
8.224483e+002, 9.289369e+001
8.229304e+002, 9.293389e+001
8.234125e+002, 9.345593e+001
8.238947e+002, 9.367434e+001
8.243768e+002, 9.314559e+001
8.248589e+002, 9.263144e+001
8.253410e+002, 9.249715e+001
8.258231e+002, 9.252891e+001
8.263052e+002, 9.247542e+001
8.267874e+002, 9.234019e+001
8.272695e+002, 9.231170e+001
8.277516e+002, 9.252855e+001
8.282337e+002, 9.273998e+001
8.287158e+002, 9.246509e+001
8.291979e+002, 9.186514e+001
8.296801e+002, 9.167310e+001
8.301622e+002, 9.195544e+001
8.306443e+002, 9.223887e+001
8.311264e+002, 9.230097e+001
8.316085e+002, 9.219643e+001
8.320906e+002, 9.197099e+001
8.325728e+002, 9.156234e+001
8.330549e+002, 9.149889e+001
8.335370e+002, 9.214807e+001
8.340191e+002, 9.261125e+001
8.345012e+002, 9.244749e+001
8.349833e+002, 9.221973e+001
8.354655e+002, 9.258186e+001
8.359476e+002, 9.335958e+001
8.364297e+002, 9.358474e+001
8.369118e+002, 9.252198e+001
8.373939e+002, 9.156078e+001
8.378760e+002, 9.156725e+001
8.383582e+002, 9.200765e+001
8.388403e+002, 9.241195e+001
8.393224e+002, 9.265916e+001
8.398045e+002, 9.257992e+001
8.402866e+002, 9.209171e+001
8.407687e+002, 9.156040e+001
8.412509e+002, 9.159624e+001
8.417330e+002, 9.206359e+001
8.422151e+002, 9.211345e+001
8.426972e+002, 9.170187e+001
8.431793e+002, 9.138828e+001
8.436614e+002, 9.139387e+001
8.441436e+002, 9.151105e+001
8.446257e+002, 9.148122e+001
8.451078e+002, 9.131127e+001
8.455899e+002, 9.134258e+001
8.460720e+002, 9.193592e+001
8.465541e+002, 9.219357e+001
8.470363e+002, 9.168663e+001
8.475184e+002, 9.116245e+001
8.480005e+002, 9.113989e+001
8.484826e+002, 9.145226e+001
8.489647e+002, 9.170071e+001
8.494468e+002, 9.181301e+001
8.499290e+002, 9.172791e+001
8.504111e+002, 9.114078e+001
8.508932e+002, 9.055801e+001
8.513753e+002, 9.063902e+001
8.518574e+002, 9.112403e+001
8.523395e+002, 9.131692e+001
8.528217e+002, 9.102856e+001
8.533038e+002, 9.067437e+001
8.537859e+002, 9.068320e+001
8.542680e+002, 9.092188e+001
8.547501e+002, 9.097855e+001
8.552322e+002, 9.085401e+001
8.557144e+002, 9.063969e+001
8.561965e+002, 9.031538e+001
8.566786e+002, 9.006862e+001
8.571607e+002, 9.002654e+001
8.576428e+002, 9.017982e+001
8.581249e+002, 9.053439e+001
8.586071e+002, 9.142442e+001
8.590892e+002, 9.177891e+001
8.595713e+002, 9.106176e+001
8.600534e+002, 9.044933e+001
8.605355e+002, 9.041042e+001
8.610176e+002, 9.066797e+001
8.614998e+002, 9.091812e+001
8.619819e+002, 9.111649e+001
8.624640e+002, 9.125772e+001
8.629461e+002, 9.134370e+001
8.634282e+002, 9.136964e+001
8.639103e+002, 9.133890e+001
8.643925e+002, 9.124281e+001
8.648746e+002, 9.103449e+001
8.653567e+002, 9.073972e+001
8.658388e+002, 9.049024e+001
8.663209e+002, 9.037219e+001
8.668030e+002, 9.026148e+001
8.672852e+002, 8.986132e+001
8.677673e+002, 8.927699e+001
8.682494e+002, 8.916092e+001
8.687315e+002, 8.956808e+001
8.692136e+002, 8.984642e+001
8.696957e+002, 8.971954e+001
8.701779e+002, 8.935464e+001
8.706600e+002, 8.889966e+001
8.711421e+002, 8.834807e+001
8.716242e+002, 8.838042e+001
8.721063e+002, 8.960178e+001
8.725884e+002, 9.034073e+001
8.730705e+002, 8.993465e+001
8.735526e+002, 8.932430e+001
8.740347e+002, 8.901036e+001
8.745168e+002, 8.893107e+001
8.749990e+002, 8.890211e+001
8.754811e+002, 8.890993e+001
8.759632e+002, 8.892174e+001
8.764453e+002, 8.893492e+001
8.769274e+002, 8.893969e+001
8.774095e+002, 8.898382e+001
8.778917e+002, 8.899313e+001
8.783738e+002, 8.877561e+001
8.788559e+002, 8.833334e+001
8.793380e+002, 8.799410e+001
8.798201e+002, 8.806133e+001
8.803022e+002, 8.832203e+001
8.807844e+002, 8.845332e+001
8.812665e+002, 8.847588e+001
8.817486e+002, 8.842259e+001
8.822307e+002, 8.830993e+001
8.827128e+002, 8.832845e+001
8.831949e+002, 8.862855e+001
8.836771e+002, 8.900285e+001
8.841592e+002, 8.897688e+001
8.846413e+002, 8.847398e+001
8.851234e+002, 8.815630e+001
8.856055e+002, 8.809790e+001
8.860876e+002, 8.803356e+001
8.865698e+002, 8.780313e+001
8.870519e+002, 8.759667e+001
8.875340e+002, 8.768429e+001
8.880161e+002, 8.803931e+001
8.884982e+002, 8.824632e+001
8.889803e+002, 8.818438e+001
8.894625e+002, 8.812843e+001
8.899446e+002, 8.819582e+001
8.904267e+002, 8.821826e+001
8.909088e+002, 8.806130e+001
8.913909e+002, 8.777665e+001
8.918730e+002, 8.742809e+001
8.923552e+002, 8.702094e+001
8.928373e+002, 8.680039e+001
8.933194e+002, 8.703931e+001
8.938015e+002, 8.744563e+001
8.942836e+002, 8.784753e+001
8.947657e+002, 8.813589e+001
8.952479e+002, 8.799325e+001
8.957300e+002, 8.743276e+001
8.962121e+002, 8.693649e+001
8.966942e+002, 8.686202e+001
8.971763e+002, 8.707725e+001
8.976584e+002, 8.740218e+001
8.981406e+002, 8.780850e+001
8.986227e+002, 8.802479e+001
8.991048e+002, 8.802199e+001
8.995869e+002, 8.783910e+001
9.000690e+002, 8.743923e+001
9.005511e+002, 8.702477e+001
9.010333e+002, 8.692547e+001
9.015154e+002, 8.716368e+001
9.019975e+002, 8.720671e+001
9.024796e+002, 8.698005e+001
9.029617e+002, 8.669081e+001
9.034438e+002, 8.611247e+001
9.039260e+002, 8.574716e+001
9.044081e+002, 8.615730e+001
9.048902e+002, 8.701451e+001
9.053723e+002, 8.744395e+001
9.058544e+002, 8.718940e+001
9.063365e+002, 8.697585e+001
9.068187e+002, 8.699393e+001
9.073008e+002, 8.708558e+001
9.077829e+002, 8.725088e+001
9.082650e+002, 8.738142e+001
9.087471e+002, 8.728055e+001
9.092292e+002, 8.696427e+001
9.097114e+002, 8.673146e+001
9.101935e+002, 8.680949e+001
9.106756e+002, 8.696316e+001
9.111577e+002, 8.695475e+001
9.116398e+002, 8.684949e+001
9.121219e+002, 8.670728e+001
9.126041e+002, 8.657885e+001
9.130862e+002, 8.664263e+001
9.135683e+002, 8.698390e+001
9.140504e+002, 8.740224e+001
9.145325e+002, 8.759599e+001
9.150146e+002, 8.762751e+001
9.154968e+002, 8.793070e+001
9.159789e+002, 8.852317e+001
9.164610e+002, 8.889108e+001
9.169431e+002, 8.889422e+001
9.174252e+002, 8.869437e+001
9.179073e+002, 8.837521e+001
9.183895e+002, 8.800160e+001
9.188716e+002, 8.780362e+001
9.193537e+002, 8.778068e+001
9.198358e+002, 8.794700e+001
9.203179e+002, 8.854778e+001
9.208000e+002, 8.898186e+001
9.212822e+002, 8.886699e+001
9.217643e+002, 8.855861e+001
9.222464e+002, 8.838308e+001
9.227285e+002, 8.835095e+001
9.232106e+002, 8.851311e+001
9.236927e+002, 8.911130e+001
9.241749e+002, 8.958575e+001
9.246570e+002, 8.968090e+001
9.251391e+002, 8.968167e+001
9.256212e+002, 8.978474e+001
9.261033e+002, 8.997916e+001
9.265854e+002, 9.020383e+001
9.270676e+002, 9.044230e+001
9.275497e+002, 9.068003e+001
9.280318e+002, 9.086752e+001
9.285139e+002, 9.108437e+001
9.289960e+002, 9.150370e+001
9.294781e+002, 9.198363e+001
9.299603e+002, 9.214890e+001
9.304424e+002, 9.202988e+001
9.309245e+002, 9.214319e+001
9.314066e+002, 9.284656e+001
9.318887e+002, 9.377747e+001
9.323708e+002, 9.436069e+001
9.328530e+002, 9.467394e+001
9.333351e+002, 9.506779e+001
9.338172e+002, 9.554792e+001
9.342993e+002, 9.584117e+001
9.347814e+002, 9.582144e+001
9.352635e+002, 9.581995e+001
9.357457e+002, 9.621789e+001
9.362278e+002, 9.693709e+001
9.367099e+002, 9.751917e+001
9.371920e+002, 9.793768e+001
9.376741e+002, 9.832471e+001
9.381563e+002, 9.866187e+001
9.386384e+002, 9.904372e+001
9.391205e+002, 9.952151e+001
9.396026e+002, 1.000827e+002
9.400847e+002, 1.007225e+002
9.405668e+002, 1.014608e+002
9.410490e+002, 1.021540e+002
9.415311e+002, 1.027142e+002
9.420132e+002, 1.033547e+002
9.424953e+002, 1.041557e+002
9.429774e+002, 1.050156e+002
9.434595e+002, 1.058645e+002
9.439417e+002, 1.067129e+002
9.444238e+002, 1.075579e+002
9.449059e+002, 1.083353e+002
9.453880e+002, 1.093624e+002
9.458701e+002, 1.110385e+002
9.463522e+002, 1.127045e+002
9.468344e+002, 1.136862e+002
9.473165e+002, 1.145064e+002
9.477986e+002, 1.159586e+002
9.482807e+002, 1.180503e+002
9.487628e+002, 1.201570e+002
9.492449e+002, 1.219349e+002
9.497271e+002, 1.236416e+002
9.502092e+002, 1.254286e+002
9.506913e+002, 1.273684e+002
9.511734e+002, 1.296223e+002
9.516555e+002, 1.321472e+002
9.521376e+002, 1.347548e+002
9.526198e+002, 1.373941e+002
9.531019e+002, 1.402447e+002
9.535840e+002, 1.434883e+002
9.540661e+002, 1.470830e+002
9.545482e+002, 1.510204e+002
9.550303e+002, 1.552524e+002
9.555124e+002, 1.594100e+002
9.559945e+002, 1.634650e+002
9.564766e+002, 1.676863e+002
9.569587e+002, 1.722219e+002
9.574409e+002, 1.771049e+002
9.579230e+002, 1.823735e+002
9.584051e+002, 1.880596e+002
9.588872e+002, 1.937926e+002
9.593693e+002, 1.994574e+002
9.598514e+002, 2.057868e+002
9.603336e+002, 2.130219e+002
9.608157e+002, 2.207698e+002
9.612978e+002, 2.288876e+002
9.617799e+002, 2.371207e+002
9.622620e+002, 2.447043e+002
9.627441e+002, 2.512952e+002
9.632263e+002, 2.582692e+002
9.637084e+002, 2.656844e+002
9.641905e+002, 2.733833e+002
9.646726e+002, 2.813217e+002
9.651547e+002, 2.894982e+002
9.656368e+002, 2.981624e+002
9.661190e+002, 3.071431e+002
9.666011e+002, 3.156345e+002
9.670832e+002, 3.232476e+002
9.675653e+002, 3.310125e+002
9.680474e+002, 3.393586e+002
9.685295e+002, 3.476995e+002
9.690117e+002, 3.558105e+002
9.694938e+002, 3.636246e+002
9.699759e+002, 3.711971e+002
9.704580e+002, 3.784433e+002
9.709401e+002, 3.847473e+002
9.714222e+002, 3.895169e+002
9.719044e+002, 3.937586e+002
9.723865e+002, 3.982772e+002
9.728686e+002, 4.024582e+002
9.733507e+002, 4.061355e+002
9.738328e+002, 4.087768e+002
9.743149e+002, 4.095880e+002
9.747971e+002, 4.082776e+002
9.752792e+002, 4.046195e+002
9.757613e+002, 3.978666e+002
9.762434e+002, 3.893029e+002
9.767255e+002, 3.806220e+002
9.772076e+002, 3.714576e+002
9.776898e+002, 3.607359e+002
9.781719e+002, 3.485098e+002
9.786540e+002, 3.359155e+002
9.791361e+002, 3.234235e+002
9.796182e+002, 3.110230e+002
9.801003e+002, 2.985978e+002
9.805825e+002, 2.862306e+002
9.810646e+002, 2.745687e+002
9.815467e+002, 2.635853e+002
9.820288e+002, 2.528082e+002
9.825109e+002, 2.421906e+002
9.829930e+002, 2.320952e+002
9.834752e+002, 2.228044e+002
9.839573e+002, 2.141845e+002
9.844394e+002, 2.059343e+002
9.849215e+002, 1.980630e+002
9.854036e+002, 1.910764e+002
9.858857e+002, 1.850178e+002
9.863679e+002, 1.796929e+002
9.868500e+002, 1.751449e+002
9.873321e+002, 1.709781e+002
9.878142e+002, 1.669254e+002
9.882963e+002, 1.629573e+002
9.887784e+002, 1.589434e+002
9.892606e+002, 1.547630e+002
9.897427e+002, 1.510204e+002
9.902248e+002, 1.477677e+002
9.907069e+002, 1.448574e+002
9.911890e+002, 1.423434e+002
9.916711e+002, 1.400228e+002
9.921533e+002, 1.376546e+002
9.926354e+002, 1.352917e+002
9.931175e+002, 1.332784e+002
9.935996e+002, 1.318212e+002
9.940817e+002, 1.303507e+002
9.945638e+002, 1.289999e+002
9.950460e+002, 1.274548e+002
9.955281e+002, 1.252377e+002
9.960102e+002, 1.230202e+002
9.964923e+002, 1.216466e+002
9.969744e+002, 1.210245e+002
9.974565e+002, 1.202371e+002
9.979387e+002, 1.190404e+002
9.984208e+002, 1.177948e+002
9.989029e+002, 1.164888e+002
9.993850e+002, 1.152726e+002
9.998671e+002, 1.142941e+002
1.000349e+003, 1.134492e+002
1.000831e+003, 1.126309e+002
1.001313e+003, 1.118050e+002
1.001796e+003, 1.108944e+002
1.002278e+003, 1.098104e+002
1.002760e+003, 1.087262e+002
1.003242e+003, 1.077832e+002
1.003724e+003, 1.068456e+002
1.004206e+003, 1.056184e+002
1.004688e+003, 1.043453e+002
1.005170e+003, 1.035889e+002
1.005653e+003, 1.034253e+002
1.006135e+003, 1.031622e+002
1.006617e+003, 1.022100e+002
1.007099e+003, 1.011778e+002
1.007581e+003, 1.007424e+002
1.008063e+003, 1.005225e+002
1.008545e+003, 9.988335e+001
1.009027e+003, 9.896482e+001
1.009509e+003, 9.844606e+001
1.009992e+003, 9.851650e+001
1.010474e+003, 9.839083e+001
1.010956e+003, 9.716297e+001
1.011438e+003, 9.558396e+001
1.011920e+003, 9.477541e+001
1.012402e+003, 9.450877e+001
1.012884e+003, 9.434093e+001
1.013366e+003, 9.417143e+001
1.013849e+003, 9.387644e+001
1.014331e+003, 9.340445e+001
1.014813e+003, 9.292307e+001
1.015295e+003, 9.265972e+001
1.015777e+003, 9.249391e+001
1.016259e+003, 9.207893e+001
1.016741e+003, 9.147841e+001
1.017223e+003, 9.101526e+001
1.017705e+003, 9.072673e+001
1.018188e+003, 9.041857e+001
1.018670e+003, 8.998818e+001
1.019152e+003, 8.954832e+001
1.019634e+003, 8.926128e+001
1.020116e+003, 8.909758e+001
1.020598e+003, 8.894254e+001
1.021080e+003, 8.879136e+001
1.021562e+003, 8.845014e+001
1.022044e+003, 8.787035e+001
1.022527e+003, 8.737116e+001
1.023009e+003, 8.713155e+001
1.023491e+003, 8.710574e+001
1.023973e+003, 8.730376e+001
1.024455e+003, 8.768381e+001
1.024937e+003, 8.745523e+001
1.025419e+003, 8.652444e+001
1.025901e+003, 8.579391e+001
1.026384e+003, 8.544756e+001
1.026866e+003, 8.522965e+001
1.027348e+003, 8.499044e+001
1.027830e+003, 8.476208e+001
1.028312e+003, 8.460951e+001
1.028794e+003, 8.453513e+001
1.029276e+003, 8.447476e+001
1.029758e+003, 8.447106e+001
1.030240e+003, 8.430916e+001
1.030723e+003, 8.386282e+001
1.031205e+003, 8.344961e+001
1.031687e+003, 8.326430e+001
1.032169e+003, 8.326714e+001
1.032651e+003, 8.343382e+001
1.033133e+003, 8.383616e+001
1.033615e+003, 8.374147e+001
1.034097e+003, 8.269434e+001
1.034579e+003, 8.217517e+001
1.035062e+003, 8.281019e+001
1.035544e+003, 8.350111e+001
1.036026e+003, 8.347239e+001
1.036508e+003, 8.303722e+001
1.036990e+003, 8.287063e+001
1.037472e+003, 8.305746e+001
1.037954e+003, 8.302609e+001
1.038436e+003, 8.247025e+001
1.038919e+003, 8.219433e+001
1.039401e+003, 8.263767e+001
1.039883e+003, 8.307044e+001
1.040365e+003, 8.292324e+001
1.040847e+003, 8.246893e+001
1.041329e+003, 8.231606e+001
1.041811e+003, 8.255983e+001
1.042293e+003, 8.259921e+001
1.042776e+003, 8.216373e+001
1.043258e+003, 8.188903e+001
1.043740e+003, 8.211905e+001
1.044222e+003, 8.231898e+001
1.044704e+003, 8.202188e+001
1.045186e+003, 8.149099e+001
1.045668e+003, 8.126718e+001
1.046150e+003, 8.143173e+001
1.046632e+003, 8.156662e+001
1.047115e+003, 8.153623e+001
1.047597e+003, 8.159706e+001
1.048079e+003, 8.191905e+001
1.048561e+003, 8.224644e+001
1.049043e+003, 8.236076e+001
1.049525e+003, 8.236982e+001
1.050007e+003, 8.249355e+001
1.050489e+003, 8.276374e+001
1.050971e+003, 8.304396e+001
1.051454e+003, 8.338459e+001
1.051936e+003, 8.362548e+001
1.052418e+003, 8.360059e+001
1.052900e+003, 8.357397e+001
1.053382e+003, 8.373709e+001
1.053864e+003, 8.403649e+001
1.054346e+003, 8.437730e+001
1.054828e+003, 8.474912e+001
1.055311e+003, 8.506853e+001
1.055793e+003, 8.526830e+001
1.056275e+003, 8.547421e+001
1.056757e+003, 8.567427e+001
1.057239e+003, 8.594956e+001
1.057721e+003, 8.642368e+001
1.058203e+003, 8.698775e+001
1.058685e+003, 8.745128e+001
1.059167e+003, 8.778631e+001
1.059650e+003, 8.812360e+001
1.060132e+003, 8.860360e+001
1.060614e+003, 8.896120e+001
1.061096e+003, 8.888148e+001
1.061578e+003, 8.885229e+001
1.062060e+003, 8.928963e+001
1.062542e+003, 9.001860e+001
1.063024e+003, 9.075505e+001
1.063506e+003, 9.144046e+001
1.063989e+003, 9.203807e+001
1.064471e+003, 9.237066e+001
1.064953e+003, 9.284951e+001
1.065435e+003, 9.383974e+001
1.065917e+003, 9.484618e+001
1.066399e+003, 9.554597e+001
1.066881e+003, 9.597755e+001
1.067363e+003, 9.614169e+001
1.067846e+003, 9.609672e+001
1.068328e+003, 9.620614e+001
1.068810e+003, 9.660239e+001
1.069292e+003, 9.718244e+001
1.069774e+003, 9.819206e+001
1.070256e+003, 9.907337e+001
1.070738e+003, 9.928912e+001
1.071220e+003, 9.917869e+001
1.071703e+003, 9.922070e+001
1.072185e+003, 9.947792e+001
1.072667e+003, 9.981330e+001
1.073149e+003, 1.002913e+002
1.073631e+003, 1.005753e+002
1.074113e+003, 1.002731e+002
1.074595e+003, 9.996664e+001
1.075077e+003, 1.002787e+002
1.075559e+003, 1.007187e+002
1.076042e+003, 1.004944e+002
1.076524e+003, 9.969365e+001
1.077006e+003, 9.916572e+001
1.077488e+003, 9.927105e+001
1.077970e+003, 9.944054e+001
1.078452e+003, 9.942164e+001
1.078934e+003, 9.936431e+001
1.079416e+003, 9.944201e+001
1.079898e+003, 9.949023e+001
1.080380e+003, 9.930045e+001
1.080863e+003, 9.889043e+001
1.081345e+003, 9.838862e+001
1.081827e+003, 9.781251e+001
1.082309e+003, 9.726317e+001
1.082791e+003, 9.673631e+001
1.083273e+003, 9.630331e+001
1.083755e+003, 9.614875e+001
1.084237e+003, 9.600301e+001
1.084720e+003, 9.546639e+001
1.085202e+003, 9.470367e+001
1.085684e+003, 9.422651e+001
1.086166e+003, 9.419183e+001
1.086648e+003, 9.421081e+001
1.087130e+003, 9.427013e+001
1.087612e+003, 9.415385e+001
1.088094e+003, 9.361063e+001
1.088577e+003, 9.295900e+001
1.089059e+003, 9.252142e+001
1.089541e+003, 9.220747e+001
1.090023e+003, 9.171996e+001
1.090505e+003, 9.099349e+001
1.090987e+003, 9.050337e+001
1.091469e+003, 9.061760e+001
1.091951e+003, 9.074856e+001
1.092433e+003, 9.083437e+001
1.092916e+003, 9.065850e+001
1.093398e+003, 8.984815e+001
1.093880e+003, 8.875272e+001
1.094362e+003, 8.794352e+001
1.094844e+003, 8.749609e+001
1.095326e+003, 8.712244e+001
1.095808e+003, 8.670493e+001
1.096290e+003, 8.639277e+001
1.096772e+003, 8.620602e+001
1.097255e+003, 8.617080e+001
1.097737e+003, 8.652959e+001
1.098219e+003, 8.690963e+001
1.098701e+003, 8.670058e+001
1.099183e+003, 8.597070e+001
1.099665e+003, 8.552928e+001
1.100147e+003, 8.570677e+001
1.100629e+003, 8.587784e+001
1.101112e+003, 8.596370e+001
1.101594e+003, 8.590868e+001
1.102076e+003, 8.548299e+001
1.102558e+003, 8.505608e+001
1.103040e+003, 8.517965e+001
1.103522e+003, 8.565739e+001
1.104004e+003, 8.564731e+001
1.104486e+003, 8.484261e+001
1.104969e+003, 8.414234e+001
1.105451e+003, 8.364632e+001
1.105933e+003, 8.335664e+001
1.106415e+003, 8.336086e+001
1.106897e+003, 8.348985e+001
1.107379e+003, 8.373816e+001
1.107861e+003, 8.397663e+001
1.108343e+003, 8.387465e+001
1.108825e+003, 8.332890e+001
1.109307e+003, 8.290588e+001
1.109790e+003, 8.276719e+001
1.110272e+003, 8.259405e+001
1.110754e+003, 8.225340e+001
1.111236e+003, 8.193617e+001
1.111718e+003, 8.184364e+001
1.112200e+003, 8.180711e+001
1.112682e+003, 8.150829e+001
1.113164e+003, 8.092620e+001
1.113647e+003, 8.049134e+001
1.114129e+003, 8.030220e+001
1.114611e+003, 8.009767e+001
1.115093e+003, 7.975476e+001
1.115575e+003, 7.954591e+001
1.116057e+003, 7.971791e+001
1.116539e+003, 7.995933e+001
1.117021e+003, 7.987711e+001
1.117504e+003, 7.952637e+001
1.117986e+003, 7.931335e+001
1.118468e+003, 7.925686e+001
1.118950e+003, 7.930950e+001
1.119432e+003, 7.959778e+001
1.119914e+003, 7.972404e+001
1.120396e+003, 7.945227e+001
1.120878e+003, 7.916893e+001
1.121360e+003, 7.926255e+001
1.121843e+003, 7.955391e+001
1.122325e+003, 7.946224e+001
1.122807e+003, 7.884595e+001
1.123289e+003, 7.877624e+001
1.123771e+003, 7.949898e+001
1.124253e+003, 7.989603e+001
1.124735e+003, 7.962296e+001
1.125217e+003, 7.931707e+001
1.125699e+003, 7.939890e+001
1.126182e+003, 7.965144e+001
1.126664e+003, 7.969490e+001
1.127146e+003, 7.954451e+001
1.127628e+003, 7.949043e+001
1.128110e+003, 7.954930e+001
1.128592e+003, 7.957033e+001
1.129074e+003, 7.954490e+001
1.129556e+003, 7.935506e+001
1.130039e+003, 7.890864e+001
1.130521e+003, 7.850724e+001
1.131003e+003, 7.850657e+001
1.131485e+003, 7.881210e+001
1.131967e+003, 7.913512e+001
1.132449e+003, 7.946812e+001
1.132931e+003, 7.968071e+001
1.133413e+003, 7.976675e+001
1.133896e+003, 7.970454e+001
1.134378e+003, 7.948830e+001
1.134860e+003, 7.937550e+001
1.135342e+003, 7.958939e+001
1.135824e+003, 7.990186e+001
1.136306e+003, 7.989762e+001
1.136788e+003, 7.963814e+001
1.137270e+003, 7.928484e+001
1.137752e+003, 7.888955e+001
1.138234e+003, 7.874268e+001
1.138717e+003, 7.884783e+001
1.139199e+003, 7.879214e+001
1.139681e+003, 7.836234e+001
1.140163e+003, 7.794407e+001
1.140645e+003, 7.803111e+001
1.141127e+003, 7.835537e+001
1.141609e+003, 7.835782e+001
1.142091e+003, 7.823936e+001
1.142574e+003, 7.859731e+001
1.143056e+003, 7.926450e+001
1.143538e+003, 7.943489e+001
1.144020e+003, 7.891499e+001
1.144502e+003, 7.837598e+001
1.144984e+003, 7.825305e+001
1.145466e+003, 7.839914e+001
1.145948e+003, 7.899177e+001
1.146431e+003, 7.949534e+001
1.146913e+003, 7.902017e+001
1.147395e+003, 7.803427e+001
1.147877e+003, 7.736381e+001
1.148359e+003, 7.715576e+001
1.148841e+003, 7.727766e+001
1.149323e+003, 7.773375e+001
1.149805e+003, 7.812941e+001
1.150287e+003, 7.815707e+001
1.150770e+003, 7.810219e+001
1.151252e+003, 7.826500e+001
1.151734e+003, 7.837920e+001
1.152216e+003, 7.800558e+001
1.152698e+003, 7.737914e+001
1.153180e+003, 7.709715e+001
1.153662e+003, 7.728358e+001
1.154144e+003, 7.749806e+001
1.154626e+003, 7.759937e+001
1.155109e+003, 7.769783e+001
1.155591e+003, 7.775758e+001
1.156073e+003, 7.790514e+001
1.156555e+003, 7.836877e+001
1.157037e+003, 7.887016e+001
1.157519e+003, 7.898772e+001
1.158001e+003, 7.877101e+001
1.158483e+003, 7.872659e+001
1.158966e+003, 7.903543e+001
1.159448e+003, 7.923025e+001
1.159930e+003, 7.904546e+001
1.160412e+003, 7.907397e+001
1.160894e+003, 7.968437e+001
1.161376e+003, 8.032328e+001
1.161858e+003, 8.059128e+001
1.162340e+003, 8.059101e+001
1.162822e+003, 8.049125e+001
1.163305e+003, 8.024792e+001
1.163787e+003, 8.040891e+001
1.164269e+003, 8.116434e+001
1.164751e+003, 8.175368e+001
1.165233e+003, 8.201025e+001
1.165715e+003, 8.228970e+001
1.166197e+003, 8.277091e+001
1.166679e+003, 8.332925e+001
1.167161e+003, 8.383922e+001
1.167644e+003, 8.428205e+001
1.168126e+003, 8.454412e+001
1.168608e+003, 8.461392e+001
1.169090e+003, 8.488017e+001
1.169572e+003, 8.536337e+001
1.170054e+003, 8.585165e+001
1.170536e+003, 8.628643e+001
1.171018e+003, 8.666915e+001
1.171500e+003, 8.699200e+001
1.171983e+003, 8.732865e+001
1.172465e+003, 8.784756e+001
1.172947e+003, 8.845876e+001
1.173429e+003, 8.876588e+001
1.173911e+003, 8.890301e+001
1.174393e+003, 8.954435e+001
1.174875e+003, 9.060257e+001
1.175357e+003, 9.115997e+001
1.175840e+003, 9.090559e+001
1.176322e+003, 9.051891e+001
1.176804e+003, 9.055970e+001
1.177286e+003, 9.074918e+001
1.177768e+003, 9.069017e+001
1.178250e+003, 9.059621e+001
1.178732e+003, 9.092055e+001
1.179214e+003, 9.139615e+001
1.179697e+003, 9.145892e+001
1.180179e+003, 9.107708e+001
1.180661e+003, 9.057418e+001
1.181143e+003, 9.007426e+001
1.181625e+003, 8.954801e+001
1.182107e+003, 8.899876e+001
1.182589e+003, 8.839502e+001
1.183071e+003, 8.763766e+001
1.183553e+003, 8.688956e+001
1.184036e+003, 8.633593e+001
1.184518e+003, 8.589710e+001
1.185000e+003, 8.543138e+001
1.185482e+003, 8.491142e+001
1.185964e+003, 8.427729e+001
1.186446e+003, 8.336391e+001
1.186928e+003, 8.257887e+001
1.187410e+003, 8.212815e+001
1.187892e+003, 8.164610e+001
1.188375e+003, 8.097694e+001
1.188857e+003, 8.021088e+001
1.189339e+003, 7.935545e+001
1.189821e+003, 7.849474e+001
1.190303e+003, 7.790818e+001
1.190785e+003, 7.765055e+001
1.191267e+003, 7.736358e+001
1.191749e+003, 7.710759e+001
1.192232e+003, 7.661690e+001
1.192714e+003, 7.572385e+001
1.193196e+003, 7.497846e+001
1.193678e+003, 7.469111e+001
1.194160e+003, 7.457832e+001
1.194642e+003, 7.430048e+001
1.195124e+003, 7.390405e+001
1.195606e+003, 7.356673e+001
1.196089e+003, 7.328759e+001
1.196571e+003, 7.308778e+001
1.197053e+003, 7.296066e+001
1.197535e+003, 7.270966e+001
1.198017e+003, 7.229587e+001
1.198499e+003, 7.192182e+001
1.198981e+003, 7.171305e+001
1.199463e+003, 7.161201e+001
1.199945e+003, 7.159671e+001
1.200427e+003, 7.159534e+001
1.200910e+003, 7.147094e+001
1.201392e+003, 7.124299e+001
1.201874e+003, 7.093777e+001
1.202356e+003, 7.057207e+001
1.202838e+003, 7.013009e+001
1.203320e+003, 6.963827e+001
1.203802e+003, 6.928526e+001
1.204284e+003, 6.918285e+001
1.204767e+003, 6.924305e+001
1.205249e+003, 6.968157e+001
1.205731e+003, 6.995335e+001
1.206213e+003, 6.929306e+001
1.206695e+003, 6.843350e+001
1.207177e+003, 6.835550e+001
1.207659e+003, 6.884173e+001
1.208141e+003, 6.909110e+001
1.208624e+003, 6.893558e+001
1.209106e+003, 6.875578e+001
1.209588e+003, 6.864930e+001
1.210070e+003, 6.851745e+001
1.210552e+003, 6.829581e+001
1.211034e+003, 6.809409e+001
1.211516e+003, 6.790514e+001
1.211998e+003, 6.781767e+001
1.212480e+003, 6.797826e+001
1.212963e+003, 6.830513e+001
1.213445e+003, 6.849601e+001
1.213927e+003, 6.855601e+001
1.214409e+003, 6.841285e+001
1.214891e+003, 6.796812e+001
1.215373e+003, 6.775736e+001
1.215855e+003, 6.795968e+001
1.216337e+003, 6.798142e+001
1.216819e+003, 6.746540e+001
1.217302e+003, 6.686911e+001
1.217784e+003, 6.678707e+001
1.218266e+003, 6.701136e+001
1.218748e+003, 6.686050e+001
1.219230e+003, 6.642802e+001
1.219712e+003, 6.613863e+001
1.220194e+003, 6.602364e+001
1.220676e+003, 6.615919e+001
1.221159e+003, 6.651101e+001
1.221641e+003, 6.675696e+001
1.222123e+003, 6.671909e+001
1.222605e+003, 6.665285e+001
1.223087e+003, 6.693091e+001
1.223569e+003, 6.719897e+001
1.224051e+003, 6.693949e+001
1.224533e+003, 6.650679e+001
1.225016e+003, 6.635046e+001
1.225498e+003, 6.640353e+001
1.225980e+003, 6.650047e+001
1.226462e+003, 6.657918e+001
1.226944e+003, 6.652300e+001
1.227426e+003, 6.620535e+001
1.227908e+003, 6.600405e+001
1.228390e+003, 6.624024e+001
1.228872e+003, 6.636644e+001
1.229354e+003, 6.578412e+001
1.229837e+003, 6.536524e+001
1.230319e+003, 6.623872e+001
1.230801e+003, 6.751588e+001
1.231283e+003, 6.744125e+001
1.231765e+003, 6.607420e+001
1.232247e+003, 6.551408e+001
1.232729e+003, 6.614336e+001
1.233211e+003, 6.636887e+001
1.233694e+003, 6.595978e+001
1.234176e+003, 6.577749e+001
1.234658e+003, 6.615504e+001
1.235140e+003, 6.646249e+001
1.235622e+003, 6.621420e+001
1.236104e+003, 6.575655e+001
1.236586e+003, 6.570644e+001
1.237068e+003, 6.594340e+001
1.237551e+003, 6.600042e+001
1.238033e+003, 6.588255e+001
1.238515e+003, 6.547488e+001
1.238997e+003, 6.489191e+001
1.239479e+003, 6.472256e+001
1.239961e+003, 6.508822e+001
1.240443e+003, 6.552317e+001
1.240925e+003, 6.575247e+001
1.241407e+003, 6.585025e+001
1.241890e+003, 6.588376e+001
1.242372e+003, 6.582584e+001
1.242854e+003, 6.549776e+001
1.243336e+003, 6.518245e+001
1.243818e+003, 6.535057e+001
1.244300e+003, 6.576595e+001
1.244782e+003, 6.582083e+001
1.245264e+003, 6.545112e+001
1.245746e+003, 6.524883e+001
1.246229e+003, 6.552824e+001
1.246711e+003, 6.568658e+001
1.247193e+003, 6.545309e+001
1.247675e+003, 6.531708e+001
1.248157e+003, 6.564582e+001
1.248639e+003, 6.586710e+001
1.249121e+003, 6.542741e+001
1.249603e+003, 6.477374e+001
1.250085e+003, 6.476441e+001
1.250568e+003, 6.534720e+001
1.251050e+003, 6.558099e+001
1.251532e+003, 6.542471e+001
1.252014e+003, 6.539531e+001
1.252496e+003, 6.554094e+001
1.252978e+003, 6.549928e+001
1.253460e+003, 6.516277e+001
1.253942e+003, 6.483607e+001
1.254425e+003, 6.472669e+001
1.254907e+003, 6.476562e+001
1.255389e+003, 6.495092e+001
1.255871e+003, 6.515030e+001
1.256353e+003, 6.502216e+001
1.256835e+003, 6.477345e+001
1.257317e+003, 6.484139e+001
1.257799e+003, 6.511982e+001
1.258281e+003, 6.525971e+001
1.258764e+003, 6.520113e+001
1.259246e+003, 6.511507e+001
1.259728e+003, 6.506620e+001
1.260210e+003, 6.502850e+001
1.260692e+003, 6.492007e+001
1.261174e+003, 6.491216e+001
1.261656e+003, 6.524462e+001
1.262138e+003, 6.554735e+001
1.262620e+003, 6.553254e+001
1.263103e+003, 6.530099e+001
1.263585e+003, 6.495964e+001
1.264067e+003, 6.454651e+001
1.264549e+003, 6.438946e+001
1.265031e+003, 6.456416e+001
1.265513e+003, 6.475294e+001
1.265995e+003, 6.498235e+001
1.266477e+003, 6.507018e+001
1.266960e+003, 6.495061e+001
1.267442e+003, 6.487556e+001
1.267924e+003, 6.499657e+001
1.268406e+003, 6.511910e+001
1.268888e+003, 6.498813e+001
1.269370e+003, 6.473612e+001
1.269852e+003, 6.464358e+001
1.270334e+003, 6.468523e+001
1.270817e+003, 6.490401e+001
1.271299e+003, 6.517122e+001
1.271781e+003, 6.503922e+001
1.272263e+003, 6.459928e+001
1.272745e+003, 6.454881e+001
1.273227e+003, 6.515559e+001
1.273709e+003, 6.559414e+001
1.274191e+003, 6.516129e+001
1.274673e+003, 6.473320e+001
1.275156e+003, 6.476759e+001
1.275638e+003, 6.492992e+001
1.276120e+003, 6.502605e+001
1.276602e+003, 6.510418e+001
1.277084e+003, 6.529271e+001
1.277566e+003, 6.551007e+001
1.278048e+003, 6.545394e+001
1.278530e+003, 6.506618e+001
1.279012e+003, 6.496661e+001
1.279495e+003, 6.526665e+001
1.279977e+003, 6.541431e+001
1.280459e+003, 6.530650e+001
1.280941e+003, 6.534994e+001
1.281423e+003, 6.572298e+001
1.281905e+003, 6.596970e+001
1.282387e+003, 6.570456e+001
1.282869e+003, 6.524954e+001
1.283352e+003, 6.515388e+001
1.283834e+003, 6.527213e+001
1.284316e+003, 6.528907e+001
1.284798e+003, 6.520778e+001
##END=



