##NAMES=Whiteite-(CaFeMg)
##RRUFFID=R130055
##IDEAL CHEMISTRY=CaFe^2+^Mg_2_Al_2_(PO_4_)_4_(OH)_2_&#183;8H_2_O
##LOCALITY=Tip Top mine, Custer, South Dakota, USA
##OWNER=RRUFF
##SOURCE=Thomas A. Loomis
##DESCRIPTION=Colorless to pale yellow blocky hexagonal crystals, associated with R130054, roscherite
##STATUS=The identification of this mineral has been confirmed only by single crystal X-ray diffraction.
##URL=rruff.info/R130055
8.936163e+001, 0.000000e+000
8.984375e+001, 2.358543e+002
9.032587e+001, 2.373174e+002
9.080798e+001, 2.376451e+002
9.129010e+001, 2.365347e+002
9.177222e+001, 2.346347e+002
9.225433e+001, 2.326716e+002
9.273645e+001, 2.306274e+002
9.321857e+001, 2.283762e+002
9.370068e+001, 2.257918e+002
9.418280e+001, 2.229202e+002
9.466492e+001, 2.199133e+002
9.514703e+001, 2.165284e+002
9.562915e+001, 2.131030e+002
9.611127e+001, 2.106851e+002
9.659338e+001, 2.094385e+002
9.707550e+001, 2.084564e+002
9.755762e+001, 2.064379e+002
9.803973e+001, 2.033488e+002
9.852185e+001, 2.005990e+002
9.900397e+001, 1.990491e+002
9.948608e+001, 1.987344e+002
9.996820e+001, 1.975982e+002
1.004503e+002, 1.954606e+002
1.009324e+002, 1.926788e+002
1.014146e+002, 1.898739e+002
1.018967e+002, 1.869133e+002
1.023788e+002, 1.842389e+002
1.028609e+002, 1.820520e+002
1.033430e+002, 1.804223e+002
1.038251e+002, 1.791649e+002
1.043073e+002, 1.784985e+002
1.047894e+002, 1.782370e+002
1.052715e+002, 1.774027e+002
1.057536e+002, 1.757910e+002
1.062357e+002, 1.738251e+002
1.067178e+002, 1.717185e+002
1.072000e+002, 1.690558e+002
1.076821e+002, 1.668952e+002
1.081642e+002, 1.656658e+002
1.086463e+002, 1.654827e+002
1.091284e+002, 1.646300e+002
1.096105e+002, 1.626049e+002
1.100927e+002, 1.601227e+002
1.105748e+002, 1.578712e+002
1.110569e+002, 1.559035e+002
1.115390e+002, 1.541265e+002
1.120211e+002, 1.525674e+002
1.125032e+002, 1.512754e+002
1.129854e+002, 1.500161e+002
1.134675e+002, 1.488879e+002
1.139496e+002, 1.477563e+002
1.144317e+002, 1.464077e+002
1.149138e+002, 1.441909e+002
1.153959e+002, 1.422038e+002
1.158781e+002, 1.411178e+002
1.163602e+002, 1.416949e+002
1.168423e+002, 1.417535e+002
1.173244e+002, 1.399981e+002
1.178065e+002, 1.370743e+002
1.182886e+002, 1.346258e+002
1.187708e+002, 1.338708e+002
1.192529e+002, 1.335974e+002
1.197350e+002, 1.328377e+002
1.202171e+002, 1.309107e+002
1.206992e+002, 1.289529e+002
1.211813e+002, 1.278023e+002
1.216635e+002, 1.273292e+002
1.221456e+002, 1.268516e+002
1.226277e+002, 1.261064e+002
1.231098e+002, 1.250662e+002
1.235919e+002, 1.236854e+002
1.240740e+002, 1.215493e+002
1.245562e+002, 1.192987e+002
1.250383e+002, 1.176419e+002
1.255204e+002, 1.165675e+002
1.260025e+002, 1.157704e+002
1.264846e+002, 1.150500e+002
1.269667e+002, 1.144097e+002
1.274489e+002, 1.138580e+002
1.279310e+002, 1.136270e+002
1.284131e+002, 1.134503e+002
1.288952e+002, 1.127369e+002
1.293773e+002, 1.114029e+002
1.298594e+002, 1.098450e+002
1.303416e+002, 1.084519e+002
1.308237e+002, 1.072311e+002
1.313058e+002, 1.061436e+002
1.317879e+002, 1.051692e+002
1.322700e+002, 1.043125e+002
1.327521e+002, 1.036167e+002
1.332343e+002, 1.031137e+002
1.337164e+002, 1.027195e+002
1.341985e+002, 1.023503e+002
1.346806e+002, 1.020262e+002
1.351627e+002, 1.014614e+002
1.356448e+002, 1.003294e+002
1.361270e+002, 9.861403e+001
1.366091e+002, 9.713958e+001
1.370912e+002, 9.600118e+001
1.375733e+002, 9.517846e+001
1.380554e+002, 9.460172e+001
1.385375e+002, 9.435653e+001
1.390197e+002, 9.410323e+001
1.395018e+002, 9.350845e+001
1.399839e+002, 9.246042e+001
1.404660e+002, 9.160386e+001
1.409481e+002, 9.114364e+001
1.414302e+002, 9.103022e+001
1.419124e+002, 9.053976e+001
1.423945e+002, 8.948951e+001
1.428766e+002, 8.831893e+001
1.433587e+002, 8.750423e+001
1.438408e+002, 8.730998e+001
1.443229e+002, 8.693288e+001
1.448051e+002, 8.609653e+001
1.452872e+002, 8.466833e+001
1.457693e+002, 8.374448e+001
1.462514e+002, 8.364103e+001
1.467335e+002, 8.383089e+001
1.472156e+002, 8.362663e+001
1.476978e+002, 8.272536e+001
1.481799e+002, 8.179971e+001
1.486620e+002, 8.085464e+001
1.491441e+002, 7.947761e+001
1.496262e+002, 7.924883e+001
1.501083e+002, 8.132092e+001
1.505905e+002, 8.435696e+001
1.510726e+002, 8.601394e+001
1.515547e+002, 8.495258e+001
1.520368e+002, 8.366103e+001
1.525189e+002, 8.286641e+001
1.530010e+002, 8.281556e+001
1.534832e+002, 8.287991e+001
1.539653e+002, 8.329110e+001
1.544474e+002, 8.380717e+001
1.549295e+002, 8.384743e+001
1.554116e+002, 8.309608e+001
1.558937e+002, 8.203040e+001
1.563759e+002, 8.087310e+001
1.568580e+002, 7.978301e+001
1.573401e+002, 7.842958e+001
1.578222e+002, 7.646803e+001
1.583043e+002, 7.411168e+001
1.587864e+002, 7.214682e+001
1.592686e+002, 7.085059e+001
1.597507e+002, 6.997521e+001
1.602328e+002, 6.936484e+001
1.607149e+002, 6.912489e+001
1.611970e+002, 6.900211e+001
1.616791e+002, 6.893745e+001
1.621613e+002, 6.893010e+001
1.626434e+002, 6.896935e+001
1.631255e+002, 6.905306e+001
1.636076e+002, 6.918108e+001
1.640897e+002, 6.935334e+001
1.645718e+002, 6.987086e+001
1.650540e+002, 7.018386e+001
1.655361e+002, 6.989148e+001
1.660182e+002, 6.901421e+001
1.665003e+002, 6.815035e+001
1.669824e+002, 6.772793e+001
1.674645e+002, 6.746786e+001
1.679467e+002, 6.703197e+001
1.684288e+002, 6.598344e+001
1.689109e+002, 6.491969e+001
1.693930e+002, 6.426842e+001
1.698751e+002, 6.405103e+001
1.703572e+002, 6.404081e+001
1.708394e+002, 6.421486e+001
1.713215e+002, 6.447742e+001
1.718036e+002, 6.466435e+001
1.722857e+002, 6.473071e+001
1.727678e+002, 6.467573e+001
1.732499e+002, 6.440118e+001
1.737321e+002, 6.385308e+001
1.742142e+002, 6.344239e+001
1.746963e+002, 6.374811e+001
1.751784e+002, 6.447610e+001
1.756605e+002, 6.493102e+001
1.761426e+002, 6.417431e+001
1.766248e+002, 6.312759e+001
1.771069e+002, 6.329304e+001
1.775890e+002, 6.505666e+001
1.780711e+002, 6.695193e+001
1.785532e+002, 6.710004e+001
1.790353e+002, 6.594353e+001
1.795175e+002, 6.506301e+001
1.799996e+002, 6.561894e+001
1.804817e+002, 6.701726e+001
1.809638e+002, 6.811053e+001
1.814459e+002, 6.872324e+001
1.819280e+002, 6.912641e+001
1.824102e+002, 6.974599e+001
1.828923e+002, 7.052110e+001
1.833744e+002, 7.113989e+001
1.838565e+002, 7.113158e+001
1.843386e+002, 7.078162e+001
1.848207e+002, 7.101060e+001
1.853029e+002, 7.213966e+001
1.857850e+002, 7.353191e+001
1.862671e+002, 7.405205e+001
1.867492e+002, 7.373430e+001
1.872313e+002, 7.337301e+001
1.877134e+002, 7.349816e+001
1.881956e+002, 7.404739e+001
1.886777e+002, 7.474673e+001
1.891598e+002, 7.562376e+001
1.896419e+002, 7.655460e+001
1.901240e+002, 7.733154e+001
1.906061e+002, 7.796676e+001
1.910883e+002, 7.836241e+001
1.915704e+002, 7.823728e+001
1.920525e+002, 7.767422e+001
1.925346e+002, 7.752370e+001
1.930167e+002, 7.799767e+001
1.934988e+002, 7.887662e+001
1.939810e+002, 7.953835e+001
1.944631e+002, 7.993839e+001
1.949452e+002, 8.019499e+001
1.954273e+002, 7.996398e+001
1.959094e+002, 7.926183e+001
1.963915e+002, 7.876436e+001
1.968737e+002, 7.862619e+001
1.973558e+002, 7.876623e+001
1.978379e+002, 7.892786e+001
1.983200e+002, 7.911423e+001
1.988021e+002, 7.931152e+001
1.992842e+002, 7.943223e+001
1.997664e+002, 7.945677e+001
2.002485e+002, 7.979179e+001
2.007306e+002, 8.070497e+001
2.012127e+002, 8.200701e+001
2.016948e+002, 8.258294e+001
2.021769e+002, 8.232122e+001
2.026591e+002, 8.173148e+001
2.031412e+002, 8.125576e+001
2.036233e+002, 8.089574e+001
2.041054e+002, 8.058040e+001
2.045875e+002, 8.019302e+001
2.050696e+002, 7.979079e+001
2.055518e+002, 8.007227e+001
2.060339e+002, 8.127991e+001
2.065160e+002, 8.261049e+001
2.069981e+002, 8.312627e+001
2.074802e+002, 8.261002e+001
2.079623e+002, 8.230506e+001
2.084445e+002, 8.261472e+001
2.089266e+002, 8.349898e+001
2.094087e+002, 8.390108e+001
2.098908e+002, 8.365644e+001
2.103729e+002, 8.324131e+001
2.108550e+002, 8.323531e+001
2.113372e+002, 8.380657e+001
2.118193e+002, 8.418140e+001
2.123014e+002, 8.410067e+001
2.127835e+002, 8.356509e+001
2.132656e+002, 8.323875e+001
2.137477e+002, 8.318802e+001
2.142299e+002, 8.324834e+001
2.147120e+002, 8.320936e+001
2.151941e+002, 8.300108e+001
2.156762e+002, 8.288869e+001
2.161583e+002, 8.297127e+001
2.166404e+002, 8.326192e+001
2.171226e+002, 8.345332e+001
2.176047e+002, 8.351016e+001
2.180868e+002, 8.350979e+001
2.185689e+002, 8.353688e+001
2.190510e+002, 8.357806e+001
2.195331e+002, 8.368003e+001
2.200153e+002, 8.386326e+001
2.204974e+002, 8.413524e+001
2.209795e+002, 8.443910e+001
2.214616e+002, 8.484214e+001
2.219437e+002, 8.521406e+001
2.224258e+002, 8.538980e+001
2.229080e+002, 8.531297e+001
2.233901e+002, 8.515816e+001
2.238722e+002, 8.493441e+001
2.243543e+002, 8.461206e+001
2.248364e+002, 8.446177e+001
2.253185e+002, 8.455593e+001
2.258007e+002, 8.475224e+001
2.262828e+002, 8.486244e+001
2.267649e+002, 8.480773e+001
2.272470e+002, 8.481831e+001
2.277291e+002, 8.498936e+001
2.282112e+002, 8.536296e+001
2.286934e+002, 8.557951e+001
2.291755e+002, 8.561803e+001
2.296576e+002, 8.551885e+001
2.301397e+002, 8.531699e+001
2.306218e+002, 8.493570e+001
2.311039e+002, 8.458868e+001
2.315861e+002, 8.433107e+001
2.320682e+002, 8.416414e+001
2.325503e+002, 8.406902e+001
2.330324e+002, 8.409577e+001
2.335145e+002, 8.415630e+001
2.339966e+002, 8.413409e+001
2.344788e+002, 8.398203e+001
2.349609e+002, 8.383273e+001
2.354430e+002, 8.369480e+001
2.359251e+002, 8.354772e+001
2.364072e+002, 8.356221e+001
2.368893e+002, 8.378516e+001
2.373715e+002, 8.412894e+001
2.378536e+002, 8.451617e+001
2.383357e+002, 8.509867e+001
2.388178e+002, 8.545786e+001
2.392999e+002, 8.542923e+001
2.397820e+002, 8.494717e+001
2.402642e+002, 8.456329e+001
2.407463e+002, 8.426278e+001
2.412284e+002, 8.406874e+001
2.417105e+002, 8.402360e+001
2.421926e+002, 8.419990e+001
2.426747e+002, 8.439120e+001
2.431569e+002, 8.457097e+001
2.436390e+002, 8.475301e+001
2.441211e+002, 8.480990e+001
2.446032e+002, 8.475198e+001
2.450853e+002, 8.456228e+001
2.455674e+002, 8.415583e+001
2.460496e+002, 8.320502e+001
2.465317e+002, 8.266230e+001
2.470138e+002, 8.292110e+001
2.474959e+002, 8.410658e+001
2.479780e+002, 8.463387e+001
2.484601e+002, 8.420248e+001
2.489423e+002, 8.342287e+001
2.494244e+002, 8.297681e+001
2.499065e+002, 8.305974e+001
2.503886e+002, 8.309160e+001
2.508707e+002, 8.292200e+001
2.513528e+002, 8.254088e+001
2.518350e+002, 8.222466e+001
2.523171e+002, 8.191362e+001
2.527992e+002, 8.173383e+001
2.532813e+002, 8.184853e+001
2.537634e+002, 8.240125e+001
2.542455e+002, 8.293814e+001
2.547277e+002, 8.341544e+001
2.552098e+002, 8.383623e+001
2.556919e+002, 8.398373e+001
2.561740e+002, 8.379143e+001
2.566561e+002, 8.340775e+001
2.571382e+002, 8.292801e+001
2.576204e+002, 8.221806e+001
2.581025e+002, 8.173135e+001
2.585846e+002, 8.160233e+001
2.590667e+002, 8.181251e+001
2.595488e+002, 8.200241e+001
2.600309e+002, 8.216938e+001
2.605131e+002, 8.231587e+001
2.609952e+002, 8.245406e+001
2.614773e+002, 8.261835e+001
2.619594e+002, 8.267727e+001
2.624415e+002, 8.256636e+001
2.629236e+002, 8.231097e+001
2.634058e+002, 8.216924e+001
2.638879e+002, 8.213976e+001
2.643700e+002, 8.222533e+001
2.648521e+002, 8.245295e+001
2.653342e+002, 8.286801e+001
2.658163e+002, 8.328369e+001
2.662985e+002, 8.374293e+001
2.667806e+002, 8.418717e+001
2.672627e+002, 8.421948e+001
2.677448e+002, 8.367289e+001
2.682269e+002, 8.306192e+001
2.687090e+002, 8.275891e+001
2.691912e+002, 8.280818e+001
2.696733e+002, 8.297749e+001
2.701554e+002, 8.329353e+001
2.706375e+002, 8.369589e+001
2.711196e+002, 8.390897e+001
2.716017e+002, 8.387472e+001
2.720839e+002, 8.380941e+001
2.725660e+002, 8.389095e+001
2.730481e+002, 8.416305e+001
2.735302e+002, 8.427905e+001
2.740123e+002, 8.414712e+001
2.744944e+002, 8.387775e+001
2.749766e+002, 8.377953e+001
2.754587e+002, 8.386044e+001
2.759408e+002, 8.408179e+001
2.764229e+002, 8.451266e+001
2.769050e+002, 8.519455e+001
2.773871e+002, 8.557710e+001
2.778693e+002, 8.556001e+001
2.783514e+002, 8.529599e+001
2.788335e+002, 8.512402e+001
2.793156e+002, 8.506216e+001
2.797977e+002, 8.497721e+001
2.802798e+002, 8.475937e+001
2.807620e+002, 8.440896e+001
2.812441e+002, 8.416980e+001
2.817262e+002, 8.407642e+001
2.822083e+002, 8.405489e+001
2.826904e+002, 8.400404e+001
2.831725e+002, 8.392763e+001
2.836547e+002, 8.375982e+001
2.841368e+002, 8.335432e+001
2.846189e+002, 8.275533e+001
2.851010e+002, 8.250549e+001
2.855831e+002, 8.268116e+001
2.860652e+002, 8.302322e+001
2.865474e+002, 8.319487e+001
2.870295e+002, 8.319730e+001
2.875116e+002, 8.307865e+001
2.879937e+002, 8.279320e+001
2.884758e+002, 8.237875e+001
2.889579e+002, 8.207420e+001
2.894401e+002, 8.188328e+001
2.899222e+002, 8.176332e+001
2.904043e+002, 8.166366e+001
2.908864e+002, 8.158763e+001
2.913685e+002, 8.156464e+001
2.918506e+002, 8.166911e+001
2.923328e+002, 8.182802e+001
2.928149e+002, 8.177855e+001
2.932970e+002, 8.150426e+001
2.937791e+002, 8.122062e+001
2.942612e+002, 8.123904e+001
2.947433e+002, 8.146571e+001
2.952255e+002, 8.150649e+001
2.957076e+002, 8.106229e+001
2.961897e+002, 8.044645e+001
2.966718e+002, 8.037149e+001
2.971539e+002, 8.082359e+001
2.976360e+002, 8.129818e+001
2.981182e+002, 8.132488e+001
2.986003e+002, 8.103985e+001
2.990824e+002, 8.079395e+001
2.995645e+002, 8.073534e+001
3.000466e+002, 8.070011e+001
3.005287e+002, 8.034415e+001
3.010109e+002, 7.972717e+001
3.014930e+002, 7.926441e+001
3.019751e+002, 7.945264e+001
3.024572e+002, 7.996561e+001
3.029393e+002, 8.022353e+001
3.034214e+002, 8.001531e+001
3.039036e+002, 7.968322e+001
3.043857e+002, 7.960128e+001
3.048678e+002, 7.971450e+001
3.053499e+002, 7.981947e+001
3.058320e+002, 7.980348e+001
3.063141e+002, 7.970543e+001
3.067963e+002, 7.954807e+001
3.072784e+002, 7.929842e+001
3.077605e+002, 7.909425e+001
3.082426e+002, 7.907615e+001
3.087247e+002, 7.919294e+001
3.092068e+002, 7.932243e+001
3.096890e+002, 7.945846e+001
3.101711e+002, 7.954561e+001
3.106532e+002, 7.949303e+001
3.111353e+002, 7.925354e+001
3.116174e+002, 7.906883e+001
3.120995e+002, 7.921738e+001
3.125817e+002, 7.950562e+001
3.130638e+002, 7.962405e+001
3.135459e+002, 7.924484e+001
3.140280e+002, 7.880808e+001
3.145101e+002, 7.862830e+001
3.149922e+002, 7.874626e+001
3.154744e+002, 7.879824e+001
3.159565e+002, 7.840407e+001
3.164386e+002, 7.792110e+001
3.169207e+002, 7.775948e+001
3.174028e+002, 7.849399e+001
3.178849e+002, 7.916496e+001
3.183671e+002, 7.937627e+001
3.188492e+002, 7.913637e+001
3.193313e+002, 7.875330e+001
3.198134e+002, 7.799522e+001
3.202955e+002, 7.730712e+001
3.207776e+002, 7.704982e+001
3.212598e+002, 7.782728e+001
3.217419e+002, 7.847622e+001
3.222240e+002, 7.866129e+001
3.227061e+002, 7.846020e+001
3.231882e+002, 7.829102e+001
3.236703e+002, 7.836146e+001
3.241525e+002, 7.839536e+001
3.246346e+002, 7.823141e+001
3.251167e+002, 7.755859e+001
3.255988e+002, 7.708881e+001
3.260809e+002, 7.697666e+001
3.265630e+002, 7.712093e+001
3.270452e+002, 7.724411e+001
3.275273e+002, 7.722388e+001
3.280094e+002, 7.727303e+001
3.284915e+002, 7.750515e+001
3.289736e+002, 7.812816e+001
3.294557e+002, 7.846179e+001
3.299379e+002, 7.828233e+001
3.304200e+002, 7.788387e+001
3.309021e+002, 7.774535e+001
3.313842e+002, 7.806290e+001
3.318663e+002, 7.837880e+001
3.323484e+002, 7.859770e+001
3.328306e+002, 7.872514e+001
3.333127e+002, 7.866917e+001
3.337948e+002, 7.826343e+001
3.342769e+002, 7.782164e+001
3.347590e+002, 7.772600e+001
3.352411e+002, 7.816746e+001
3.357233e+002, 7.852610e+001
3.362054e+002, 7.866003e+001
3.366875e+002, 7.858462e+001
3.371696e+002, 7.849119e+001
3.376517e+002, 7.831326e+001
3.381339e+002, 7.824695e+001
3.386160e+002, 7.853967e+001
3.390981e+002, 7.931606e+001
3.395802e+002, 7.982889e+001
3.400623e+002, 7.991915e+001
3.405444e+002, 7.969373e+001
3.410266e+002, 7.949058e+001
3.415087e+002, 7.930422e+001
3.419908e+002, 7.914608e+001
3.424729e+002, 7.899625e+001
3.429550e+002, 7.885538e+001
3.434371e+002, 7.885394e+001
3.439193e+002, 7.903635e+001
3.444014e+002, 7.929581e+001
3.448835e+002, 7.943411e+001
3.453656e+002, 7.945214e+001
3.458477e+002, 7.945534e+001
3.463298e+002, 7.960365e+001
3.468120e+002, 7.980751e+001
3.472941e+002, 7.950688e+001
3.477762e+002, 7.857628e+001
3.482583e+002, 7.774643e+001
3.487404e+002, 7.816516e+001
3.492225e+002, 7.953359e+001
3.497047e+002, 8.057203e+001
3.501868e+002, 8.057586e+001
3.506689e+002, 8.004086e+001
3.511510e+002, 7.985193e+001
3.516331e+002, 8.000333e+001
3.521152e+002, 8.017009e+001
3.525974e+002, 7.994437e+001
3.530795e+002, 7.955823e+001
3.535616e+002, 7.948357e+001
3.540437e+002, 8.008794e+001
3.545258e+002, 8.074688e+001
3.550079e+002, 8.069958e+001
3.554901e+002, 8.009569e+001
3.559722e+002, 7.960715e+001
3.564543e+002, 7.983614e+001
3.569364e+002, 8.030239e+001
3.574185e+002, 8.048903e+001
3.579006e+002, 8.021404e+001
3.583828e+002, 7.989725e+001
3.588649e+002, 7.984451e+001
3.593470e+002, 7.993826e+001
3.598291e+002, 7.993972e+001
3.603112e+002, 7.953416e+001
3.607933e+002, 7.916284e+001
3.612755e+002, 7.915173e+001
3.617576e+002, 7.959038e+001
3.622397e+002, 7.993881e+001
3.627218e+002, 7.988320e+001
3.632039e+002, 7.966695e+001
3.636860e+002, 7.956179e+001
3.641682e+002, 7.984338e+001
3.646503e+002, 8.004646e+001
3.651324e+002, 7.996677e+001
3.656145e+002, 7.961561e+001
3.660966e+002, 7.933884e+001
3.665787e+002, 7.920815e+001
3.670609e+002, 7.916061e+001
3.675430e+002, 7.915598e+001
3.680251e+002, 7.925257e+001
3.685072e+002, 7.932016e+001
3.689893e+002, 7.936026e+001
3.694714e+002, 7.936726e+001
3.699536e+002, 7.930994e+001
3.704357e+002, 7.903081e+001
3.709178e+002, 7.885556e+001
3.713999e+002, 7.895956e+001
3.718820e+002, 7.957194e+001
3.723641e+002, 7.985425e+001
3.728463e+002, 7.962724e+001
3.733284e+002, 7.918532e+001
3.738105e+002, 7.902030e+001
3.742926e+002, 7.932505e+001
3.747747e+002, 7.945855e+001
3.752568e+002, 7.913569e+001
3.757390e+002, 7.834650e+001
3.762211e+002, 7.798643e+001
3.767032e+002, 7.815945e+001
3.771853e+002, 7.853590e+001
3.776674e+002, 7.883730e+001
3.781495e+002, 7.906605e+001
3.786317e+002, 7.919942e+001
3.791138e+002, 7.923195e+001
3.795959e+002, 7.916906e+001
3.800780e+002, 7.898718e+001
3.805601e+002, 7.867429e+001
3.810422e+002, 7.839175e+001
3.815244e+002, 7.823839e+001
3.820065e+002, 7.820806e+001
3.824886e+002, 7.829967e+001
3.829707e+002, 7.854760e+001
3.834528e+002, 7.882103e+001
3.839349e+002, 7.892900e+001
3.844171e+002, 7.889318e+001
3.848992e+002, 7.883208e+001
3.853813e+002, 7.874831e+001
3.858634e+002, 7.869353e+001
3.863455e+002, 7.880877e+001
3.868276e+002, 7.910606e+001
3.873098e+002, 7.935641e+001
3.877919e+002, 7.932539e+001
3.882740e+002, 7.911465e+001
3.887561e+002, 7.890710e+001
3.892382e+002, 7.876348e+001
3.897203e+002, 7.864290e+001
3.902025e+002, 7.848299e+001
3.906846e+002, 7.830465e+001
3.911667e+002, 7.820682e+001
3.916488e+002, 7.831075e+001
3.921309e+002, 7.848390e+001
3.926130e+002, 7.860502e+001
3.930952e+002, 7.860215e+001
3.935773e+002, 7.865027e+001
3.940594e+002, 7.890794e+001
3.945415e+002, 7.926008e+001
3.950236e+002, 7.949271e+001
3.955057e+002, 7.949917e+001
3.959879e+002, 7.941245e+001
3.964700e+002, 7.921199e+001
3.969521e+002, 7.884440e+001
3.974342e+002, 7.872114e+001
3.979163e+002, 7.914938e+001
3.983984e+002, 7.973379e+001
3.988806e+002, 8.011350e+001
3.993627e+002, 8.015456e+001
3.998448e+002, 8.011069e+001
4.003269e+002, 7.988525e+001
4.008090e+002, 7.953812e+001
4.012911e+002, 7.955579e+001
4.017733e+002, 8.030612e+001
4.022554e+002, 8.098592e+001
4.027375e+002, 8.112725e+001
4.032196e+002, 8.040250e+001
4.037017e+002, 7.996885e+001
4.041838e+002, 7.991896e+001
4.046660e+002, 8.010853e+001
4.051481e+002, 8.028486e+001
4.056302e+002, 8.045555e+001
4.061123e+002, 8.057996e+001
4.065944e+002, 8.054472e+001
4.070765e+002, 8.037769e+001
4.075587e+002, 8.079353e+001
4.080408e+002, 8.194521e+001
4.085229e+002, 8.310294e+001
4.090050e+002, 8.338367e+001
4.094871e+002, 8.285160e+001
4.099692e+002, 8.248003e+001
4.104514e+002, 8.251026e+001
4.109335e+002, 8.278442e+001
4.114156e+002, 8.299744e+001
4.118977e+002, 8.315330e+001
4.123798e+002, 8.332551e+001
4.128619e+002, 8.365351e+001
4.133441e+002, 8.401351e+001
4.138262e+002, 8.410801e+001
4.143083e+002, 8.385023e+001
4.147904e+002, 8.359909e+001
4.152725e+002, 8.373433e+001
4.157546e+002, 8.413427e+001
4.162368e+002, 8.455001e+001
4.167189e+002, 8.499122e+001
4.172010e+002, 8.531396e+001
4.176831e+002, 8.531521e+001
4.181652e+002, 8.501709e+001
4.186473e+002, 8.479678e+001
4.191295e+002, 8.487940e+001
4.196116e+002, 8.512312e+001
4.200937e+002, 8.540505e+001
4.205758e+002, 8.572150e+001
4.210579e+002, 8.603813e+001
4.215400e+002, 8.643114e+001
4.220222e+002, 8.682249e+001
4.225043e+002, 8.703071e+001
4.229864e+002, 8.670135e+001
4.234685e+002, 8.645292e+001
4.239506e+002, 8.658743e+001
4.244327e+002, 8.731105e+001
4.249149e+002, 8.777417e+001
4.253970e+002, 8.774998e+001
4.258791e+002, 8.756282e+001
4.263612e+002, 8.752223e+001
4.268433e+002, 8.761536e+001
4.273254e+002, 8.789046e+001
4.278076e+002, 8.846448e+001
4.282897e+002, 8.926529e+001
4.287718e+002, 8.971056e+001
4.292539e+002, 8.963917e+001
4.297360e+002, 8.952572e+001
4.302181e+002, 8.974734e+001
4.307003e+002, 9.042133e+001
4.311824e+002, 9.057266e+001
4.316645e+002, 9.000627e+001
4.321466e+002, 8.916983e+001
4.326287e+002, 8.887045e+001
4.331108e+002, 8.912160e+001
4.335930e+002, 8.936248e+001
4.340751e+002, 8.937600e+001
4.345572e+002, 8.921854e+001
4.350393e+002, 8.905314e+001
4.355214e+002, 8.888058e+001
4.360035e+002, 8.872993e+001
4.364857e+002, 8.863924e+001
4.369678e+002, 8.859246e+001
4.374499e+002, 8.855703e+001
4.379320e+002, 8.854679e+001
4.384141e+002, 8.850234e+001
4.388962e+002, 8.835445e+001
4.393784e+002, 8.811698e+001
4.398605e+002, 8.783191e+001
4.403426e+002, 8.731261e+001
4.408247e+002, 8.688743e+001
4.413068e+002, 8.691711e+001
4.417889e+002, 8.747053e+001
4.422711e+002, 8.797437e+001
4.427532e+002, 8.817345e+001
4.432353e+002, 8.815945e+001
4.437174e+002, 8.802770e+001
4.441995e+002, 8.770012e+001
4.446816e+002, 8.736749e+001
4.451638e+002, 8.703071e+001
4.456459e+002, 8.671687e+001
4.461280e+002, 8.653121e+001
4.466101e+002, 8.658684e+001
4.470922e+002, 8.669347e+001
4.475743e+002, 8.678494e+001
4.480565e+002, 8.689856e+001
4.485386e+002, 8.689214e+001
4.490207e+002, 8.667138e+001
4.495028e+002, 8.639009e+001
4.499849e+002, 8.623756e+001
4.504670e+002, 8.619993e+001
4.509492e+002, 8.633418e+001
4.514313e+002, 8.672985e+001
4.519134e+002, 8.732925e+001
4.523955e+002, 8.770448e+001
4.528776e+002, 8.784111e+001
4.533597e+002, 8.778880e+001
4.538419e+002, 8.744334e+001
4.543240e+002, 8.682236e+001
4.548061e+002, 8.659875e+001
4.552882e+002, 8.691794e+001
4.557703e+002, 8.741899e+001
4.562524e+002, 8.756501e+001
4.567346e+002, 8.739157e+001
4.572167e+002, 8.712512e+001
4.576988e+002, 8.667901e+001
4.581809e+002, 8.627698e+001
4.586630e+002, 8.638632e+001
4.591451e+002, 8.697910e+001
4.596273e+002, 8.763634e+001
4.601094e+002, 8.809053e+001
4.605915e+002, 8.839536e+001
4.610736e+002, 8.861343e+001
4.615557e+002, 8.874733e+001
4.620378e+002, 8.882809e+001
4.625200e+002, 8.880586e+001
4.630021e+002, 8.875071e+001
4.634842e+002, 8.879932e+001
4.639663e+002, 8.920815e+001
4.644484e+002, 8.955926e+001
4.649305e+002, 8.958200e+001
4.654127e+002, 8.924132e+001
4.658948e+002, 8.902876e+001
4.663769e+002, 8.907521e+001
4.668590e+002, 8.926897e+001
4.673411e+002, 8.953056e+001
4.678232e+002, 8.999780e+001
4.683054e+002, 9.034795e+001
4.687875e+002, 9.050517e+001
4.692696e+002, 9.054747e+001
4.697517e+002, 9.067161e+001
4.702338e+002, 9.091737e+001
4.707159e+002, 9.117110e+001
4.711981e+002, 9.141973e+001
4.716802e+002, 9.166850e+001
4.721623e+002, 9.174483e+001
4.726444e+002, 9.160896e+001
4.731265e+002, 9.140699e+001
4.736086e+002, 9.124995e+001
4.740908e+002, 9.113866e+001
4.745729e+002, 9.114153e+001
4.750550e+002, 9.127443e+001
4.755371e+002, 9.152030e+001
4.760192e+002, 9.194941e+001
4.765013e+002, 9.252258e+001
4.769835e+002, 9.292765e+001
4.774656e+002, 9.277443e+001
4.779477e+002, 9.242118e+001
4.784298e+002, 9.257292e+001
4.789119e+002, 9.327507e+001
4.793940e+002, 9.385207e+001
4.798762e+002, 9.360277e+001
4.803583e+002, 9.296111e+001
4.808404e+002, 9.249673e+001
4.813225e+002, 9.238702e+001
4.818046e+002, 9.246877e+001
4.822867e+002, 9.273645e+001
4.827689e+002, 9.313839e+001
4.832510e+002, 9.353979e+001
4.837331e+002, 9.420419e+001
4.842152e+002, 9.459927e+001
4.846973e+002, 9.437230e+001
4.851794e+002, 9.333223e+001
4.856616e+002, 9.255334e+001
4.861437e+002, 9.220584e+001
4.866258e+002, 9.210948e+001
4.871079e+002, 9.213416e+001
4.875900e+002, 9.230434e+001
4.880721e+002, 9.256956e+001
4.885543e+002, 9.302274e+001
4.890364e+002, 9.353516e+001
4.895185e+002, 9.366989e+001
4.900006e+002, 9.328300e+001
4.904827e+002, 9.297082e+001
4.909648e+002, 9.311359e+001
4.914470e+002, 9.366957e+001
4.919291e+002, 9.366063e+001
4.924112e+002, 9.298315e+001
4.928933e+002, 9.223965e+001
4.933754e+002, 9.212430e+001
4.938575e+002, 9.249830e+001
4.943397e+002, 9.275346e+001
4.948218e+002, 9.274266e+001
4.953039e+002, 9.258453e+001
4.957860e+002, 9.235721e+001
4.962681e+002, 9.210071e+001
4.967502e+002, 9.195018e+001
4.972324e+002, 9.209752e+001
4.977145e+002, 9.230794e+001
4.981966e+002, 9.233163e+001
4.986787e+002, 9.215463e+001
4.991608e+002, 9.201173e+001
4.996429e+002, 9.210567e+001
5.001251e+002, 9.224572e+001
5.006072e+002, 9.226469e+001
5.010893e+002, 9.208784e+001
5.015714e+002, 9.183416e+001
5.020535e+002, 9.140237e+001
5.025356e+002, 9.091352e+001
5.030178e+002, 9.064375e+001
5.034999e+002, 9.093674e+001
5.039820e+002, 9.109067e+001
5.044641e+002, 9.083475e+001
5.049462e+002, 9.014036e+001
5.054283e+002, 8.983288e+001
5.059105e+002, 9.008904e+001
5.063926e+002, 9.046609e+001
5.068747e+002, 9.065000e+001
5.073568e+002, 9.062948e+001
5.078389e+002, 9.047550e+001
5.083210e+002, 9.014552e+001
5.088032e+002, 8.977369e+001
5.092853e+002, 8.965334e+001
5.097674e+002, 8.976411e+001
5.102495e+002, 8.976855e+001
5.107316e+002, 8.941592e+001
5.112137e+002, 8.891035e+001
5.116959e+002, 8.870815e+001
5.121780e+002, 8.879366e+001
5.126601e+002, 8.895267e+001
5.131422e+002, 8.905994e+001
5.136243e+002, 8.913519e+001
5.141064e+002, 8.920940e+001
5.145886e+002, 8.929716e+001
5.150707e+002, 8.935163e+001
5.155528e+002, 8.942132e+001
5.160349e+002, 8.942152e+001
5.165170e+002, 8.923116e+001
5.169991e+002, 8.843535e+001
5.174813e+002, 8.782732e+001
5.179634e+002, 8.781686e+001
5.184455e+002, 8.831802e+001
5.189276e+002, 8.858930e+001
5.194097e+002, 8.830742e+001
5.198918e+002, 8.798539e+001
5.203740e+002, 8.782802e+001
5.208561e+002, 8.788173e+001
5.213382e+002, 8.794186e+001
5.218203e+002, 8.799958e+001
5.223024e+002, 8.807099e+001
5.227845e+002, 8.818217e+001
5.232667e+002, 8.834057e+001
5.237488e+002, 8.849168e+001
5.242309e+002, 8.863087e+001
5.247130e+002, 8.874723e+001
5.251951e+002, 8.879977e+001
5.256772e+002, 8.879020e+001
5.261594e+002, 8.878904e+001
5.266415e+002, 8.887926e+001
5.271236e+002, 8.900008e+001
5.276057e+002, 8.893446e+001
5.280878e+002, 8.867242e+001
5.285699e+002, 8.855771e+001
5.290521e+002, 8.906218e+001
5.295342e+002, 8.982373e+001
5.300163e+002, 9.037169e+001
5.304984e+002, 9.056898e+001
5.309805e+002, 9.054824e+001
5.314626e+002, 9.014349e+001
5.319448e+002, 8.959103e+001
5.324269e+002, 8.934946e+001
5.329090e+002, 9.003349e+001
5.333911e+002, 9.057551e+001
5.338732e+002, 9.041590e+001
5.343553e+002, 8.950284e+001
5.348375e+002, 8.920025e+001
5.353196e+002, 9.009973e+001
5.358017e+002, 9.105283e+001
5.362838e+002, 9.139429e+001
5.367659e+002, 9.084270e+001
5.372480e+002, 9.047731e+001
5.377302e+002, 9.036079e+001
5.382123e+002, 9.035635e+001
5.386944e+002, 9.019969e+001
5.391765e+002, 8.986037e+001
5.396586e+002, 8.982871e+001
5.401407e+002, 9.037232e+001
5.406229e+002, 9.119031e+001
5.411050e+002, 9.155379e+001
5.415871e+002, 9.149204e+001
5.420692e+002, 9.128366e+001
5.425513e+002, 9.095170e+001
5.430334e+002, 9.064185e+001
5.435156e+002, 9.063554e+001
5.439977e+002, 9.096285e+001
5.444798e+002, 9.128522e+001
5.449619e+002, 9.129216e+001
5.454440e+002, 9.119444e+001
5.459261e+002, 9.122649e+001
5.464083e+002, 9.153988e+001
5.468904e+002, 9.185900e+001
5.473725e+002, 9.209406e+001
5.478546e+002, 9.226499e+001
5.483367e+002, 9.242170e+001
5.488188e+002, 9.267229e+001
5.493010e+002, 9.279207e+001
5.497831e+002, 9.264053e+001
5.502652e+002, 9.222417e+001
5.507473e+002, 9.208904e+001
5.512294e+002, 9.236207e+001
5.517115e+002, 9.270236e+001
5.521937e+002, 9.288924e+001
5.526758e+002, 9.290157e+001
5.531579e+002, 9.297926e+001
5.536400e+002, 9.314417e+001
5.541221e+002, 9.334843e+001
5.546042e+002, 9.355138e+001
5.550864e+002, 9.374635e+001
5.555685e+002, 9.388468e+001
5.560506e+002, 9.393458e+001
5.565327e+002, 9.394046e+001
5.570148e+002, 9.392947e+001
5.574969e+002, 9.391761e+001
5.579791e+002, 9.396790e+001
5.584612e+002, 9.419131e+001
5.589433e+002, 9.443782e+001
5.594254e+002, 9.455610e+001
5.599075e+002, 9.453355e+001
5.603896e+002, 9.455833e+001
5.608718e+002, 9.469302e+001
5.613539e+002, 9.491242e+001
5.618360e+002, 9.520612e+001
5.623181e+002, 9.571546e+001
5.628002e+002, 9.608085e+001
5.632823e+002, 9.616054e+001
5.637645e+002, 9.614410e+001
5.642466e+002, 9.635419e+001
5.647287e+002, 9.698027e+001
5.652108e+002, 9.739236e+001
5.656929e+002, 9.737051e+001
5.661750e+002, 9.703391e+001
5.666572e+002, 9.693987e+001
5.671393e+002, 9.711839e+001
5.676214e+002, 9.732322e+001
5.681035e+002, 9.725839e+001
5.685856e+002, 9.707948e+001
5.690677e+002, 9.760700e+001
5.695499e+002, 9.891992e+001
5.700320e+002, 1.000258e+002
5.705141e+002, 9.960979e+001
5.709962e+002, 9.844785e+001
5.714783e+002, 9.784841e+001
5.719604e+002, 9.835920e+001
5.724426e+002, 9.901216e+001
5.729247e+002, 9.920033e+001
5.734068e+002, 9.909829e+001
5.738889e+002, 9.902272e+001
5.743710e+002, 9.914487e+001
5.748531e+002, 9.924290e+001
5.753353e+002, 9.921875e+001
5.758174e+002, 9.908298e+001
5.762995e+002, 9.900523e+001
5.767816e+002, 9.905666e+001
5.772637e+002, 9.908895e+001
5.777458e+002, 9.901963e+001
5.782280e+002, 9.881306e+001
5.787101e+002, 9.867861e+001
5.791922e+002, 9.858821e+001
5.796743e+002, 9.863078e+001
5.801564e+002, 9.903838e+001
5.806385e+002, 9.977402e+001
5.811207e+002, 1.001256e+002
5.816028e+002, 9.986092e+001
5.820849e+002, 9.940000e+001
5.825670e+002, 9.938288e+001
5.830491e+002, 9.970618e+001
5.835313e+002, 1.000370e+002
5.840134e+002, 1.003210e+002
5.844955e+002, 1.004653e+002
5.849776e+002, 1.002673e+002
5.854597e+002, 9.979988e+001
5.859418e+002, 9.947000e+001
5.864240e+002, 9.957743e+001
5.869061e+002, 9.979559e+001
5.873882e+002, 9.992468e+001
5.878703e+002, 9.990120e+001
5.883524e+002, 9.995020e+001
5.888345e+002, 1.002193e+002
5.893167e+002, 1.004911e+002
5.897988e+002, 1.006082e+002
5.902809e+002, 1.005893e+002
5.907630e+002, 1.003424e+002
5.912451e+002, 9.975822e+001
5.917272e+002, 9.904666e+001
5.922094e+002, 9.863624e+001
5.926915e+002, 9.855090e+001
5.931736e+002, 9.844267e+001
5.936557e+002, 9.818735e+001
5.941378e+002, 9.783799e+001
5.946199e+002, 9.753504e+001
5.951021e+002, 9.726968e+001
5.955842e+002, 9.694569e+001
5.960663e+002, 9.627620e+001
5.965484e+002, 9.563344e+001
5.970305e+002, 9.555207e+001
5.975126e+002, 9.609417e+001
5.979948e+002, 9.657455e+001
5.984769e+002, 9.651078e+001
5.989590e+002, 9.626846e+001
5.994411e+002, 9.616779e+001
5.999232e+002, 9.640932e+001
6.004053e+002, 9.656462e+001
6.008875e+002, 9.658969e+001
6.013696e+002, 9.648608e+001
6.018517e+002, 9.623219e+001
6.023338e+002, 9.571910e+001
6.028159e+002, 9.526955e+001
6.032980e+002, 9.491418e+001
6.037802e+002, 9.467130e+001
6.042623e+002, 9.463866e+001
6.047444e+002, 9.484029e+001
6.052265e+002, 9.504503e+001
6.057086e+002, 9.507719e+001
6.061907e+002, 9.501594e+001
6.066729e+002, 9.525593e+001
6.071550e+002, 9.578589e+001
6.076371e+002, 9.610680e+001
6.081192e+002, 9.550507e+001
6.086013e+002, 9.457872e+001
6.090834e+002, 9.416821e+001
6.095656e+002, 9.451704e+001
6.100477e+002, 9.491752e+001
6.105298e+002, 9.492407e+001
6.110119e+002, 9.479647e+001
6.114940e+002, 9.482707e+001
6.119761e+002, 9.531208e+001
6.124583e+002, 9.568909e+001
6.129404e+002, 9.584819e+001
6.134225e+002, 9.585439e+001
6.139046e+002, 9.583647e+001
6.143867e+002, 9.576900e+001
6.148688e+002, 9.573447e+001
6.153510e+002, 9.575710e+001
6.158331e+002, 9.583212e+001
6.163152e+002, 9.594833e+001
6.167973e+002, 9.611073e+001
6.172794e+002, 9.624423e+001
6.177615e+002, 9.617788e+001
6.182437e+002, 9.604573e+001
6.187258e+002, 9.634395e+001
6.192079e+002, 9.711906e+001
6.196900e+002, 9.778307e+001
6.201721e+002, 9.771269e+001
6.206542e+002, 9.728787e+001
6.211364e+002, 9.697890e+001
6.216185e+002, 9.690322e+001
6.221006e+002, 9.692829e+001
6.225827e+002, 9.704121e+001
6.230648e+002, 9.720642e+001
6.235469e+002, 9.737389e+001
6.240291e+002, 9.776183e+001
6.245112e+002, 9.786766e+001
6.249933e+002, 9.742233e+001
6.254754e+002, 9.666015e+001
6.259575e+002, 9.640239e+001
6.264396e+002, 9.677748e+001
6.269218e+002, 9.729286e+001
6.274039e+002, 9.787904e+001
6.278860e+002, 9.846410e+001
6.283681e+002, 9.852300e+001
6.288502e+002, 9.803965e+001
6.293323e+002, 9.745461e+001
6.298145e+002, 9.694576e+001
6.302966e+002, 9.660519e+001
6.307787e+002, 9.672990e+001
6.312608e+002, 9.738969e+001
6.317429e+002, 9.793118e+001
6.322250e+002, 9.767519e+001
6.327072e+002, 9.712949e+001
6.331893e+002, 9.685001e+001
6.336714e+002, 9.714223e+001
6.341535e+002, 9.742338e+001
6.346356e+002, 9.754443e+001
6.351177e+002, 9.756081e+001
6.355999e+002, 9.756282e+001
6.360820e+002, 9.752808e+001
6.365641e+002, 9.752699e+001
6.370462e+002, 9.761523e+001
6.375283e+002, 9.773286e+001
6.380104e+002, 9.767397e+001
6.384926e+002, 9.742317e+001
6.389747e+002, 9.708998e+001
6.394568e+002, 9.664993e+001
6.399389e+002, 9.617500e+001
6.404210e+002, 9.589945e+001
6.409031e+002, 9.582039e+001
6.413853e+002, 9.591316e+001
6.418674e+002, 9.632397e+001
6.423495e+002, 9.681513e+001
6.428316e+002, 9.706069e+001
6.433137e+002, 9.700330e+001
6.437958e+002, 9.696227e+001
6.442780e+002, 9.719593e+001
6.447601e+002, 9.746371e+001
6.452422e+002, 9.753773e+001
6.457243e+002, 9.700982e+001
6.462064e+002, 9.687748e+001
6.466885e+002, 9.744949e+001
6.471707e+002, 9.827312e+001
6.476528e+002, 9.874249e+001
6.481349e+002, 9.878935e+001
6.486170e+002, 9.869812e+001
6.490991e+002, 9.848708e+001
6.495812e+002, 9.819910e+001
6.500634e+002, 9.787395e+001
6.505455e+002, 9.752135e+001
6.510276e+002, 9.731991e+001
6.515097e+002, 9.739689e+001
6.519918e+002, 9.764613e+001
6.524739e+002, 9.797986e+001
6.529561e+002, 9.836320e+001
6.534382e+002, 9.863480e+001
6.539203e+002, 9.856960e+001
6.544024e+002, 9.845296e+001
6.548845e+002, 9.851308e+001
6.553666e+002, 9.879326e+001
6.558488e+002, 9.897672e+001
6.563309e+002, 9.891959e+001
6.568130e+002, 9.879894e+001
6.572951e+002, 9.870615e+001
6.577772e+002, 9.859219e+001
6.582593e+002, 9.866877e+001
6.587415e+002, 9.903421e+001
6.592236e+002, 9.943199e+001
6.597057e+002, 9.954810e+001
6.601878e+002, 9.938815e+001
6.606699e+002, 9.918135e+001
6.611520e+002, 9.893599e+001
6.616342e+002, 9.875063e+001
6.621163e+002, 9.879461e+001
6.625984e+002, 9.901374e+001
6.630805e+002, 9.926690e+001
6.635626e+002, 9.952758e+001
6.640447e+002, 9.976988e+001
6.645269e+002, 1.000411e+002
6.650090e+002, 1.002848e+002
6.654911e+002, 1.003445e+002
6.659732e+002, 9.975810e+001
6.664553e+002, 9.938737e+001
6.669374e+002, 9.975935e+001
6.674196e+002, 1.007977e+002
6.679017e+002, 1.012932e+002
6.683838e+002, 1.010627e+002
6.688659e+002, 1.006405e+002
6.693480e+002, 1.002130e+002
6.698301e+002, 9.978413e+001
6.703123e+002, 9.968116e+001
6.707944e+002, 9.994263e+001
6.712765e+002, 1.002375e+002
6.717586e+002, 1.001661e+002
6.722407e+002, 9.992712e+001
6.727228e+002, 1.000224e+002
6.732050e+002, 1.005720e+002
6.736871e+002, 1.011109e+002
6.741692e+002, 1.012747e+002
6.746513e+002, 1.012413e+002
6.751334e+002, 1.012152e+002
6.756155e+002, 1.012652e+002
6.760977e+002, 1.012980e+002
6.765798e+002, 1.012882e+002
6.770619e+002, 1.012491e+002
6.775440e+002, 1.011902e+002
6.780261e+002, 1.010532e+002
6.785082e+002, 1.010395e+002
6.789904e+002, 1.012558e+002
6.794725e+002, 1.015677e+002
6.799546e+002, 1.015637e+002
6.804367e+002, 1.012413e+002
6.809188e+002, 1.010206e+002
6.814009e+002, 1.011137e+002
6.818831e+002, 1.014016e+002
6.823652e+002, 1.017172e+002
6.828473e+002, 1.020484e+002
6.833294e+002, 1.023171e+002
6.838115e+002, 1.024736e+002
6.842936e+002, 1.025569e+002
6.847758e+002, 1.026073e+002
6.852579e+002, 1.026257e+002
6.857400e+002, 1.025577e+002
6.862221e+002, 1.020842e+002
6.867042e+002, 1.017858e+002
6.871863e+002, 1.020398e+002
6.876685e+002, 1.030765e+002
6.881506e+002, 1.036213e+002
6.886327e+002, 1.035316e+002
6.891148e+002, 1.032551e+002
6.895969e+002, 1.031763e+002
6.900790e+002, 1.032822e+002
6.905612e+002, 1.034420e+002
6.910433e+002, 1.036703e+002
6.915254e+002, 1.037995e+002
6.920075e+002, 1.033603e+002
6.924896e+002, 1.027314e+002
6.929717e+002, 1.026916e+002
6.934539e+002, 1.038152e+002
6.939360e+002, 1.048466e+002
6.944181e+002, 1.047685e+002
6.949002e+002, 1.042009e+002
6.953823e+002, 1.041068e+002
6.958644e+002, 1.056219e+002
6.963466e+002, 1.064635e+002
6.968287e+002, 1.060012e+002
6.973108e+002, 1.047506e+002
6.977929e+002, 1.040646e+002
6.982750e+002, 1.040580e+002
6.987571e+002, 1.042153e+002
6.992393e+002, 1.044598e+002
6.997214e+002, 1.047041e+002
7.002035e+002, 1.045949e+002
7.006856e+002, 1.041759e+002
7.011677e+002, 1.038293e+002
7.016498e+002, 1.037930e+002
7.021320e+002, 1.039386e+002
7.026141e+002, 1.041366e+002
7.030962e+002, 1.043838e+002
7.035783e+002, 1.046899e+002
7.040604e+002, 1.052644e+002
7.045425e+002, 1.057323e+002
7.050247e+002, 1.058118e+002
7.055068e+002, 1.053795e+002
7.059889e+002, 1.051382e+002
7.064710e+002, 1.051899e+002
7.069531e+002, 1.053025e+002
7.074352e+002, 1.052895e+002
7.079174e+002, 1.051206e+002
7.083995e+002, 1.052294e+002
7.088816e+002, 1.056792e+002
7.093637e+002, 1.061398e+002
7.098458e+002, 1.062526e+002
7.103279e+002, 1.061097e+002
7.108101e+002, 1.059084e+002
7.112922e+002, 1.056545e+002
7.117743e+002, 1.054879e+002
7.122564e+002, 1.055391e+002
7.127385e+002, 1.057286e+002
7.132206e+002, 1.059669e+002
7.137028e+002, 1.063350e+002
7.141849e+002, 1.066047e+002
7.146670e+002, 1.066013e+002
7.151491e+002, 1.065285e+002
7.156312e+002, 1.066903e+002
7.161133e+002, 1.072155e+002
7.165955e+002, 1.075969e+002
7.170776e+002, 1.076976e+002
7.175597e+002, 1.076635e+002
7.180418e+002, 1.078480e+002
7.185239e+002, 1.082209e+002
7.190060e+002, 1.084776e+002
7.194882e+002, 1.084873e+002
7.199703e+002, 1.083313e+002
7.204524e+002, 1.079829e+002
7.209345e+002, 1.075369e+002
7.214166e+002, 1.072654e+002
7.218987e+002, 1.074495e+002
7.223809e+002, 1.076936e+002
7.228630e+002, 1.077767e+002
7.233451e+002, 1.077247e+002
7.238272e+002, 1.078186e+002
7.243093e+002, 1.081737e+002
7.247914e+002, 1.085264e+002
7.252736e+002, 1.088386e+002
7.257557e+002, 1.090907e+002
7.262378e+002, 1.088899e+002
7.267199e+002, 1.081598e+002
7.272020e+002, 1.076248e+002
7.276841e+002, 1.080011e+002
7.281663e+002, 1.088602e+002
7.286484e+002, 1.091878e+002
7.291305e+002, 1.089694e+002
7.296126e+002, 1.087481e+002
7.300947e+002, 1.090796e+002
7.305768e+002, 1.094341e+002
7.310590e+002, 1.092659e+002
7.315411e+002, 1.083344e+002
7.320232e+002, 1.078024e+002
7.325053e+002, 1.081540e+002
7.329874e+002, 1.087436e+002
7.334695e+002, 1.092136e+002
7.339517e+002, 1.095464e+002
7.344338e+002, 1.097999e+002
7.349159e+002, 1.099646e+002
7.353980e+002, 1.100790e+002
7.358801e+002, 1.102047e+002
7.363622e+002, 1.103203e+002
7.368444e+002, 1.102874e+002
7.373265e+002, 1.100412e+002
7.378086e+002, 1.098767e+002
7.382907e+002, 1.101984e+002
7.387728e+002, 1.107243e+002
7.392549e+002, 1.110842e+002
7.397371e+002, 1.111281e+002
7.402192e+002, 1.110910e+002
7.407013e+002, 1.109315e+002
7.411834e+002, 1.107729e+002
7.416655e+002, 1.107849e+002
7.421476e+002, 1.110647e+002
7.426298e+002, 1.112699e+002
7.431119e+002, 1.113204e+002
7.435940e+002, 1.113277e+002
7.440761e+002, 1.115153e+002
7.445582e+002, 1.118632e+002
7.450403e+002, 1.122076e+002
7.455225e+002, 1.125254e+002
7.460046e+002, 1.127693e+002
7.464867e+002, 1.128528e+002
7.469688e+002, 1.128209e+002
7.474509e+002, 1.127705e+002
7.479330e+002, 1.127608e+002
7.484152e+002, 1.127200e+002
7.488973e+002, 1.125221e+002
7.493794e+002, 1.122653e+002
7.498615e+002, 1.122963e+002
7.503436e+002, 1.129512e+002
7.508257e+002, 1.132783e+002
7.513079e+002, 1.129125e+002
7.517900e+002, 1.121011e+002
7.522721e+002, 1.117237e+002
7.527542e+002, 1.117779e+002
7.532363e+002, 1.120424e+002
7.537184e+002, 1.125708e+002
7.542006e+002, 1.131400e+002
7.546827e+002, 1.133021e+002
7.551648e+002, 1.131619e+002
7.556469e+002, 1.131489e+002
7.561290e+002, 1.138249e+002
7.566111e+002, 1.143784e+002
7.570933e+002, 1.142019e+002
7.575754e+002, 1.133370e+002
7.580575e+002, 1.128984e+002
7.585396e+002, 1.131512e+002
7.590217e+002, 1.135194e+002
7.595038e+002, 1.138066e+002
7.599860e+002, 1.140162e+002
7.604681e+002, 1.142414e+002
7.609502e+002, 1.144885e+002
7.614323e+002, 1.146517e+002
7.619144e+002, 1.145705e+002
7.623965e+002, 1.143901e+002
7.628787e+002, 1.143896e+002
7.633608e+002, 1.145652e+002
7.638429e+002, 1.147738e+002
7.643250e+002, 1.149281e+002
7.648071e+002, 1.150864e+002
7.652892e+002, 1.152930e+002
7.657714e+002, 1.155621e+002
7.662535e+002, 1.158223e+002
7.667356e+002, 1.161342e+002
7.672177e+002, 1.163548e+002
7.676998e+002, 1.163766e+002
7.681819e+002, 1.161852e+002
7.686641e+002, 1.160309e+002
7.691462e+002, 1.159044e+002
7.696283e+002, 1.158978e+002
7.701104e+002, 1.162511e+002
7.705925e+002, 1.167339e+002
7.710746e+002, 1.168450e+002
7.715568e+002, 1.165241e+002
7.720389e+002, 1.162061e+002
7.725210e+002, 1.160672e+002
7.730031e+002, 1.161032e+002
7.734852e+002, 1.163790e+002
7.739673e+002, 1.170910e+002
7.744495e+002, 1.173952e+002
7.749316e+002, 1.170216e+002
7.754137e+002, 1.165315e+002
7.758958e+002, 1.163048e+002
7.763779e+002, 1.163447e+002
7.768600e+002, 1.166925e+002
7.773422e+002, 1.174039e+002
7.778243e+002, 1.180934e+002
7.783064e+002, 1.183647e+002
7.787885e+002, 1.183411e+002
7.792706e+002, 1.182166e+002
7.797527e+002, 1.180020e+002
7.802349e+002, 1.178326e+002
7.807170e+002, 1.178548e+002
7.811991e+002, 1.179236e+002
7.816812e+002, 1.178994e+002
7.821633e+002, 1.176211e+002
7.826454e+002, 1.175547e+002
7.831276e+002, 1.178548e+002
7.836097e+002, 1.181828e+002
7.840918e+002, 1.180548e+002
7.845739e+002, 1.174526e+002
7.850560e+002, 1.175920e+002
7.855381e+002, 1.187284e+002
7.860203e+002, 1.198590e+002
7.865024e+002, 1.195903e+002
7.869845e+002, 1.186194e+002
7.874666e+002, 1.181880e+002
7.879487e+002, 1.187105e+002
7.884308e+002, 1.193243e+002
7.889130e+002, 1.196958e+002
7.893951e+002, 1.199019e+002
7.898772e+002, 1.200149e+002
7.903593e+002, 1.199201e+002
7.908414e+002, 1.199619e+002
7.913235e+002, 1.201947e+002
7.918057e+002, 1.204895e+002
7.922878e+002, 1.206975e+002
7.927699e+002, 1.208227e+002
7.932520e+002, 1.208809e+002
7.937341e+002, 1.208557e+002
7.942162e+002, 1.208509e+002
7.946984e+002, 1.210542e+002
7.951805e+002, 1.213305e+002
7.956626e+002, 1.214560e+002
7.961447e+002, 1.213162e+002
7.966268e+002, 1.211690e+002
7.971089e+002, 1.210629e+002
7.975911e+002, 1.210222e+002
7.980732e+002, 1.210854e+002
7.985553e+002, 1.213697e+002
7.990374e+002, 1.214635e+002
7.995195e+002, 1.212777e+002
8.000016e+002, 1.210285e+002
8.004838e+002, 1.209885e+002
8.009659e+002, 1.211350e+002
8.014480e+002, 1.213428e+002
8.019301e+002, 1.216002e+002
8.024122e+002, 1.218671e+002
8.028943e+002, 1.221179e+002
8.033765e+002, 1.223462e+002
8.038586e+002, 1.225475e+002
8.043407e+002, 1.227256e+002
8.048228e+002, 1.228657e+002
8.053049e+002, 1.229656e+002
8.057870e+002, 1.230236e+002
8.062692e+002, 1.229888e+002
8.067513e+002, 1.227575e+002
8.072334e+002, 1.229204e+002
8.077155e+002, 1.236563e+002
8.081976e+002, 1.244247e+002
8.086797e+002, 1.244516e+002
8.091619e+002, 1.239362e+002
8.096440e+002, 1.234039e+002
8.101261e+002, 1.229032e+002
8.106082e+002, 1.226481e+002
8.110903e+002, 1.230022e+002
8.115724e+002, 1.235927e+002
8.120546e+002, 1.240084e+002
8.125367e+002, 1.240114e+002
8.130188e+002, 1.241017e+002
8.135009e+002, 1.243485e+002
8.139830e+002, 1.246502e+002
8.144651e+002, 1.249122e+002
8.149473e+002, 1.251410e+002
8.154294e+002, 1.252776e+002
8.159115e+002, 1.253097e+002
8.163936e+002, 1.252917e+002
8.168757e+002, 1.251812e+002
8.173578e+002, 1.250934e+002
8.178400e+002, 1.252245e+002
8.183221e+002, 1.256235e+002
8.188042e+002, 1.262231e+002
8.192863e+002, 1.273967e+002
8.197684e+002, 1.285191e+002
8.202505e+002, 1.289458e+002
8.207327e+002, 1.283422e+002
8.212148e+002, 1.277178e+002
8.216969e+002, 1.269533e+002
8.221790e+002, 1.263776e+002
8.226611e+002, 1.265038e+002
8.231432e+002, 1.271997e+002
8.236254e+002, 1.275696e+002
8.241075e+002, 1.274814e+002
8.245896e+002, 1.273978e+002
8.250717e+002, 1.279914e+002
8.255538e+002, 1.286992e+002
8.260359e+002, 1.287785e+002
8.265181e+002, 1.278438e+002
8.270002e+002, 1.272049e+002
8.274823e+002, 1.274854e+002
8.279644e+002, 1.279042e+002
8.284465e+002, 1.279075e+002
8.289286e+002, 1.273353e+002
8.294108e+002, 1.272265e+002
8.298929e+002, 1.276881e+002
8.303750e+002, 1.281669e+002
8.308571e+002, 1.279951e+002
8.313392e+002, 1.274969e+002
8.318214e+002, 1.274012e+002
8.323035e+002, 1.277931e+002
8.327856e+002, 1.282562e+002
8.332677e+002, 1.286416e+002
8.337498e+002, 1.289109e+002
8.342319e+002, 1.289875e+002
8.347141e+002, 1.287709e+002
8.351962e+002, 1.287674e+002
8.356783e+002, 1.290990e+002
8.361604e+002, 1.294300e+002
8.366425e+002, 1.294463e+002
8.371246e+002, 1.291890e+002
8.376068e+002, 1.294108e+002
8.380889e+002, 1.301186e+002
8.385710e+002, 1.307480e+002
8.390531e+002, 1.307733e+002
8.395352e+002, 1.305485e+002
8.400173e+002, 1.304380e+002
8.404995e+002, 1.304684e+002
8.409816e+002, 1.305202e+002
8.414637e+002, 1.304518e+002
8.419458e+002, 1.305086e+002
8.424279e+002, 1.308888e+002
8.429100e+002, 1.315796e+002
8.433922e+002, 1.318075e+002
8.438743e+002, 1.314904e+002
8.443564e+002, 1.311545e+002
8.448385e+002, 1.311141e+002
8.453206e+002, 1.312791e+002
8.458027e+002, 1.315223e+002
8.462849e+002, 1.318101e+002
8.467670e+002, 1.319479e+002
8.472491e+002, 1.315543e+002
8.477312e+002, 1.312317e+002
8.482133e+002, 1.314858e+002
8.486954e+002, 1.322298e+002
8.491776e+002, 1.324908e+002
8.496597e+002, 1.319444e+002
8.501418e+002, 1.315430e+002
8.506239e+002, 1.316598e+002
8.511060e+002, 1.321268e+002
8.515881e+002, 1.323545e+002
8.520703e+002, 1.323766e+002
8.525524e+002, 1.324737e+002
8.530345e+002, 1.328807e+002
8.535166e+002, 1.333326e+002
8.539987e+002, 1.335033e+002
8.544808e+002, 1.335268e+002
8.549630e+002, 1.337460e+002
8.554451e+002, 1.348228e+002
8.559272e+002, 1.353762e+002
8.564093e+002, 1.348662e+002
8.568914e+002, 1.338023e+002
8.573735e+002, 1.333741e+002
8.578557e+002, 1.336356e+002
8.583378e+002, 1.338310e+002
8.588199e+002, 1.336808e+002
8.593020e+002, 1.335366e+002
8.597841e+002, 1.340094e+002
8.602662e+002, 1.348725e+002
8.607484e+002, 1.356724e+002
8.612305e+002, 1.365087e+002
8.617126e+002, 1.368756e+002
8.621947e+002, 1.360733e+002
8.626768e+002, 1.349016e+002
8.631589e+002, 1.345540e+002
8.636411e+002, 1.354858e+002
8.641232e+002, 1.358504e+002
8.646053e+002, 1.352822e+002
8.650874e+002, 1.345899e+002
8.655695e+002, 1.351259e+002
8.660516e+002, 1.364276e+002
8.665338e+002, 1.369123e+002
8.670159e+002, 1.361209e+002
8.674980e+002, 1.353720e+002
8.679801e+002, 1.358015e+002
8.684622e+002, 1.366133e+002
8.689443e+002, 1.370094e+002
8.694265e+002, 1.366013e+002
8.699086e+002, 1.364434e+002
8.703907e+002, 1.366196e+002
8.708728e+002, 1.369230e+002
8.713549e+002, 1.372044e+002
8.718370e+002, 1.374661e+002
8.723192e+002, 1.377388e+002
8.728013e+002, 1.380290e+002
8.732834e+002, 1.382377e+002
8.737655e+002, 1.382109e+002
8.742476e+002, 1.381092e+002
8.747297e+002, 1.380720e+002
8.752119e+002, 1.381118e+002
8.756940e+002, 1.382390e+002
8.761761e+002, 1.384503e+002
8.766582e+002, 1.387671e+002
8.771403e+002, 1.392967e+002
8.776224e+002, 1.399946e+002
8.781046e+002, 1.401875e+002
8.785867e+002, 1.398573e+002
8.790688e+002, 1.394334e+002
8.795509e+002, 1.390547e+002
8.800330e+002, 1.388129e+002
8.805151e+002, 1.389010e+002
8.809973e+002, 1.392596e+002
8.814794e+002, 1.396560e+002
8.819615e+002, 1.401892e+002
8.824436e+002, 1.405323e+002
8.829257e+002, 1.404087e+002
8.834078e+002, 1.400220e+002
8.838900e+002, 1.399928e+002
8.843721e+002, 1.404229e+002
8.848542e+002, 1.406271e+002
8.853363e+002, 1.402683e+002
8.858184e+002, 1.398093e+002
8.863005e+002, 1.401900e+002
8.867827e+002, 1.411253e+002
8.872648e+002, 1.418758e+002
8.877469e+002, 1.420197e+002
8.882290e+002, 1.421509e+002
8.887111e+002, 1.426239e+002
8.891932e+002, 1.431981e+002
8.896754e+002, 1.435302e+002
8.901575e+002, 1.435698e+002
8.906396e+002, 1.434551e+002
8.911217e+002, 1.431429e+002
8.916038e+002, 1.428093e+002
8.920859e+002, 1.426733e+002
8.925681e+002, 1.426945e+002
8.930502e+002, 1.427111e+002
8.935323e+002, 1.426711e+002
8.940144e+002, 1.428284e+002
8.944965e+002, 1.437034e+002
8.949786e+002, 1.446226e+002
8.954608e+002, 1.449440e+002
8.959429e+002, 1.443523e+002
8.964250e+002, 1.440899e+002
8.969071e+002, 1.442474e+002
8.973892e+002, 1.445545e+002
8.978713e+002, 1.448876e+002
8.983535e+002, 1.452246e+002
8.988356e+002, 1.454170e+002
8.993177e+002, 1.454670e+002
8.997998e+002, 1.454274e+002
9.002819e+002, 1.451306e+002
9.007640e+002, 1.449255e+002
9.012462e+002, 1.452125e+002
9.017283e+002, 1.459294e+002
9.022104e+002, 1.463280e+002
9.026925e+002, 1.460686e+002
9.031746e+002, 1.459313e+002
9.036567e+002, 1.461680e+002
9.041389e+002, 1.466753e+002
9.046210e+002, 1.472406e+002
9.051031e+002, 1.478265e+002
9.055852e+002, 1.481075e+002
9.060673e+002, 1.477690e+002
9.065494e+002, 1.473221e+002
9.070316e+002, 1.470794e+002
9.075137e+002, 1.470876e+002
9.079958e+002, 1.474300e+002
9.084779e+002, 1.487886e+002
9.089600e+002, 1.495403e+002
9.094421e+002, 1.493167e+002
9.099243e+002, 1.486842e+002
9.104064e+002, 1.483451e+002
9.108885e+002, 1.482961e+002
9.113706e+002, 1.484715e+002
9.118527e+002, 1.488899e+002
9.123348e+002, 1.493510e+002
9.128170e+002, 1.498044e+002
9.132991e+002, 1.501184e+002
9.137812e+002, 1.500453e+002
9.142633e+002, 1.493665e+002
9.147454e+002, 1.490941e+002
9.152275e+002, 1.496886e+002
9.157097e+002, 1.503508e+002
9.161918e+002, 1.505891e+002
9.166739e+002, 1.504124e+002
9.171560e+002, 1.503877e+002
9.176381e+002, 1.505149e+002
9.181202e+002, 1.507875e+002
9.186024e+002, 1.514617e+002
9.190845e+002, 1.520957e+002
9.195666e+002, 1.520371e+002
9.200487e+002, 1.514235e+002
9.205308e+002, 1.511086e+002
9.210129e+002, 1.515720e+002
9.214951e+002, 1.521097e+002
9.219772e+002, 1.526674e+002
9.224593e+002, 1.531214e+002
9.229414e+002, 1.529087e+002
9.234235e+002, 1.520493e+002
9.239056e+002, 1.516183e+002
9.243878e+002, 1.520818e+002
9.248699e+002, 1.528889e+002
9.253520e+002, 1.536362e+002
9.258341e+002, 1.542340e+002
9.263162e+002, 1.545412e+002
9.267983e+002, 1.541048e+002
9.272805e+002, 1.540288e+002
9.277626e+002, 1.547193e+002
9.282447e+002, 1.555208e+002
9.287268e+002, 1.557135e+002
9.292089e+002, 1.552960e+002
9.296910e+002, 1.549296e+002
9.301732e+002, 1.546530e+002
9.306553e+002, 1.545664e+002
9.311374e+002, 1.548537e+002
9.316195e+002, 1.553302e+002
9.321016e+002, 1.558613e+002
9.325837e+002, 1.564309e+002
9.330659e+002, 1.567966e+002
9.335480e+002, 1.567453e+002
9.340301e+002, 1.566385e+002
9.345122e+002, 1.565098e+002
9.349943e+002, 1.564232e+002
9.354764e+002, 1.570110e+002
9.359586e+002, 1.582528e+002
9.364407e+002, 1.592509e+002
9.369228e+002, 1.594232e+002
9.374049e+002, 1.592756e+002
9.378870e+002, 1.592745e+002
9.383691e+002, 1.593697e+002
9.388513e+002, 1.594460e+002
9.393334e+002, 1.593983e+002
9.398155e+002, 1.594413e+002
9.402976e+002, 1.596290e+002
9.407797e+002, 1.598974e+002
9.412618e+002, 1.601965e+002
9.417440e+002, 1.605144e+002
9.422261e+002, 1.606019e+002
9.427082e+002, 1.603728e+002
9.431903e+002, 1.601750e+002
9.436724e+002, 1.603083e+002
9.441545e+002, 1.606657e+002
9.446367e+002, 1.611564e+002
9.451188e+002, 1.617853e+002
9.456009e+002, 1.624563e+002
9.460830e+002, 1.631899e+002
9.465651e+002, 1.639052e+002
9.470472e+002, 1.646409e+002
9.475294e+002, 1.653465e+002
9.480115e+002, 1.653812e+002
9.484936e+002, 1.648120e+002
9.489757e+002, 1.644258e+002
9.494578e+002, 1.648565e+002
9.499399e+002, 1.655448e+002
9.504221e+002, 1.661022e+002
9.509042e+002, 1.665599e+002
9.513863e+002, 1.670548e+002
9.518684e+002, 1.675271e+002
9.523505e+002, 1.682350e+002
9.528326e+002, 1.693706e+002
9.533148e+002, 1.705838e+002
9.537969e+002, 1.710976e+002
9.542790e+002, 1.710798e+002
9.547611e+002, 1.711931e+002
9.552432e+002, 1.715351e+002
9.557253e+002, 1.722742e+002
9.562075e+002, 1.740289e+002
9.566896e+002, 1.759455e+002
9.571717e+002, 1.770707e+002
9.576538e+002, 1.768522e+002
9.581359e+002, 1.774497e+002
9.586180e+002, 1.791219e+002
9.591002e+002, 1.809606e+002
9.595823e+002, 1.822453e+002
9.600644e+002, 1.831718e+002
9.605465e+002, 1.842508e+002
9.610286e+002, 1.855079e+002
9.615107e+002, 1.870109e+002
9.619929e+002, 1.892442e+002
9.624750e+002, 1.913091e+002
9.629571e+002, 1.925800e+002
9.634392e+002, 1.932817e+002
9.639213e+002, 1.942678e+002
9.644034e+002, 1.955113e+002
9.648856e+002, 1.971808e+002
9.653677e+002, 1.994771e+002
9.658498e+002, 2.018988e+002
9.663319e+002, 2.034878e+002
9.668140e+002, 2.046432e+002
9.672961e+002, 2.062350e+002
9.677783e+002, 2.088084e+002
9.682604e+002, 2.110230e+002
9.687425e+002, 2.119604e+002
9.692246e+002, 2.126672e+002
9.697067e+002, 2.140775e+002
9.701888e+002, 2.163483e+002
9.706710e+002, 2.180093e+002
9.711531e+002, 2.190218e+002
9.716352e+002, 2.196587e+002
9.721173e+002, 2.199595e+002
9.725994e+002, 2.200928e+002
9.730815e+002, 2.203855e+002
9.735637e+002, 2.207605e+002
9.740458e+002, 2.207585e+002
9.745279e+002, 2.205414e+002
9.750100e+002, 2.194588e+002
9.754921e+002, 2.170354e+002
9.759742e+002, 2.138615e+002
9.764564e+002, 2.114313e+002
9.769385e+002, 2.096845e+002
9.774206e+002, 2.077713e+002
9.779027e+002, 2.054170e+002
9.783848e+002, 2.030809e+002
9.788669e+002, 2.010662e+002
9.793491e+002, 1.993794e+002
9.798312e+002, 1.980799e+002
9.803133e+002, 1.974839e+002
9.807954e+002, 1.964259e+002
9.812775e+002, 1.945238e+002
9.817596e+002, 1.927398e+002
9.822418e+002, 1.918999e+002
9.827239e+002, 1.917803e+002
9.832060e+002, 1.911564e+002
9.836881e+002, 1.900711e+002
9.841702e+002, 1.889913e+002
9.846523e+002, 1.881553e+002
9.851345e+002, 1.874530e+002
9.856166e+002, 1.868086e+002
9.860987e+002, 1.862403e+002
9.865808e+002, 1.857995e+002
9.870629e+002, 1.855053e+002
9.875450e+002, 1.852958e+002
9.880272e+002, 1.851952e+002
9.885093e+002, 1.850913e+002
9.889914e+002, 1.848671e+002
9.894735e+002, 1.845048e+002
9.899556e+002, 1.838770e+002
9.904377e+002, 1.828218e+002
9.909199e+002, 1.820977e+002
9.914020e+002, 1.823288e+002
9.918841e+002, 1.827437e+002
9.923662e+002, 1.827620e+002
9.928483e+002, 1.823599e+002
9.933304e+002, 1.825143e+002
9.938126e+002, 1.832634e+002
9.942947e+002, 1.839004e+002
9.947768e+002, 1.840075e+002
9.952589e+002, 1.837385e+002
9.957410e+002, 1.831040e+002
9.962231e+002, 1.822434e+002
9.967053e+002, 1.815339e+002
9.971874e+002, 1.810867e+002
9.976695e+002, 1.808190e+002
9.981516e+002, 1.807289e+002
9.986337e+002, 1.807962e+002
9.991158e+002, 1.811074e+002
9.995980e+002, 1.815956e+002
1.000080e+003, 1.817162e+002
1.000562e+003, 1.813516e+002
1.001044e+003, 1.809944e+002
1.001526e+003, 1.810998e+002
1.002009e+003, 1.813183e+002
1.002491e+003, 1.812950e+002
1.002973e+003, 1.809584e+002
1.003455e+003, 1.810567e+002
1.003937e+003, 1.818079e+002
1.004419e+003, 1.822942e+002
1.004901e+003, 1.819402e+002
1.005383e+003, 1.811907e+002
1.005865e+003, 1.810330e+002
1.006348e+003, 1.812977e+002
1.006830e+003, 1.814973e+002
1.007312e+003, 1.814416e+002
1.007794e+003, 1.812609e+002
1.008276e+003, 1.806229e+002
1.008758e+003, 1.801155e+002
1.009240e+003, 1.804218e+002
1.009722e+003, 1.816087e+002
1.010205e+003, 1.830776e+002
1.010687e+003, 1.848795e+002
1.011169e+003, 1.862567e+002
1.011651e+003, 1.864799e+002
1.012133e+003, 1.859912e+002
1.012615e+003, 1.850716e+002
1.013097e+003, 1.837879e+002
1.013579e+003, 1.826962e+002
1.014061e+003, 1.817741e+002
1.014544e+003, 1.812478e+002
1.015026e+003, 1.812969e+002
1.015508e+003, 1.816889e+002
1.015990e+003, 1.817637e+002
1.016472e+003, 1.816538e+002
1.016954e+003, 1.819732e+002
1.017436e+003, 1.831637e+002
1.017918e+003, 1.841824e+002
1.018401e+003, 1.841283e+002
1.018883e+003, 1.837382e+002
1.019365e+003, 1.837706e+002
1.019847e+003, 1.843484e+002
1.020329e+003, 1.848733e+002
1.020811e+003, 1.853712e+002
1.021293e+003, 1.856816e+002
1.021775e+003, 1.855842e+002
1.022257e+003, 1.852856e+002
1.022740e+003, 1.850049e+002
1.023222e+003, 1.847936e+002
1.023704e+003, 1.848190e+002
1.024186e+003, 1.854708e+002
1.024668e+003, 1.859207e+002
1.025150e+003, 1.858575e+002
1.025632e+003, 1.856388e+002
1.026114e+003, 1.859709e+002
1.026596e+003, 1.867630e+002
1.027079e+003, 1.872451e+002
1.027561e+003, 1.872822e+002
1.028043e+003, 1.870963e+002
1.028525e+003, 1.865453e+002
1.029007e+003, 1.860842e+002
1.029489e+003, 1.862633e+002
1.029971e+003, 1.871735e+002
1.030453e+003, 1.874881e+002
1.030936e+003, 1.870030e+002
1.031418e+003, 1.866219e+002
1.031900e+003, 1.868185e+002
1.032382e+003, 1.872530e+002
1.032864e+003, 1.871234e+002
1.033346e+003, 1.866994e+002
1.033828e+003, 1.866370e+002
1.034310e+003, 1.875632e+002
1.034792e+003, 1.882659e+002
1.035275e+003, 1.883117e+002
1.035757e+003, 1.881440e+002
1.036239e+003, 1.881714e+002
1.036721e+003, 1.883949e+002
1.037203e+003, 1.883152e+002
1.037685e+003, 1.879223e+002
1.038167e+003, 1.876160e+002
1.038649e+003, 1.878057e+002
1.039132e+003, 1.881079e+002
1.039614e+003, 1.881062e+002
1.040096e+003, 1.879139e+002
1.040578e+003, 1.881738e+002
1.041060e+003, 1.891406e+002
1.041542e+003, 1.899657e+002
1.042024e+003, 1.905178e+002
1.042506e+003, 1.908099e+002
1.042989e+003, 1.907460e+002
1.043471e+003, 1.904690e+002
1.043953e+003, 1.902278e+002
1.044435e+003, 1.900224e+002
1.044917e+003, 1.901193e+002
1.045399e+003, 1.911115e+002
1.045881e+003, 1.919185e+002
1.046363e+003, 1.918791e+002
1.046845e+003, 1.911416e+002
1.047328e+003, 1.908991e+002
1.047810e+003, 1.911309e+002
1.048292e+003, 1.914802e+002
1.048774e+003, 1.917634e+002
1.049256e+003, 1.921311e+002
1.049738e+003, 1.928947e+002
1.050220e+003, 1.937648e+002
1.050702e+003, 1.942444e+002
1.051184e+003, 1.940571e+002
1.051667e+003, 1.940997e+002
1.052149e+003, 1.944508e+002
1.052631e+003, 1.948286e+002
1.053113e+003, 1.949977e+002
1.053595e+003, 1.950166e+002
1.054077e+003, 1.949305e+002
1.054559e+003, 1.947763e+002
1.055041e+003, 1.947651e+002
1.055523e+003, 1.948922e+002
1.056006e+003, 1.953431e+002
1.056488e+003, 1.964485e+002
1.056970e+003, 1.976632e+002
1.057452e+003, 1.975949e+002
1.057934e+003, 1.964377e+002
1.058416e+003, 1.960659e+002
1.058898e+003, 1.969411e+002
1.059380e+003, 1.979776e+002
1.059863e+003, 1.983254e+002
1.060345e+003, 1.984234e+002
1.060827e+003, 1.986175e+002
1.061309e+003, 1.989335e+002
1.061791e+003, 1.992266e+002
1.062273e+003, 1.995173e+002
1.062755e+003, 1.996557e+002
1.063237e+003, 1.994429e+002
1.063719e+003, 1.992131e+002
1.064202e+003, 1.996794e+002
1.064684e+003, 2.004732e+002
1.065166e+003, 2.008730e+002
1.065648e+003, 2.002365e+002
1.066130e+003, 1.999618e+002
1.066612e+003, 2.003545e+002
1.067094e+003, 2.008824e+002
1.067576e+003, 2.009935e+002
1.068059e+003, 2.008311e+002
1.068541e+003, 2.013963e+002
1.069023e+003, 2.025920e+002
1.069505e+003, 2.035182e+002
1.069987e+003, 2.032155e+002
1.070469e+003, 2.029467e+002
1.070951e+003, 2.035833e+002
1.071433e+003, 2.046293e+002
1.071916e+003, 2.050959e+002
1.072398e+003, 2.048907e+002
1.072880e+003, 2.049575e+002
1.073362e+003, 2.054744e+002
1.073844e+003, 2.059269e+002
1.074326e+003, 2.055943e+002
1.074808e+003, 2.050536e+002
1.075290e+003, 2.048893e+002
1.075772e+003, 2.051651e+002
1.076255e+003, 2.056845e+002
1.076737e+003, 2.066251e+002
1.077219e+003, 2.072992e+002
1.077701e+003, 2.073862e+002
1.078183e+003, 2.072190e+002
1.078665e+003, 2.075037e+002
1.079147e+003, 2.080431e+002
1.079629e+003, 2.083608e+002
1.080111e+003, 2.082533e+002
1.080594e+003, 2.081517e+002
1.081076e+003, 2.080465e+002
1.081558e+003, 2.081573e+002
1.082040e+003, 2.087429e+002
1.082522e+003, 2.097172e+002
1.083004e+003, 2.100868e+002
1.083486e+003, 2.099133e+002
1.083968e+003, 2.097676e+002
1.084450e+003, 2.099610e+002
1.084933e+003, 2.102824e+002
1.085415e+003, 2.106595e+002
1.085897e+003, 2.110539e+002
1.086379e+003, 2.114155e+002
1.086861e+003, 2.117359e+002
1.087343e+003, 2.120766e+002
1.087825e+003, 2.124599e+002
1.088307e+003, 2.127465e+002
1.088790e+003, 2.127374e+002
1.089272e+003, 2.126172e+002
1.089754e+003, 2.125383e+002
1.090236e+003, 2.125380e+002
1.090718e+003, 2.127725e+002
1.091200e+003, 2.135428e+002
1.091682e+003, 2.140440e+002
1.092164e+003, 2.141050e+002
1.092646e+003, 2.139031e+002
1.093129e+003, 2.135405e+002
1.093611e+003, 2.131591e+002
1.094093e+003, 2.131552e+002
1.094575e+003, 2.136096e+002
1.095057e+003, 2.140806e+002
1.095539e+003, 2.145047e+002
1.096021e+003, 2.147309e+002
1.096503e+003, 2.146444e+002
1.096986e+003, 2.143347e+002
1.097468e+003, 2.140329e+002
1.097950e+003, 2.137777e+002
1.098432e+003, 2.139308e+002
1.098914e+003, 2.147198e+002
1.099396e+003, 2.156407e+002
1.099878e+003, 2.166711e+002
1.100360e+003, 2.174169e+002
1.100843e+003, 2.173052e+002
1.101325e+003, 2.161709e+002
1.101807e+003, 2.161494e+002
1.102289e+003, 2.173685e+002
1.102771e+003, 2.183281e+002
1.103253e+003, 2.179540e+002
1.103735e+003, 2.170918e+002
1.104217e+003, 2.164618e+002
1.104699e+003, 2.161451e+002
1.105182e+003, 2.163170e+002
1.105664e+003, 2.174030e+002
1.106146e+003, 2.182615e+002
1.106628e+003, 2.188721e+002
1.107110e+003, 2.192454e+002
1.107592e+003, 2.193247e+002
1.108074e+003, 2.192058e+002
1.108556e+003, 2.190150e+002
1.109038e+003, 2.187951e+002
1.109521e+003, 2.187224e+002
1.110003e+003, 2.189048e+002
1.110485e+003, 2.192165e+002
1.110967e+003, 2.197533e+002
1.111449e+003, 2.202500e+002
1.111931e+003, 2.201537e+002
1.112413e+003, 2.196418e+002
1.112895e+003, 2.196176e+002
1.113377e+003, 2.201963e+002
1.113860e+003, 2.206567e+002
1.114342e+003, 2.203178e+002
1.114824e+003, 2.199916e+002
1.115306e+003, 2.202069e+002
1.115788e+003, 2.207687e+002
1.116270e+003, 2.210071e+002
1.116752e+003, 2.209312e+002
1.117234e+003, 2.208567e+002
1.117717e+003, 2.208082e+002
1.118199e+003, 2.210107e+002
1.118681e+003, 2.221158e+002
1.119163e+003, 2.232512e+002
1.119645e+003, 2.233598e+002
1.120127e+003, 2.223410e+002
1.120609e+003, 2.222501e+002
1.121091e+003, 2.232446e+002
1.121573e+003, 2.241622e+002
1.122056e+003, 2.244955e+002
1.122538e+003, 2.245303e+002
1.123020e+003, 2.244666e+002
1.123502e+003, 2.244270e+002
1.123984e+003, 2.246360e+002
1.124466e+003, 2.254049e+002
1.124948e+003, 2.257514e+002
1.125430e+003, 2.255195e+002
1.125913e+003, 2.252521e+002
1.126395e+003, 2.253828e+002
1.126877e+003, 2.257035e+002
1.127359e+003, 2.256619e+002
1.127841e+003, 2.254092e+002
1.128323e+003, 2.253623e+002
1.128805e+003, 2.260605e+002
1.129287e+003, 2.263905e+002
1.129770e+003, 2.259875e+002
1.130252e+003, 2.255263e+002
1.130734e+003, 2.257689e+002
1.131216e+003, 2.265140e+002
1.131698e+003, 2.269403e+002
1.132180e+003, 2.270518e+002
1.132662e+003, 2.271494e+002
1.133144e+003, 2.273010e+002
1.133626e+003, 2.275787e+002
1.134109e+003, 2.281141e+002
1.134591e+003, 2.286995e+002
1.135073e+003, 2.289590e+002
1.135555e+003, 2.289279e+002
1.136037e+003, 2.291661e+002
1.136519e+003, 2.297497e+002
1.137001e+003, 2.301022e+002
1.137483e+003, 2.295075e+002
1.137965e+003, 2.288434e+002
1.138448e+003, 2.286641e+002
1.138930e+003, 2.288772e+002
1.139412e+003, 2.292465e+002
1.139894e+003, 2.297899e+002
1.140376e+003, 2.302769e+002
1.140858e+003, 2.306730e+002
1.141340e+003, 2.309497e+002
1.141822e+003, 2.309653e+002
1.142304e+003, 2.309380e+002
1.142787e+003, 2.311005e+002
1.143269e+003, 2.314619e+002
1.143751e+003, 2.316576e+002
1.144233e+003, 2.316021e+002
1.144715e+003, 2.318571e+002
1.145197e+003, 2.326936e+002
1.145679e+003, 2.337061e+002
1.146161e+003, 2.347284e+002
1.146644e+003, 2.354124e+002
1.147126e+003, 2.351108e+002
1.147608e+003, 2.332153e+002
1.148090e+003, 2.324787e+002
1.148572e+003, 2.332803e+002
1.149054e+003, 2.341664e+002
1.149536e+003, 2.343773e+002
1.150018e+003, 2.343049e+002
1.150500e+003, 2.345967e+002
1.150983e+003, 2.351428e+002
1.151465e+003, 2.357409e+002
1.151947e+003, 2.364829e+002
1.152429e+003, 2.369453e+002
1.152911e+003, 2.370404e+002
1.153393e+003, 2.370069e+002
1.153875e+003, 2.368730e+002
1.154357e+003, 2.367860e+002
1.154840e+003, 2.373553e+002
1.155322e+003, 2.383410e+002
1.155804e+003, 2.389532e+002
1.156286e+003, 2.385186e+002
1.156768e+003, 2.382053e+002
1.157250e+003, 2.382405e+002
1.157732e+003, 2.383614e+002
1.158214e+003, 2.382832e+002
1.158697e+003, 2.380802e+002
1.159179e+003, 2.380098e+002
1.159661e+003, 2.381013e+002
1.160143e+003, 2.384795e+002
1.160625e+003, 2.396354e+002
1.161107e+003, 2.405308e+002
1.161589e+003, 2.407309e+002
1.162071e+003, 2.406521e+002
1.162553e+003, 2.408440e+002
1.163036e+003, 2.412469e+002
1.163518e+003, 2.413103e+002
1.164000e+003, 2.410344e+002
1.164482e+003, 2.411054e+002
1.164964e+003, 2.424899e+002
1.165446e+003, 2.437154e+002
1.165928e+003, 2.439990e+002
1.166410e+003, 2.437179e+002
1.166892e+003, 2.433747e+002
1.167375e+003, 2.430041e+002
1.167857e+003, 2.432652e+002
1.168339e+003, 2.442756e+002
1.168821e+003, 2.451715e+002
1.169303e+003, 2.450691e+002
1.169785e+003, 2.448935e+002
1.170267e+003, 2.453309e+002
1.170749e+003, 2.461591e+002
1.171231e+003, 2.468019e+002
1.171714e+003, 2.472597e+002
1.172196e+003, 2.473637e+002
1.172678e+003, 2.469789e+002
1.173160e+003, 2.468761e+002
1.173642e+003, 2.482431e+002
1.174124e+003, 2.497246e+002
1.174606e+003, 2.499661e+002
1.175088e+003, 2.492358e+002
1.175571e+003, 2.492108e+002
1.176053e+003, 2.499257e+002
1.176535e+003, 2.507406e+002
1.177017e+003, 2.515641e+002
1.177499e+003, 2.521461e+002
1.177981e+003, 2.520310e+002
1.178463e+003, 2.517106e+002
1.178945e+003, 2.516761e+002
1.179427e+003, 2.519512e+002
1.179910e+003, 2.522216e+002
1.180392e+003, 2.525069e+002
1.180874e+003, 2.525718e+002
1.181356e+003, 2.522547e+002
1.181838e+003, 2.518514e+002
1.182320e+003, 2.515403e+002
1.182802e+003, 2.514009e+002
1.183284e+003, 2.515983e+002
1.183767e+003, 2.522051e+002
1.184249e+003, 2.526201e+002
1.184731e+003, 2.528462e+002
1.185213e+003, 2.528679e+002
1.185695e+003, 2.525282e+002
1.186177e+003, 2.522172e+002
1.186659e+003, 2.527162e+002
1.187141e+003, 2.533985e+002
1.187624e+003, 2.532227e+002
1.188106e+003, 2.516451e+002
1.188588e+003, 2.509110e+002
1.189070e+003, 2.511047e+002
1.189552e+003, 2.517149e+002
1.190034e+003, 2.526413e+002
1.190516e+003, 2.536233e+002
1.190998e+003, 2.544825e+002
1.191480e+003, 2.551154e+002
1.191963e+003, 2.553008e+002
1.192445e+003, 2.547170e+002
1.192927e+003, 2.544771e+002
1.193409e+003, 2.546567e+002
1.193891e+003, 2.548130e+002
1.194373e+003, 2.544960e+002
1.194855e+003, 2.540821e+002
1.195337e+003, 2.540326e+002
1.195819e+003, 2.542749e+002
1.196302e+003, 2.546738e+002
1.196784e+003, 2.553651e+002
1.197266e+003, 2.557883e+002
1.197748e+003, 2.558643e+002
1.198230e+003, 2.559635e+002
1.198712e+003, 2.564919e+002
1.199194e+003, 2.571411e+002
1.199676e+003, 2.574624e+002
1.200158e+003, 2.575576e+002
1.200641e+003, 2.577322e+002
1.201123e+003, 2.582445e+002
1.201605e+003, 2.582464e+002
1.202087e+003, 2.575249e+002
1.202569e+003, 2.569897e+002
1.203051e+003, 2.578091e+002
1.203533e+003, 2.590697e+002
1.204015e+003, 2.594539e+002
1.204498e+003, 2.592007e+002
1.204980e+003, 2.593358e+002
1.205462e+003, 2.603275e+002
1.205944e+003, 2.608602e+002
1.206426e+003, 2.607182e+002
1.206908e+003, 2.605308e+002
1.207390e+003, 2.610418e+002
1.207872e+003, 2.617909e+002
1.208354e+003, 2.622536e+002
1.208837e+003, 2.624176e+002
1.209319e+003, 2.623161e+002
1.209801e+003, 2.617470e+002
1.210283e+003, 2.614846e+002
1.210765e+003, 2.616314e+002
1.211247e+003, 2.620490e+002
1.211729e+003, 2.626755e+002
1.212211e+003, 2.634319e+002
1.212694e+003, 2.643652e+002
1.213176e+003, 2.653799e+002
1.213658e+003, 2.658756e+002
1.214140e+003, 2.656757e+002
1.214622e+003, 2.654405e+002
1.215104e+003, 2.652752e+002
1.215586e+003, 2.650729e+002
1.216068e+003, 2.645477e+002
1.216551e+003, 2.640367e+002
1.217033e+003, 2.639872e+002
1.217515e+003, 2.643802e+002
1.217997e+003, 2.648058e+002
1.218479e+003, 2.652386e+002
1.218961e+003, 2.656829e+002
1.219443e+003, 2.661512e+002
1.219925e+003, 2.665912e+002
1.220407e+003, 2.669671e+002
1.220890e+003, 2.672638e+002
1.221372e+003, 2.674137e+002
1.221854e+003, 2.674348e+002
1.222336e+003, 2.675228e+002
1.222818e+003, 2.675946e+002
1.223300e+003, 2.680856e+002
1.223782e+003, 2.691053e+002
1.224264e+003, 2.704409e+002
1.224746e+003, 2.725576e+002
1.225229e+003, 2.743593e+002
1.225711e+003, 2.744676e+002
1.226193e+003, 2.729169e+002
1.226675e+003, 2.716871e+002
1.227157e+003, 2.707942e+002
1.227639e+003, 2.702248e+002
1.228121e+003, 2.699767e+002
1.228603e+003, 2.700541e+002
1.229085e+003, 2.708180e+002
1.229568e+003, 2.716367e+002
1.230050e+003, 2.717032e+002
1.230532e+003, 2.711200e+002
1.231014e+003, 2.712610e+002
1.231496e+003, 2.722056e+002
1.231978e+003, 2.731996e+002
1.232460e+003, 2.741146e+002
1.232942e+003, 2.748255e+002
1.233425e+003, 2.751215e+002
1.233907e+003, 2.752465e+002
1.234389e+003, 2.754262e+002
1.234871e+003, 2.756450e+002
1.235353e+003, 2.756555e+002
1.235835e+003, 2.754381e+002
1.236317e+003, 2.755839e+002
1.236799e+003, 2.763371e+002
1.237281e+003, 2.769152e+002
1.237764e+003, 2.761831e+002
1.238246e+003, 2.754176e+002
1.238728e+003, 2.758511e+002
1.239210e+003, 2.771559e+002
1.239692e+003, 2.779755e+002
1.240174e+003, 2.783136e+002
1.240656e+003, 2.786304e+002
1.241138e+003, 2.790631e+002
1.241621e+003, 2.792832e+002
1.242103e+003, 2.785153e+002
1.242585e+003, 2.779789e+002
1.243067e+003, 2.787060e+002
1.243549e+003, 2.802503e+002
1.244031e+003, 2.810075e+002
1.244513e+003, 2.810497e+002
1.244995e+003, 2.807839e+002
1.245478e+003, 2.801870e+002
1.245960e+003, 2.800378e+002
1.246442e+003, 2.813807e+002
1.246924e+003, 2.826931e+002
1.247406e+003, 2.830756e+002
1.247888e+003, 2.828591e+002
1.248370e+003, 2.830475e+002
1.248852e+003, 2.835357e+002
1.249334e+003, 2.838868e+002
1.249817e+003, 2.840004e+002
1.250299e+003, 2.839872e+002
1.250781e+003, 2.835696e+002
1.251263e+003, 2.834774e+002
1.251745e+003, 2.841670e+002
1.252227e+003, 2.852051e+002
1.252709e+003, 2.854604e+002
1.253191e+003, 2.851798e+002
1.253673e+003, 2.850669e+002
1.254156e+003, 2.852734e+002
1.254638e+003, 2.855845e+002
1.255120e+003, 2.860741e+002
1.255602e+003, 2.864269e+002
1.256084e+003, 2.864669e+002
1.256566e+003, 2.864023e+002
1.257048e+003, 2.865888e+002
1.257530e+003, 2.870056e+002
1.258012e+003, 2.876781e+002
1.258495e+003, 2.886503e+002
1.258977e+003, 2.894272e+002
1.259459e+003, 2.899406e+002
1.259941e+003, 2.902334e+002
1.260423e+003, 2.902336e+002
1.260905e+003, 2.901967e+002
1.261387e+003, 2.906222e+002
1.261869e+003, 2.912330e+002
1.262352e+003, 2.916061e+002
1.262834e+003, 2.916644e+002
1.263316e+003, 2.917822e+002
1.263798e+003, 2.919829e+002
1.264280e+003, 2.922817e+002
1.264762e+003, 2.927596e+002
1.265244e+003, 2.930999e+002
1.265726e+003, 2.924322e+002
1.266208e+003, 2.917397e+002
1.266691e+003, 2.923719e+002
1.267173e+003, 2.944070e+002
1.267655e+003, 2.957285e+002
1.268137e+003, 2.963230e+002
1.268619e+003, 2.962431e+002
1.269101e+003, 2.953189e+002
1.269583e+003, 2.945375e+002
1.270065e+003, 2.951007e+002
1.270548e+003, 2.960047e+002
1.271030e+003, 2.963230e+002
1.271512e+003, 2.961728e+002
1.271994e+003, 2.960512e+002
1.272476e+003, 2.959678e+002
1.272958e+003, 2.963531e+002
1.273440e+003, 2.973810e+002
1.273922e+003, 2.982983e+002
1.274405e+003, 2.984417e+002
1.274887e+003, 2.984261e+002
1.275369e+003, 2.985733e+002
1.275851e+003, 2.988801e+002
1.276333e+003, 2.994194e+002
1.276815e+003, 3.001199e+002
1.277297e+003, 3.006143e+002
1.277779e+003, 3.008222e+002
1.278261e+003, 3.009384e+002
1.278744e+003, 3.007896e+002
1.279226e+003, 3.009308e+002
1.279708e+003, 3.016901e+002
1.280190e+003, 3.026628e+002
1.280672e+003, 3.029861e+002
1.281154e+003, 3.029294e+002
1.281636e+003, 3.032517e+002
1.282118e+003, 3.040572e+002
1.282600e+003, 3.047201e+002
1.283083e+003, 3.049649e+002
1.283565e+003, 3.052433e+002
1.284047e+003, 3.057486e+002
1.284529e+003, 3.061111e+002
1.285011e+003, 3.055751e+002
1.285493e+003, 3.046728e+002
1.285975e+003, 3.041525e+002
1.286457e+003, 3.040983e+002
1.286939e+003, 3.044891e+002
1.287422e+003, 3.054755e+002
1.287904e+003, 3.062481e+002
1.288386e+003, 3.066205e+002
1.288868e+003, 3.069032e+002
1.289350e+003, 3.075045e+002
1.289832e+003, 3.081280e+002
1.290314e+003, 3.084001e+002
1.290796e+003, 3.083974e+002
1.291279e+003, 3.086223e+002
1.291761e+003, 3.090952e+002
1.292243e+003, 3.094902e+002
1.292725e+003, 3.097491e+002
1.293207e+003, 3.100745e+002
1.293689e+003, 3.108687e+002
1.294171e+003, 3.115351e+002
1.294653e+003, 3.115984e+002
1.295135e+003, 3.112787e+002
1.295618e+003, 3.107591e+002
1.296100e+003, 3.101051e+002
1.296582e+003, 3.100757e+002
1.297064e+003, 3.107385e+002
1.297546e+003, 3.114130e+002
1.298028e+003, 3.117387e+002
1.298510e+003, 3.117664e+002
1.298992e+003, 3.112334e+002
1.299475e+003, 3.109113e+002
1.299957e+003, 3.121460e+002
1.300439e+003, 3.143501e+002
1.300921e+003, 3.158180e+002
1.301403e+003, 3.165214e+002
1.301885e+003, 3.170191e+002
##END=



