##NAMES=Wickenburgite
##RRUFFID=R060087
##IDEAL CHEMISTRY=Pb^2+^_3_CaAl_2_Si_10_O_27_&#183;4H_2_O
##LOCALITY=Potter Claim, Wickenburg, Arizona, USA
##OWNER=RRUFF
##SOURCE=University of Arizona Mineral Museum
##DESCRIPTION=Colorless flattened tabular hexagonal prisms
##STATUS=The identification of this mineral has been confirmed by single-crystal X-ray diffraction.
##URL=rruff.info/R060087
93.74609, 17.61372
94.22821, 17.06940
94.71033, 17.24219
95.19244, 18.06679
95.67456, 19.31323
96.15668, 21.08528
96.63879, 23.22775
97.12091, 25.15860
97.60303, 26.80774
98.08514, 28.56044
98.56726, 30.99738
99.04938, 34.14177
99.53149, 37.45845
100.0136, 40.57854
100.4957, 43.47742
100.9778, 46.88945
101.4600, 50.91780
101.9421, 55.37163
102.4242, 59.66779
102.9063, 63.75881
103.3884, 67.90855
103.8705, 72.27222
104.3527, 77.04138
104.8348, 81.58407
105.3169, 85.84390
105.7990, 89.83616
106.2811, 93.99148
106.7632, 98.43046
107.2454, 102.8701
107.7275, 107.0200
108.2096, 110.7244
108.6917, 114.4264
109.1738, 118.0975
109.6559, 121.7233
110.1381, 125.7566
110.6202, 130.0832
111.1023, 134.9018
111.5844, 140.4047
112.0665, 147.3382
112.5486, 154.3231
113.0308, 161.0125
113.5129, 167.3082
113.9950, 173.8750
114.4771, 181.0873
114.9592, 188.5432
115.4413, 195.7684
115.9235, 202.6433
116.4056, 209.2303
116.8877, 215.4196
117.3698, 221.1746
117.8519, 226.8558
118.3340, 232.7049
118.8162, 238.5912
119.2983, 244.1788
119.7804, 249.1700
120.2625, 253.9694
120.7446, 258.8587
121.2267, 264.0273
121.7089, 269.1909
122.1910, 274.5006
122.6731, 279.7973
123.1552, 284.3371
123.6373, 287.3625
124.1194, 289.4386
124.6016, 291.2944
125.0837, 292.9318
125.5658, 294.5786
126.0479, 296.3105
126.5300, 298.1436
127.0121, 300.4424
127.4943, 303.5771
127.9764, 307.4021
128.4585, 311.6713
128.9406, 316.3790
129.4227, 321.4109
129.9048, 326.4738
130.3869, 331.5417
130.8691, 336.8501
131.3512, 342.8452
131.8333, 348.2781
132.3154, 351.8099
132.7975, 354.1411
133.2796, 356.0634
133.7618, 359.0806
134.2439, 363.5160
134.7260, 368.2823
135.2081, 371.4894
135.6902, 373.1435
136.1723, 374.6327
136.6545, 376.6718
137.1366, 379.2526
137.6187, 381.9569
138.1008, 384.9484
138.5829, 387.8757
139.0650, 389.7889
139.5472, 390.4070
140.0293, 391.0203
140.5114, 392.5822
140.9935, 395.4307
141.4756, 397.5320
141.9577, 398.4785
142.4399, 398.5613
142.9220, 399.2122
143.4041, 400.6741
143.8862, 402.2739
144.3683, 403.5516
144.8504, 404.3830
145.3326, 405.1463
145.8147, 405.7430
146.2968, 406.2167
146.7789, 407.2879
147.2610, 409.3370
147.7431, 411.6653
148.2253, 413.7025
148.7074, 415.1016
149.1895, 416.7015
149.6716, 418.7013
150.1537, 421.1691
150.6358, 423.4093
151.1180, 425.0236
151.6001, 426.5680
152.0822, 428.5961
152.5643, 431.5193
153.0464, 434.4845
153.5285, 437.1157
154.0107, 439.0479
154.4928, 441.9370
154.9749, 446.4316
155.4570, 451.7758
155.9391, 457.0097
156.4212, 461.8378
156.9034, 466.7618
157.3855, 472.1819
157.8676, 478.5622
158.3497, 483.9970
158.8318, 487.9815
159.3139, 490.8760
159.7961, 493.3241
160.2782, 496.5861
160.7603, 498.6559
161.2424, 498.5586
161.7245, 495.8804
162.2066, 491.6982
162.6888, 485.9500
163.1709, 478.9391
163.6530, 471.3335
164.1351, 462.7089
164.6172, 453.9736
165.0993, 445.6523
165.5815, 437.6261
166.0636, 430.3625
166.5457, 424.0145
167.0278, 418.5317
167.5099, 413.7831
167.9920, 410.1801
168.4742, 407.0491
168.9563, 403.7157
169.4384, 399.4546
169.9205, 395.6790
170.4026, 393.7325
170.8847, 393.2528
171.3669, 392.7478
171.8490, 391.2568
172.3311, 389.2713
172.8132, 387.3589
173.2953, 385.6072
173.7774, 384.0751
174.2596, 382.9210
174.7417, 382.0982
175.2238, 381.2819
175.7059, 380.0581
176.1880, 378.7207
176.6701, 377.7481
177.1523, 377.3361
177.6344, 377.3326
178.1165, 377.7319
178.5986, 378.5097
179.0807, 379.1584
179.5628, 379.0928
180.0450, 378.5709
180.5271, 378.1940
181.0092, 378.0908
181.4913, 378.2813
181.9734, 379.0385
182.4555, 380.3822
182.9377, 381.5025
183.4198, 381.2453
183.9019, 380.0148
184.3840, 379.2565
184.8661, 379.6533
185.3482, 380.8683
185.8304, 382.3195
186.3125, 384.0518
186.7946, 385.5779
187.2767, 386.1201
187.7588, 385.8608
188.2409, 385.8178
188.7231, 386.4052
189.2052, 387.5405
189.6873, 389.0081
190.1694, 390.8813
190.6515, 392.8372
191.1336, 394.4240
191.6158, 395.6750
192.0979, 396.9959
192.5800, 398.6744
193.0621, 400.6275
193.5442, 402.2129
194.0263, 403.3084
194.5085, 404.4673
194.9906, 406.7416
195.4727, 410.1348
195.9548, 413.1879
196.4369, 414.8516
196.9190, 415.2544
197.4012, 416.7617
197.8833, 419.6266
198.3654, 423.0123
198.8475, 425.3542
199.3296, 426.5485
199.8117, 427.9277
200.2939, 430.1822
200.7760, 433.3124
201.2581, 436.3958
201.7402, 439.5126
202.2223, 442.4112
202.7044, 444.4717
203.1866, 445.5028
203.6687, 446.6813
204.1508, 448.5851
204.6329, 451.2797
205.1150, 454.0681
205.5971, 457.0605
206.0793, 460.0106
206.5614, 462.4151
207.0435, 464.1743
207.5256, 465.7086
208.0077, 467.1906
208.4898, 468.6318
208.9720, 469.9874
209.4541, 471.3650
209.9362, 472.5487
210.4183, 473.0955
210.9004, 472.9582
211.3825, 472.2829
211.8647, 471.0464
212.3468, 469.1359
212.8289, 467.1071
213.3110, 464.8295
213.7931, 462.5181
214.2752, 460.7381
214.7574, 459.6229
215.2395, 458.6790
215.7216, 457.7004
216.2037, 456.7074
216.6858, 455.5939
217.1679, 454.1467
217.6500, 452.7043
218.1322, 452.1908
218.6143, 453.0400
219.0964, 453.9166
219.5785, 454.1885
220.0606, 453.6579
220.5427, 453.1504
221.0249, 452.5903
221.5070, 452.0976
221.9891, 452.1194
222.4712, 453.2077
222.9533, 453.7753
223.4354, 452.8729
223.9176, 449.5260
224.3997, 447.5190
224.8818, 447.2849
225.3639, 448.1764
225.8460, 448.7376
226.3281, 448.9164
226.8103, 448.8486
227.2924, 448.5164
227.7745, 447.6621
228.2566, 447.2807
228.7387, 447.6718
229.2208, 448.4166
229.7030, 448.5053
230.1851, 447.6661
230.6672, 446.6235
231.1493, 445.7090
231.6314, 445.1254
232.1135, 444.1022
232.5957, 442.4449
233.0778, 440.4321
233.5599, 438.7314
234.0420, 437.5714
234.5241, 436.3518
235.0062, 434.7998
235.4884, 432.7410
235.9705, 430.9006
236.4526, 429.3495
236.9347, 427.9619
237.4168, 426.4398
237.8989, 424.6019
238.3811, 422.9066
238.8632, 421.5256
239.3453, 420.4688
239.8274, 419.7065
240.3095, 419.3984
240.7916, 419.2970
241.2738, 418.9121
241.7559, 418.0441
242.2380, 417.2310
242.7201, 416.7000
243.2022, 416.5751
243.6843, 416.3160
244.1665, 415.8302
244.6486, 415.2715
245.1307, 414.8798
245.6128, 414.5905
246.0949, 414.5838
246.5770, 414.9720
247.0592, 415.8771
247.5413, 416.7024
248.0234, 417.5050
248.5055, 418.1757
248.9876, 418.5663
249.4697, 418.7907
249.9519, 418.5159
250.4340, 417.5021
250.9161, 415.5333
251.3982, 413.9642
251.8803, 412.9367
252.3624, 412.2106
252.8446, 411.4785
253.3267, 410.7030
253.8088, 409.9955
254.2909, 409.3878
254.7730, 408.8842
255.2551, 408.4578
255.7373, 408.1135
256.2194, 407.8420
256.7015, 407.5912
257.1836, 407.2017
257.6657, 407.1742
258.1478, 407.7248
258.6299, 408.8870
259.1121, 409.8747
259.5942, 410.6649
260.0763, 411.2919
260.5584, 411.7399
261.0405, 411.8014
261.5226, 412.1996
262.0048, 413.1510
262.4869, 414.6388
262.9690, 416.1979
263.4511, 417.8419
263.9332, 419.5335
264.4153, 421.2206
264.8975, 422.8929
265.3796, 424.6557
265.8617, 426.5231
266.3438, 428.4966
266.8259, 430.7294
267.3080, 433.2091
267.7902, 435.9633
268.2723, 439.0557
268.7544, 442.7202
269.2365, 445.9944
269.7186, 448.6154
270.2007, 450.7368
270.6829, 453.0818
271.1650, 455.6963
271.6471, 458.4131
272.1292, 461.1186
272.6113, 463.8680
273.0934, 466.2758
273.5756, 468.1983
274.0577, 469.7412
274.5398, 471.4478
275.0219, 473.4893
275.5040, 475.0757
275.9861, 475.4851
276.4683, 474.5411
276.9504, 473.9448
277.4325, 474.0106
277.9146, 474.3669
278.3967, 474.0473
278.8788, 472.9779
279.3610, 471.6608
279.8431, 470.1815
280.3252, 468.5318
280.8073, 467.5876
281.2894, 467.4122
281.7715, 467.9731
282.2537, 469.4091
282.7358, 471.8085
283.2179, 474.2734
283.7000, 476.4103
284.1821, 478.2329
284.6642, 479.6922
285.1464, 480.6005
285.6285, 481.6187
286.1106, 483.9580
286.5927, 487.6166
287.0748, 491.2850
287.5569, 494.5370
288.0391, 497.3550
288.5212, 499.6296
289.0033, 501.4054
289.4854, 502.4876
289.9675, 502.5532
290.4496, 501.6354
290.9318, 500.1681
291.4139, 498.3177
291.8960, 496.0309
292.3781, 493.0663
292.8602, 489.3617
293.3423, 485.4005
293.8245, 481.5446
294.3066, 477.7894
294.7887, 474.1009
295.2708, 470.5482
295.7529, 467.0459
296.2350, 463.1718
296.7172, 458.9506
297.1993, 455.3069
297.6814, 453.3312
298.1635, 452.5477
298.6456, 451.6068
299.1277, 450.0137
299.6099, 448.2871
300.0920, 447.2191
300.5741, 446.7653
301.0562, 446.7082
301.5383, 447.4428
302.0204, 448.3945
302.5026, 448.3234
302.9847, 446.6305
303.4668, 444.6329
303.9489, 443.8517
304.4310, 444.0610
304.9131, 444.3672
305.3953, 444.4435
305.8774, 444.2234
306.3595, 443.5323
306.8416, 442.2491
307.3237, 440.8611
307.8058, 439.7987
308.2880, 438.9608
308.7701, 438.1307
309.2522, 437.3384
309.7343, 436.4168
310.2164, 435.0016
310.6985, 432.9618
311.1807, 431.3542
311.6628, 431.2980
312.1449, 432.0761
312.6270, 432.5963
313.1091, 432.3353
313.5912, 431.7577
314.0734, 431.0143
314.5555, 430.1246
315.0376, 429.4524
315.5197, 429.0918
316.0018, 429.0785
316.4839, 429.4554
316.9661, 430.6584
317.4482, 431.8505
317.9303, 432.6984
318.4124, 433.2166
318.8945, 433.5620
319.3766, 433.6609
319.8588, 433.6661
320.3409, 433.6996
320.8230, 434.0256
321.3051, 434.0617
321.7872, 433.4656
322.2693, 432.4264
322.7515, 431.5246
323.2336, 431.1222
323.7157, 430.7231
324.1978, 430.0731
324.6799, 429.0218
325.1620, 427.9773
325.6442, 426.9933
326.1263, 426.0537
326.6084, 425.1284
327.0905, 424.1294
327.5726, 423.2260
328.0547, 422.5227
328.5369, 422.1629
329.0190, 421.5680
329.5011, 420.5318
329.9832, 419.3553
330.4653, 418.3837
330.9474, 417.8252
331.4296, 417.2114
331.9117, 416.2603
332.3938, 414.9249
332.8759, 414.4838
333.3580, 415.4674
333.8401, 416.8469
334.3223, 417.8231
334.8044, 418.3635
335.2865, 418.5694
335.7686, 418.3732
336.2507, 417.8305
336.7328, 417.1931
337.2150, 416.2075
337.6971, 415.5513
338.1792, 415.8026
338.6613, 417.3352
339.1434, 418.1773
339.6255, 417.9692
340.1077, 417.2006
340.5898, 417.1001
341.0719, 417.8793
341.5540, 418.4507
342.0361, 418.0646
342.5182, 416.6589
343.0003, 416.1874
343.4825, 416.9223
343.9646, 417.9861
344.4467, 417.9483
344.9288, 416.8053
345.4109, 415.9759
345.8930, 416.0021
346.3752, 416.7477
346.8573, 417.7619
347.3394, 419.0910
347.8215, 420.3676
348.3036, 421.2242
348.7857, 421.7065
349.2679, 422.0277
349.7500, 422.1722
350.2321, 422.2487
350.7142, 422.5969
351.1963, 423.1615
351.6784, 423.4273
352.1606, 422.5708
352.6427, 421.2134
353.1248, 420.6645
353.6069, 421.3380
354.0890, 422.2787
354.5711, 422.5843
355.0533, 422.3386
355.5354, 421.7680
356.0175, 420.8075
356.4996, 419.6923
356.9817, 418.6418
357.4638, 417.6771
357.9460, 416.7758
358.4281, 415.6714
358.9102, 414.6651
359.3923, 414.2148
359.8744, 415.0477
360.3565, 416.0474
360.8387, 416.3905
361.3208, 416.1315
361.8029, 416.1395
362.2850, 416.9143
362.7671, 418.0715
363.2492, 419.3065
363.7314, 420.7767
364.2135, 422.0363
364.6956, 422.8185
365.1777, 423.2549
365.6598, 423.7411
366.1419, 424.5212
366.6241, 425.2653
367.1062, 425.7624
367.5883, 425.7646
368.0704, 426.0388
368.5525, 426.9572
369.0346, 428.1253
369.5168, 428.9451
369.9989, 428.8834
370.4810, 428.9907
370.9631, 429.5569
371.4452, 430.6551
371.9273, 431.6254
372.4095, 432.5712
372.8916, 433.2838
373.3737, 433.5207
373.8558, 432.8633
374.3379, 432.5764
374.8200, 432.9264
375.3022, 433.7972
375.7843, 434.5826
376.2664, 435.4173
376.7485, 435.9129
377.2306, 435.6304
377.7127, 434.3305
378.1949, 433.8680
378.6770, 434.6185
379.1591, 435.8930
379.6412, 436.2743
380.1233, 435.6693
380.6054, 435.1588
381.0876, 435.3428
381.5697, 436.0837
382.0518, 436.3731
382.5339, 436.1461
383.0160, 435.8211
383.4981, 435.8052
383.9803, 436.0747
384.4624, 436.5187
384.9445, 437.0882
385.4266, 437.8125
385.9087, 438.8329
386.3908, 440.1153
386.8730, 441.4013
387.3551, 442.3767
387.8372, 443.2621
388.3193, 444.4686
388.8014, 446.1073
389.2835, 447.9449
389.7657, 449.7304
390.2478, 451.5555
390.7299, 453.5907
391.2120, 456.0300
391.6941, 458.6571
392.1762, 461.3336
392.6584, 464.0359
393.1405, 466.6592
393.6226, 469.3885
394.1047, 471.9235
394.5868, 473.9057
395.0689, 474.8868
395.5511, 475.6390
396.0332, 476.6987
396.5153, 477.8837
396.9974, 478.2030
397.4795, 477.0459
397.9616, 475.2117
398.4438, 473.1010
398.9259, 470.6674
399.4080, 468.1196
399.8901, 465.4803
400.3722, 462.7285
400.8543, 459.8555
401.3365, 456.5143
401.8186, 453.4492
402.3007, 450.9709
402.7828, 449.1898
403.2649, 446.9987
403.7470, 444.1622
404.2292, 441.1522
404.7113, 438.4016
405.1934, 435.9052
405.6755, 433.5949
406.1576, 431.4205
406.6397, 429.4478
407.1219, 428.0683
407.6040, 427.4293
408.0861, 426.7915
408.5682, 425.5873
409.0503, 423.8471
409.5324, 422.5204
410.0146, 421.6815
410.4967, 421.1476
410.9788, 420.8412
411.4609, 420.7146
411.9430, 420.2484
412.4251, 418.8626
412.9073, 417.1598
413.3894, 416.5881
413.8715, 417.1274
414.3536, 417.7890
414.8357, 417.7313
415.3178, 417.2398
415.8000, 416.8299
416.2821, 416.5839
416.7642, 416.5190
417.2463, 416.8856
417.7284, 417.4787
418.2105, 417.7386
418.6927, 417.0938
419.1748, 416.2038
419.6569, 415.5897
420.1390, 415.3318
420.6211, 415.0340
421.1032, 413.9599
421.5854, 414.2213
422.0675, 414.2669
422.5496, 414.1094
423.0317, 413.0731
423.5138, 413.2233
423.9959, 412.9296
424.4781, 412.6393
424.9602, 413.0210
425.4423, 412.2286
425.9244, 412.6451
426.4065, 412.6107
426.8886, 412.8155
427.3708, 412.5736
427.8529, 412.4992
428.3350, 412.9169
428.8171, 413.0971
429.2992, 412.8914
429.7813, 413.2454
430.2635, 412.5834
430.7456, 411.4538
431.2277, 411.8256
431.7098, 411.9589
432.1919, 411.8665
432.6740, 410.8728
433.1562, 411.0431
433.6383, 410.7468
434.1204, 410.4315
434.6025, 410.7655
435.0846, 409.9029
435.5667, 410.2267
436.0489, 410.0768
436.5310, 410.1437
437.0131, 409.7413
437.4952, 409.4838
437.9773, 409.6958
438.4594, 409.6479
438.9416, 409.1914
439.4236, 409.5655
439.9058, 408.8540
440.3879, 408.0293
440.8700, 407.7553
441.3521, 407.9198
441.8342, 408.1188
442.3163, 408.0471
442.7985, 407.9795
443.2806, 408.1626
443.7627, 408.6830
444.2448, 409.1924
444.7269, 409.5219
445.2090, 409.7584
445.6912, 410.0028
446.1733, 410.6109
446.6554, 410.8724
447.1375, 410.3651
447.6196, 409.1720
448.1017, 408.3224
448.5839, 408.0782
449.0660, 408.0342
449.5481, 408.0113
450.0302, 407.9772
450.5123, 408.0327
450.9944, 408.1442
451.4766, 408.3764
451.9587, 408.8139
452.4408, 409.4370
452.9229, 410.3817
453.4050, 411.8607
453.8871, 413.7546
454.3693, 415.1491
454.8514, 416.0080
455.3335, 416.5455
455.8156, 416.8839
456.2977, 417.0326
456.7798, 417.0607
457.2620, 416.8988
457.7441, 416.8008
458.2262, 417.2337
458.7083, 418.0928
459.1904, 418.9438
459.6725, 419.6692
460.1547, 420.1991
460.6368, 420.1407
461.1189, 419.5344
461.6010, 419.4519
462.0831, 421.2992
462.5652, 423.8382
463.0474, 425.5922
463.5295, 425.8871
464.0116, 425.9287
464.4937, 426.1862
464.9758, 426.6605
465.4579, 427.3437
465.9401, 428.4704
466.4222, 429.6105
466.9043, 430.6437
467.3864, 431.5891
467.8685, 432.2354
468.3506, 432.1979
468.8328, 432.0787
469.3149, 432.3301
469.7970, 433.3613
470.2791, 434.0319
470.7612, 433.8968
471.2433, 433.4375
471.7255, 434.1080
472.2076, 436.4083
472.6897, 438.5740
473.1718, 440.0192
473.6539, 440.7335
474.1360, 440.7706
474.6182, 440.0163
475.1003, 439.0116
475.5824, 438.2323
476.0645, 437.6773
476.5466, 437.3753
477.0287, 437.4390
477.5109, 437.5770
477.9930, 437.4362
478.4751, 436.9933
478.9572, 436.1302
479.4393, 434.2031
479.9214, 432.0791
480.4036, 431.0641
480.8857, 431.2337
481.3678, 431.3825
481.8499, 430.6502
482.3320, 429.4576
482.8141, 428.2632
483.2963, 426.9215
483.7784, 425.9315
484.2605, 425.9364
484.7426, 426.4641
485.2247, 426.3438
485.7068, 424.4215
486.1890, 422.6158
486.6711, 421.6963
487.1532, 421.9234
487.6353, 421.9757
488.1174, 421.8546
488.5995, 421.5686
489.0817, 421.0793
489.5638, 420.2236
490.0459, 419.5832
490.5280, 419.2294
491.0101, 419.1109
491.4922, 419.1669
491.9744, 419.4603
492.4565, 419.5810
492.9386, 419.2234
493.4207, 418.4928
493.9028, 418.1788
494.3849, 418.3133
494.8671, 418.5155
495.3492, 418.3917
495.8313, 418.0523
496.3134, 417.7995
496.7955, 417.6927
497.2776, 417.7144
497.7598, 417.8979
498.2419, 418.2054
498.7240, 418.5304
499.2061, 418.8918
499.6882, 419.2080
500.1703, 419.3867
500.6525, 419.4295
501.1346, 419.5067
501.6167, 419.3447
502.0988, 419.4508
502.5809, 420.2449
503.0630, 422.6265
503.5452, 424.4240
504.0273, 424.7685
504.5094, 424.4737
504.9915, 424.9487
505.4736, 426.7206
505.9557, 428.4817
506.4379, 430.0231
506.9200, 431.3239
507.4021, 431.9189
507.8842, 431.4989
508.3663, 431.0996
508.8484, 431.7468
509.3306, 433.4825
509.8127, 434.0494
510.2948, 433.1547
510.7769, 431.4735
511.2590, 429.7239
511.7411, 427.9584
512.2233, 426.5572
512.7054, 425.9979
513.1875, 425.5789
513.6696, 424.2430
514.1517, 422.0897
514.6339, 419.6566
515.1160, 416.8329
515.5981, 414.1582
516.0802, 412.1992
516.5623, 411.1494
517.0444, 410.1847
517.5266, 409.1002
518.0087, 407.8313
518.4908, 406.3074
518.9729, 404.1087
519.4550, 402.0995
519.9371, 400.4977
520.4193, 399.2442
520.9014, 398.1085
521.3835, 397.0604
521.8656, 396.1600
522.3477, 395.4323
522.8298, 394.8830
523.3120, 394.4756
523.7941, 394.2480
524.2762, 394.0995
524.7583, 393.9765
525.2404, 393.8821
525.7225, 393.6566
526.2047, 393.2510
526.6868, 392.7442
527.1689, 392.1799
527.6510, 391.5953
528.1331, 391.2193
528.6152, 391.2438
529.0974, 391.4964
529.5795, 391.9287
530.0616, 392.4892
530.5437, 392.6127
531.0258, 391.4629
531.5079, 389.9531
531.9901, 388.8814
532.4722, 388.3773
532.9543, 388.3846
533.4364, 389.3947
533.9185, 390.7466
534.4006, 391.5612
534.8828, 391.0605
535.3649, 390.6714
535.8470, 390.6992
536.3291, 391.0817
536.8112, 391.4960
537.2933, 391.9685
537.7755, 392.4229
538.2576, 392.7878
538.7397, 393.0338
539.2218, 393.4313
539.7039, 393.9778
540.1860, 394.6564
540.6682, 395.6150
541.1503, 396.7894
541.6324, 397.4569
542.1145, 397.3535
542.5966, 396.8941
543.0787, 396.5352
543.5609, 396.3346
544.0430, 396.5016
544.5251, 397.4789
545.0072, 398.6666
545.4893, 399.4035
545.9714, 399.7100
546.4536, 400.0579
546.9357, 400.5990
547.4178, 401.3411
547.8999, 402.3463
548.3820, 403.8426
548.8641, 405.0824
549.3463, 405.7429
549.8284, 406.1194
550.3105, 406.5964
550.7926, 407.1620
551.2747, 407.8571
551.7568, 408.7710
552.2390, 409.8244
552.7211, 410.7693
553.2032, 411.7214
553.6853, 412.2201
554.1674, 411.9441
554.6495, 410.9444
555.1317, 409.8134
555.6138, 408.5307
556.0959, 407.4652
556.5780, 407.1302
557.0601, 407.3036
557.5422, 407.4601
558.0244, 407.6200
558.5065, 407.3909
558.9886, 406.0438
559.4707, 404.0337
559.9528, 402.3031
560.4349, 401.3657
560.9171, 400.6834
561.3992, 399.9882
561.8813, 399.2852
562.3634, 398.7038
562.8455, 398.4567
563.3276, 398.1757
563.8098, 397.6287
564.2919, 396.6749
564.7740, 395.9333
565.2561, 395.5013
565.7382, 395.1760
566.2203, 394.7023
566.7025, 393.9542
567.1846, 393.6033
567.6667, 393.8446
568.1488, 394.3666
568.6309, 394.5389
569.1130, 394.3750
569.5952, 394.0982
570.0773, 393.7555
570.5594, 393.3954
571.0415, 393.0711
571.5236, 392.7904
572.0057, 392.6028
572.4879, 392.5956
572.9700, 392.6730
573.4521, 392.7498
573.9342, 392.8240
574.4163, 392.8570
574.8984, 392.7080
575.3806, 392.5644
575.8627, 392.6152
576.3448, 392.9854
576.8269, 393.4414
577.3090, 394.0867
577.7911, 394.7757
578.2733, 395.1840
578.7554, 395.2243
579.2375, 395.1121
579.7196, 394.7832
580.2017, 394.3068
580.6838, 394.4098
581.1660, 395.1443
581.6481, 396.1213
582.1302, 397.2253
582.6123, 398.3667
583.0944, 399.1031
583.5765, 399.3857
584.0587, 399.4915
584.5408, 399.6861
585.0229, 399.8964
585.5050, 399.9860
585.9871, 399.8521
586.4692, 399.6935
586.9514, 399.5966
587.4335, 399.5646
587.9155, 399.6051
588.3976, 399.9571
588.8798, 400.1464
589.3619, 399.9967
589.8440, 399.4976
590.3261, 398.8493
590.8082, 397.9340
591.2903, 397.0238
591.7725, 396.2441
592.2546, 395.5982
592.7367, 395.0763
593.2188, 394.7239
593.7009, 394.3727
594.1830, 393.8365
594.6652, 393.1355
595.1473, 392.2674
595.6294, 391.0895
596.1115, 390.0976
596.5936, 390.2817
597.0757, 391.2173
597.5579, 391.7803
598.0400, 390.9284
598.5221, 389.9352
599.0042, 389.7601
599.4863, 390.2680
599.9684, 390.7529
600.4506, 390.8859
600.9327, 390.9779
601.4148, 391.2233
601.8969, 391.7230
602.3790, 391.9603
602.8611, 391.7392
603.3433, 391.4515
603.8254, 391.3438
604.3075, 391.3574
604.7896, 391.8686
605.2717, 393.0803
605.7538, 394.4980
606.2360, 395.3727
606.7181, 395.7324
607.2002, 395.6440
607.6823, 394.8836
608.1644, 393.9943
608.6465, 393.8513
609.1287, 394.3410
609.6108, 395.0351
610.0929, 396.0072
610.5750, 396.8511
611.0571, 397.0985
611.5392, 396.7532
612.0214, 396.6653
612.5035, 397.4289
612.9856, 398.3178
613.4677, 398.8910
613.9498, 398.9762
614.4319, 399.0231
614.9141, 399.0179
615.3962, 398.9831
615.8783, 398.9502
616.3604, 398.9327
616.8425, 398.8624
617.3246, 398.7370
617.8068, 398.5490
618.2889, 398.3430
618.7710, 398.0996
619.2531, 397.6281
619.7352, 396.6959
620.2173, 395.6052
620.6995, 394.8803
621.1816, 394.4285
621.6637, 393.8149
622.1458, 392.5692
622.6279, 391.2215
623.1100, 390.1730
623.5922, 389.4828
624.0743, 388.7714
624.5564, 387.8990
625.0385, 386.9939
625.5206, 386.1303
626.0027, 385.1732
626.4849, 384.5563
626.9670, 384.4283
627.4491, 384.4678
627.9312, 384.2318
628.4133, 383.6793
628.8954, 383.1859
629.3776, 382.7998
629.8597, 382.5536
630.3418, 382.5981
630.8239, 382.8675
631.3060, 383.0558
631.7881, 382.8362
632.2703, 382.5800
632.7524, 382.8755
633.2345, 383.5770
633.7166, 383.9352
634.1987, 383.0200
634.6808, 382.1090
635.1630, 382.0327
635.6451, 383.0172
636.1272, 383.8661
636.6093, 384.6340
637.0914, 385.0774
637.5735, 384.8836
638.0557, 383.5226
638.5378, 383.2973
639.0199, 384.6236
639.5020, 386.3930
639.9841, 386.9922
640.4662, 386.5077
640.9484, 386.3747
641.4305, 386.9818
641.9126, 387.9494
642.3947, 388.8192
642.8768, 389.6136
643.3589, 390.4263
643.8411, 391.2682
644.3232, 392.1616
644.8053, 393.3248
645.2874, 394.6145
645.7695, 395.4564
646.2516, 394.8992
646.7338, 394.5466
647.2159, 395.2856
647.6980, 397.2530
648.1801, 398.7083
648.6622, 399.4777
649.1443, 400.0395
649.6265, 400.7235
650.1086, 401.5541
650.5907, 402.2223
651.0728, 402.6794
651.5549, 403.1844
652.0370, 403.8914
652.5192, 404.8915
653.0013, 406.5003
653.4834, 408.9901
653.9655, 411.5748
654.4476, 413.6110
654.9297, 415.2150
655.4119, 416.6048
655.8940, 417.6255
656.3761, 418.6724
656.8582, 419.8257
657.3403, 421.0887
657.8224, 422.4958
658.3046, 424.0958
658.7867, 425.7144
659.2688, 427.1896
659.7509, 428.5782
660.2330, 430.6417
660.7151, 433.5021
661.1973, 436.3524
661.6794, 438.5968
662.1615, 440.4044
662.6436, 442.4172
663.1257, 444.6584
663.6078, 446.9558
664.0900, 448.9677
664.5721, 451.0486
665.0542, 453.8300
665.5363, 457.7302
666.0184, 461.1967
666.5005, 463.3483
666.9827, 464.8410
667.4648, 466.3550
667.9469, 468.2149
668.4290, 469.8165
668.9111, 471.2152
669.3932, 472.3172
669.8754, 472.8617
670.3575, 472.7429
670.8396, 472.5949
671.3217, 472.5158
671.8038, 472.5550
672.2859, 473.2754
672.7681, 474.4381
673.2502, 474.5916
673.7323, 472.9404
674.2144, 469.8776
674.6965, 465.1751
675.1786, 459.1764
675.6608, 453.8472
676.1429, 450.4111
676.6250, 447.7525
677.1071, 445.3683
677.5892, 443.2666
678.0714, 441.0406
678.5535, 438.4751
679.0356, 435.9803
679.5177, 433.8853
679.9998, 432.2849
680.4819, 430.3439
680.9641, 427.8358
681.4462, 425.6405
681.9283, 424.9715
682.4104, 425.4709
682.8925, 425.6006
683.3746, 424.9388
683.8568, 424.3823
684.3389, 424.9454
684.8210, 426.1532
685.3031, 427.2707
685.7852, 427.9134
686.2673, 428.5617
686.7495, 429.1999
687.2316, 429.9693
687.7137, 431.2415
688.1958, 433.4920
688.6779, 435.4604
689.1600, 436.7514
689.6422, 437.5941
690.1243, 438.9096
690.6064, 440.7232
691.0885, 442.8816
691.5706, 445.4763
692.0527, 448.2943
692.5349, 450.9491
693.0170, 453.4352
693.4991, 455.7754
693.9812, 457.7846
694.4633, 459.8012
694.9454, 462.3015
695.4276, 465.3296
695.9097, 467.8575
696.3918, 469.5043
696.8739, 470.5617
697.3560, 471.1752
697.8381, 471.2583
698.3203, 471.2373
698.8024, 471.2466
699.2845, 470.9219
699.7666, 470.1548
700.2487, 468.9331
700.7308, 466.0751
701.2130, 461.2548
701.6951, 455.5728
702.1772, 450.2373
702.6593, 445.0540
703.1414, 439.6318
703.6235, 433.5844
704.1057, 427.7440
704.5878, 422.6280
705.0699, 418.0791
705.5520, 413.8397
706.0341, 410.0264
706.5162, 406.3025
706.9984, 402.2430
707.4805, 398.2859
707.9626, 395.5931
708.4447, 394.5628
708.9268, 393.3863
709.4089, 391.3412
709.8911, 388.8585
710.3732, 387.3623
710.8553, 386.7625
711.3374, 386.1980
711.8195, 385.0627
712.3016, 383.7699
712.7838, 382.8511
713.2659, 382.2649
713.7480, 381.5822
714.2301, 380.3644
714.7122, 379.2059
715.1943, 378.4167
715.6765, 378.0617
716.1586, 377.8434
716.6407, 377.9382
717.1228, 377.9179
717.6049, 377.4469
718.0870, 376.4593
718.5692, 375.7623
719.0513, 375.3781
719.5334, 375.1421
720.0155, 374.9585
720.4976, 374.7968
720.9797, 374.5484
721.4619, 374.1752
721.9440, 373.9000
722.4261, 374.0959
722.9082, 374.3810
723.3903, 374.3543
723.8724, 373.7474
724.3546, 373.1404
724.8367, 372.3906
725.3188, 371.8178
725.8009, 371.8543
726.2830, 372.7427
726.7651, 373.4571
727.2473, 373.9494
727.7294, 374.0842
728.2115, 373.3420
728.6936, 371.9171
729.1757, 370.9707
729.6578, 371.0818
730.1400, 371.4873
730.6221, 371.3657
731.1042, 370.9393
731.5863, 370.6734
732.0684, 371.0072
732.5505, 371.2632
733.0327, 371.1136
733.5148, 370.6854
733.9969, 370.4995
734.4790, 370.7413
734.9611, 370.8577
735.4432, 370.5637
735.9254, 370.0556
736.4075, 370.3286
736.8896, 371.3781
737.3717, 372.2152
737.8538, 372.0006
738.3359, 371.3585
738.8181, 371.2978
739.3002, 371.7255
739.7823, 372.0774
740.2644, 371.8217
740.7465, 371.5748
741.2286, 371.8130
741.7108, 372.5988
742.1929, 373.0197
742.6750, 372.8741
743.1571, 372.5574
743.6392, 372.1602
744.1213, 371.6685
744.6035, 371.7715
745.0856, 372.5757
745.5677, 373.3156
746.0498, 373.1496
746.5319, 372.5003
747.0140, 372.3202
747.4962, 372.7045
747.9783, 373.1482
748.4604, 373.3349
748.9425, 373.4146
749.4246, 373.5168
749.9067, 373.6776
750.3889, 373.8052
750.8710, 373.8186
751.3531, 373.8467
751.8352, 374.0135
752.3173, 374.3776
752.7994, 374.5119
753.2816, 374.2882
753.7637, 374.1580
754.2458, 374.9259
754.7279, 376.2200
755.2100, 376.8532
755.6921, 376.4845
756.1743, 375.8867
756.6564, 375.5865
757.1385, 375.4728
757.6206, 375.4220
758.1027, 375.5597
758.5848, 375.5376
759.0670, 375.1291
759.5491, 374.6472
760.0312, 374.5296
760.5133, 374.9910
760.9954, 375.0049
761.4775, 374.3036
761.9597, 373.3729
762.4418, 373.0589
762.9239, 373.2199
763.4060, 373.2570
763.8881, 372.8820
764.3702, 372.5083
764.8524, 372.7296
765.3345, 373.1700
765.8166, 373.1803
766.2987, 371.7865
766.7808, 370.8358
767.2629, 371.1461
767.7451, 372.0511
768.2272, 372.2214
768.7093, 371.4184
769.1914, 370.6593
769.6735, 370.1652
770.1556, 369.8779
770.6378, 369.7023
771.1199, 369.6308
771.6020, 369.6136
772.0841, 369.6257
772.5662, 369.6938
773.0483, 369.8641
773.5305, 370.1125
774.0126, 370.3733
774.4947, 370.8462
774.9768, 371.0800
775.4589, 370.8510
775.9410, 370.2784
776.4232, 369.7422
776.9053, 369.1904
777.3874, 368.8456
777.8695, 368.8423
778.3516, 369.0491
778.8337, 369.0172
779.3159, 368.8184
779.7980, 368.8833
780.2801, 369.8568
780.7622, 370.8703
781.2443, 371.1029
781.7264, 370.6997
782.2086, 370.2873
782.6907, 370.0765
783.1728, 369.8553
783.6549, 369.4203
784.1370, 368.8814
784.6191, 369.0356
785.1012, 370.0915
785.5833, 370.9380
786.0654, 370.9455
786.5475, 370.4298
787.0297, 370.3313
787.5118, 370.5924
787.9939, 370.8267
788.4760, 370.7935
788.9581, 370.6573
789.4402, 370.4889
789.9224, 370.3076
790.4045, 370.2356
790.8866, 370.3423
791.3687, 370.5168
791.8508, 370.7336
792.3329, 370.9854
792.8151, 371.1339
793.2972, 371.1171
793.7793, 371.3556
794.2614, 372.3610
794.7435, 373.7187
795.2256, 374.3885
795.7078, 374.4445
796.1899, 374.2698
796.6720, 373.7489
797.1541, 373.3710
797.6362, 373.6838
798.1183, 374.6601
798.6005, 375.0537
799.0826, 374.2341
799.5647, 373.5199
800.0468, 373.4906
800.5289, 374.0559
801.0110, 374.1599
801.4932, 373.7680
801.9753, 373.3988
802.4574, 373.4554
802.9395, 373.7059
803.4216, 373.8119
803.9037, 373.7596
804.3859, 373.5300
804.8680, 372.7999
805.3501, 371.4316
805.8322, 371.2902
806.3143, 371.0431
806.7964, 370.6969
807.2786, 369.9043
807.7607, 369.7266
808.2428, 369.3260
808.7249, 368.9324
809.2070, 368.8893
809.6891, 368.2481
810.1713, 368.2332
810.6534, 367.9919
811.1355, 367.8786
811.6176, 367.5411
812.0997, 367.2949
812.5818, 367.3066
813.0640, 367.2015
813.5461, 366.9034
814.0282, 366.8981
814.5103, 366.4165
814.9924, 366.3844
815.4745, 366.5557
815.9567, 366.3537
816.4388, 366.4368
816.9209, 366.4344
817.4030, 365.9847
817.8851, 366.3591
818.3672, 366.4012
818.8494, 366.7640
819.3315, 367.0043
819.8136, 367.1920
820.2957, 367.3133
820.7778, 367.3869
821.2599, 367.3048
821.7421, 367.2981
822.2242, 367.4612
822.7063, 367.7594
823.1884, 368.0066
823.6705, 368.2080
824.1526, 368.3198
824.6348, 368.3603
825.1169, 368.2820
825.5990, 367.9469
826.0811, 367.4130
826.5632, 366.8637
827.0453, 366.2736
827.5275, 365.8117
828.0096, 365.5382
828.4917, 365.4683
828.9738, 365.6228
829.4559, 366.1843
829.9380, 366.5655
830.4202, 366.5514
830.9023, 366.2587
831.3844, 365.9970
831.8665, 365.7675
832.3486, 365.5656
832.8307, 365.2608
833.3129, 365.1087
833.7950, 365.6143
834.2771, 366.4710
834.7592, 366.8844
835.2413, 366.2822
835.7234, 365.5926
836.2056, 364.8696
836.6877, 364.2584
837.1698, 364.2774
837.6519, 365.0416
838.1340, 365.5518
838.6161, 365.4990
839.0983, 365.0784
839.5804, 364.2585
840.0625, 363.3351
840.5446, 363.1049
841.0267, 364.5381
841.5089, 365.9594
841.9910, 366.5358
842.4731, 366.5735
842.9552, 366.6514
843.4373, 366.7999
843.9194, 367.0053
844.4016, 367.2789
844.8837, 367.6063
845.3658, 368.1120
845.8479, 368.7140
846.3300, 368.7767
846.8121, 367.9822
847.2943, 367.0771
847.7764, 366.7019
848.2585, 366.6992
848.7406, 366.8578
849.2227, 367.3186
849.7048, 367.6292
850.1870, 367.5474
850.6691, 367.4350
851.1512, 367.7337
851.6333, 368.5060
852.1154, 369.1193
852.5975, 369.4792
853.0797, 369.7405
853.5618, 370.0729
854.0439, 370.4315
854.5260, 370.7673
855.0081, 371.0952
855.4902, 371.2538
855.9724, 371.0992
856.4545, 370.7800
856.9366, 370.4049
857.4187, 369.9218
857.9008, 369.6118
858.3829, 369.5451
858.8651, 369.5050
859.3472, 369.2382
859.8293, 368.8383
860.3114, 368.7066
860.7935, 368.8705
861.2756, 369.0448
861.7578, 369.0791
862.2399, 368.9949
862.7220, 368.7636
863.2041, 368.3564
863.6862, 368.0574
864.1683, 367.9662
864.6505, 367.8622
865.1326, 367.6011
865.6147, 367.2012
866.0968, 367.0191
866.5789, 367.0497
867.0610, 367.0063
867.5432, 366.4368
868.0253, 365.8613
868.5074, 365.9955
868.9895, 366.7355
869.4716, 367.3807
869.9537, 367.7172
870.4359, 367.8924
870.9180, 368.0185
871.4001, 368.0467
871.8822, 367.5974
872.3643, 366.5645
872.8464, 365.8809
873.3286, 366.0198
873.8107, 366.5864
874.2928, 367.1182
874.7749, 367.4971
875.2570, 367.3867
875.7391, 365.9081
876.2213, 364.7162
876.7034, 364.6961
877.1855, 365.4021
877.6676, 365.8376
878.1497, 365.9464
878.6318, 365.9422
879.1140, 365.8586
879.5961, 365.6762
880.0782, 365.1485
880.5603, 364.4738
881.0424, 364.3973
881.5245, 365.3570
882.0067, 366.2732
882.4888, 366.2170
882.9709, 365.7906
883.4530, 365.6957
883.9351, 366.3259
884.4172, 366.7700
884.8994, 367.0212
885.3815, 367.0987
885.8636, 366.9290
886.3457, 366.5644
886.8278, 366.3394
887.3099, 366.2755
887.7921, 366.5027
888.2742, 367.5156
888.7563, 368.6297
889.2384, 369.0908
889.7205, 368.7180
890.2026, 368.4991
890.6848, 368.5302
891.1669, 368.8009
891.6490, 369.4755
892.1311, 370.4826
892.6132, 370.6046
893.0953, 369.8412
893.5775, 369.1298
894.0596, 369.0884
894.5417, 369.4199
895.0238, 369.8630
895.5059, 370.3947
895.9880, 370.9359
896.4702, 371.6196
896.9523, 372.1126
897.4344, 372.1706
897.9165, 372.0165
898.3986, 372.5112
898.8807, 373.7150
899.3629, 374.6619
899.8450, 374.9730
900.3271, 375.0049
900.8092, 374.9743
901.2913, 375.0927
901.7734, 375.7983
902.2556, 377.9604
902.7377, 379.7919
903.2198, 380.6376
903.7019, 380.9844
904.1840, 381.3170
904.6661, 381.5974
905.1483, 382.0473
905.6304, 382.6928
906.1125, 383.5044
906.5946, 384.5446
907.0767, 385.7048
907.5588, 386.7274
908.0410, 387.5222
908.5231, 388.4760
909.0052, 389.9312
909.4873, 391.4593
909.9694, 392.7568
910.4515, 393.7773
910.9337, 394.9008
911.4158, 396.1201
911.8979, 397.4643
912.3800, 399.3649
912.8621, 401.2830
913.3442, 401.6515
913.8264, 400.7440
914.3085, 400.1989
914.7906, 401.2890
915.2727, 402.5497
915.7548, 403.4559
916.2369, 403.9539
916.7191, 403.7804
917.2012, 402.7134
917.6833, 401.8431
918.1654, 401.5610
918.6475, 401.5468
919.1296, 401.1241
919.6118, 400.4608
920.0939, 400.0550
920.5760, 400.4788
921.0581, 400.5732
921.5402, 399.4747
922.0223, 397.8524
922.5045, 396.6097
922.9866, 395.8398
923.4687, 395.1755
923.9508, 394.5586
924.4329, 394.1290
924.9150, 394.0274
925.3972, 394.2432
925.8793, 394.8097
926.3614, 395.7453
926.8435, 396.8201
927.3256, 398.3360
927.8077, 399.6237
928.2899, 399.8394
928.7720, 398.8676
929.2541, 399.4630
929.7362, 402.1020
930.2183, 404.7401
930.7004, 406.2412
931.1826, 406.9945
931.6647, 407.6742
932.1468, 408.4186
932.6289, 409.8074
933.1110, 412.5663
933.5931, 415.5970
934.0753, 418.4798
934.5574, 421.2677
935.0395, 424.0191
935.5216, 426.6074
936.0037, 429.7052
936.4858, 433.5721
936.9680, 437.8124
937.4501, 441.9896
937.9322, 446.0682
938.4143, 449.9414
938.8964, 453.7864
939.3785, 456.8930
939.8607, 458.7505
940.3428, 459.7620
940.8249, 460.3753
941.3070, 460.8688
941.7891, 459.9083
942.2712, 457.4525
942.7534, 453.7144
943.2355, 448.1007
943.7176, 441.5561
944.1997, 435.8484
944.6818, 431.0038
945.1639, 426.3882
945.6461, 421.7606
946.1282, 417.2788
946.6103, 412.9238
947.0924, 408.7621
947.5745, 405.1169
948.0566, 402.0233
948.5388, 399.2526
949.0209, 396.7800
949.5030, 394.5156
949.9851, 392.0961
950.4672, 389.8010
950.9493, 388.3075
951.4315, 388.5188
951.9136, 388.3848
952.3957, 386.8947
952.8778, 385.0590
953.3599, 383.7925
953.8420, 383.1507
954.3242, 382.7123
954.8063, 382.4641
955.2884, 382.4086
955.7705, 382.6759
956.2526, 383.0704
956.7347, 383.3529
957.2169, 383.4982
957.6990, 383.5188
958.1811, 383.0219
958.6632, 382.8403
959.1453, 383.3434
959.6274, 384.4048
960.1096, 385.4601
960.5917, 386.5094
961.0738, 387.2819
961.5559, 387.4435
962.0380, 387.5871
962.5201, 388.4794
963.0023, 389.8107
963.4844, 391.0295
963.9665, 392.1231
964.4486, 392.8310
964.9307, 392.7666
965.4128, 392.7838
965.8950, 394.1773
966.3771, 396.7471
966.8592, 398.4872
967.3413, 399.1653
967.8234, 399.4980
968.3055, 399.7179
968.7877, 400.1108
969.2698, 401.0050
969.7519, 402.4690
970.2340, 403.8747
970.7161, 405.3322
971.1982, 406.4798
971.6804, 407.2085
972.1625, 407.5110
972.6446, 407.2364
973.1267, 406.4860
973.6088, 405.7208
974.0909, 405.1511
974.5731, 404.6273
975.0552, 404.2565
975.5373, 403.8060
976.0194, 402.8473
976.5015, 401.1581
976.9836, 399.4914
977.4658, 397.8133
977.9479, 396.4892
978.4300, 396.3396
978.9121, 396.7821
979.3942, 396.5071
979.8763, 395.3413
980.3585, 394.1277
980.8406, 393.2122
981.3227, 392.4431
981.8048, 391.5949
982.2869, 390.7359
982.7690, 390.8702
983.2511, 392.1390
983.7332, 392.9137
984.2153, 392.1014
984.6974, 390.8870
985.1796, 390.9610
985.6617, 391.8820
986.1438, 392.7486
986.6259, 393.3795
987.1080, 393.7587
987.5901, 393.6653
988.0723, 393.5840
988.5544, 394.1109
989.0365, 395.2248
989.5186, 396.4181
990.0007, 397.6758
990.4828, 398.6584
990.9650, 398.7026
991.4471, 398.6321
991.9292, 399.2162
992.4113, 400.5175
992.8934, 401.8570
993.3755, 403.1146
993.8577, 404.5344
994.3398, 406.2146
994.8219, 408.0742
995.3040, 409.9088
995.7861, 411.7209
996.2682, 413.5872
996.7504, 415.4864
997.2325, 417.4897
997.7146, 419.7701
998.1967, 422.0998
998.6788, 424.1609
999.1609, 425.6648
999.6431, 427.9984
1000.125, 431.2664
1000.607, 434.8358
1001.089, 438.2499
1001.572, 441.4774
1002.054, 443.9783
1002.536, 445.9145
1003.018, 449.1870
1003.500, 456.7228
1003.982, 463.0376
1004.464, 465.8656
1004.946, 466.4296
1005.428, 468.2733
1005.911, 471.3718
1006.393, 474.7899
1006.875, 478.3237
1007.357, 482.0041
1007.839, 486.0230
1008.321, 490.2191
1008.803, 494.4711
1009.285, 498.7484
1009.768, 503.0473
1010.250, 507.5052
1010.732, 511.7935
1011.214, 515.6854
1011.696, 519.2084
1012.178, 522.4441
1012.660, 525.2952
1013.142, 527.2383
1013.624, 528.5336
1014.107, 528.2248
1014.589, 525.4811
1015.071, 520.8055
1015.553, 515.2310
1016.035, 508.6773
1016.517, 501.6738
1016.999, 494.2959
1017.481, 486.6645
1017.964, 478.7832
1018.446, 470.9466
1018.928, 463.4684
1019.410, 456.4387
1019.892, 449.5740
1020.374, 442.6213
1020.856, 436.0437
1021.338, 430.0054
1021.820, 424.5045
1022.303, 419.7854
1022.785, 415.7728
1023.267, 412.0926
1023.749, 408.3578
1024.231, 405.1105
1024.713, 403.1661
1025.195, 401.8136
1025.677, 399.7195
1026.160, 396.3812
1026.642, 393.6095
1027.124, 391.5106
1027.606, 390.0087
1028.088, 389.2904
1028.570, 389.0214
1029.052, 388.6449
1029.534, 388.1082
1030.016, 387.3138
1030.499, 385.8234
1030.981, 384.5329
1031.463, 383.8936
1031.945, 383.6308
1032.427, 382.6582
1032.909, 381.0379
1033.391, 379.7967
1033.873, 379.2850
1034.355, 379.1727
1034.838, 379.5580
1035.320, 379.9653
1035.802, 379.7524
1036.284, 378.4618
1036.766, 377.6743
1037.248, 377.4915
1037.730, 377.5465
1038.212, 377.8651
1038.695, 378.1628
1039.177, 377.4958
1039.659, 376.0829
1040.141, 374.8507
1040.623, 374.2582
1041.105, 373.8905
1041.587, 373.6432
1042.069, 373.5116
1042.552, 373.4943
1043.034, 373.5883
1043.516, 373.8072
1043.998, 374.1623
1044.480, 374.5372
1044.962, 374.9559
1045.444, 375.2552
1045.926, 375.2641
1046.408, 374.9494
1046.891, 374.4713
1047.373, 373.6343
1047.855, 373.2265
1048.337, 373.8316
1048.819, 374.6926
1049.301, 373.9282
1049.783, 372.1485
1050.265, 370.8465
1050.747, 370.6993
1051.230, 370.7734
1051.712, 371.1541
1052.194, 371.2957
1052.676, 370.6627
1053.158, 369.1940
1053.640, 368.0853
1054.122, 367.3326
1054.604, 366.7713
1055.087, 366.2377
1055.569, 365.8849
1056.051, 365.8663
1056.533, 366.1292
1057.015, 366.5162
1057.497, 367.1002
1057.979, 367.6244
1058.461, 368.1396
1058.943, 368.3690
1059.426, 367.7721
1059.908, 366.6909
1060.390, 365.6763
1060.872, 364.7950
1061.354, 364.2665
1061.836, 364.3726
1062.318, 364.6787
1062.800, 365.1561
1063.282, 365.6514
1063.765, 365.2909
1064.247, 364.2124
1064.729, 363.7628
1065.211, 364.7023
1065.693, 365.7715
1066.175, 366.1856
1066.657, 366.1035
1067.139, 365.6547
1067.622, 364.7212
1068.104, 364.0383
1068.586, 363.6450
1069.068, 363.3498
1069.550, 362.9625
1070.032, 362.6310
1070.514, 362.6944
1070.996, 363.0240
1071.479, 363.1904
1071.961, 362.7070
1072.443, 362.5824
1072.925, 363.1211
1073.407, 363.8302
1073.889, 364.0357
1074.371, 363.8354
1074.853, 363.6060
1075.335, 363.3898
1075.818, 363.2572
1076.300, 363.2599
1076.782, 363.3553
1077.264, 363.5674
1077.746, 363.8539
1078.228, 364.0540
1078.710, 364.1719
1079.192, 364.1217
1079.674, 363.8159
1080.157, 363.5052
1080.639, 363.3034
1081.121, 363.3310
1081.603, 363.7856
1082.085, 364.8820
1082.567, 365.8292
1083.049, 366.6931
1083.531, 367.2010
1084.013, 367.0096
1084.496, 366.4727
1084.978, 366.2793
1085.460, 366.4390
1085.942, 366.9671
1086.424, 368.4180
1086.906, 369.4995
1087.388, 369.7915
1087.870, 369.8252
1088.353, 370.1221
1088.835, 370.6616
1089.317, 371.1632
1089.799, 371.6255
1090.281, 372.2978
1090.763, 373.6844
1091.245, 374.9970
1091.727, 375.6668
1092.209, 375.8783
1092.692, 376.1564
1093.174, 376.4884
1093.656, 376.9240
1094.138, 377.4412
1094.620, 378.1993
1095.102, 379.8456
1095.584, 381.5400
1096.066, 382.1640
1096.548, 381.4772
1097.031, 381.2744
1097.513, 382.0017
1097.995, 382.3614
1098.477, 381.7621
1098.959, 380.6537
1099.441, 379.8474
1099.923, 379.2857
1100.405, 378.8020
1100.888, 378.3560
1101.370, 377.9953
1101.852, 377.9467
1102.334, 377.7519
1102.816, 377.0711
1103.298, 375.9678
1103.780, 374.8188
1104.262, 373.6542
1104.745, 372.6591
1105.227, 371.9838
1105.709, 371.4279
1106.191, 370.9841
1106.673, 370.5336
1107.155, 369.8368
1107.637, 368.7981
1108.119, 368.3648
1108.601, 368.6218
1109.083, 368.9010
1109.566, 368.8045
1110.048, 368.3564
1110.530, 367.3645
1111.012, 365.9908
1111.494, 365.0199
1111.976, 364.6247
1112.458, 364.1881
1112.940, 363.5333
1113.423, 363.0063
1113.905, 363.2821
1114.387, 363.8851
1114.869, 363.9917
1115.351, 363.4700
1115.833, 363.0849
1116.315, 363.2267
1116.797, 363.1255
1117.280, 362.3604
1117.762, 361.3644
1118.244, 361.3392
1118.726, 361.9639
1119.208, 362.2757
1119.690, 361.8894
1120.172, 361.5231
1120.654, 361.6394
1121.136, 361.7119
1121.619, 361.4073
1122.101, 360.7618
1122.583, 359.9406
1123.065, 359.0228
1123.547, 358.7560
1124.029, 360.2133
1124.511, 361.4746
1124.993, 361.0171
1125.475, 359.8435
1125.958, 359.2383
1126.440, 359.2353
1126.922, 359.8370
1127.404, 361.1057
1127.886, 361.9412
1128.368, 361.0073
1128.850, 359.7130
1129.332, 359.4526
1129.815, 359.9324
1130.297, 360.1573
1130.779, 359.9183
1131.261, 359.8695
1131.743, 360.1154
1132.225, 360.4167
1132.707, 360.6273
1133.189, 360.6743
1133.672, 360.2918
1134.154, 359.5487
1134.636, 359.2354
1135.118, 359.8200
1135.600, 360.2475
1136.082, 360.1821
1136.564, 360.0747
1137.046, 360.9187
1137.528, 362.2364
1138.010, 362.8962
1138.493, 362.6693
1138.975, 362.3679
1139.457, 361.8895
1139.939, 361.8991
1140.421, 362.8278
1140.903, 364.2902
1141.385, 365.2617
1141.867, 365.7959
1142.350, 366.1213
1142.832, 366.2325
1143.314, 366.3474
1143.796, 366.2901
1144.278, 366.5642
1144.760, 367.6809
1145.242, 369.5132
1145.724, 370.3658
1146.207, 370.3280
1146.689, 370.2485
1147.171, 370.4585
1147.653, 370.8478
1148.135, 371.4150
1148.617, 372.0866
1149.099, 372.7860
1149.581, 373.5223
1150.063, 374.3109
1150.546, 375.1627
1151.028, 375.6934
1151.510, 375.1586
1151.992, 374.6391
1152.474, 375.2581
1152.956, 376.4972
1153.438, 377.2206
1153.920, 377.1761
1154.402, 377.3806
1154.885, 377.9136
1155.367, 378.5077
1155.849, 378.9784
1156.331, 379.3224
1156.813, 379.4795
1157.295, 379.4886
1157.777, 379.5357
1158.259, 379.6574
1158.742, 379.7792
1159.224, 379.9239
1159.706, 379.9399
1160.188, 379.6305
1160.670, 379.0883
1161.152, 378.4439
1161.634, 377.7091
1162.116, 376.8246
1162.599, 375.6996
1163.081, 374.5977
1163.563, 373.5687
1164.045, 372.6076
1164.527, 371.7644
1165.009, 370.9694
1165.491, 369.9844
1165.973, 368.7319
1166.455, 367.8404
1166.938, 367.6850
1167.420, 367.5861
1167.902, 367.3859
1168.384, 367.0174
1168.866, 366.1983
1169.348, 365.0928
1169.830, 364.1541
1170.312, 363.5251
1170.794, 362.8870
1171.277, 362.0121
1171.759, 361.2579
1172.241, 360.8330
1172.723, 360.6448
1173.205, 360.3177
1173.687, 359.9070
1174.169, 359.5879
1174.651, 359.4479
1175.134, 359.3661
1175.616, 359.2021
1176.098, 359.1918
1176.580, 359.6295
1177.062, 360.3945
1177.544, 360.3889
1178.026, 359.7575
1178.508, 359.3136
1178.990, 359.6933
1179.473, 360.0040
1179.955, 359.8305
1180.437, 359.4144
1180.919, 358.8671
1181.401, 358.1994
1181.883, 358.0390
1182.365, 358.3276
1182.847, 358.4572
1183.329, 357.7683
1183.812, 357.1773
1184.294, 357.4360
1184.776, 357.9057
1185.258, 357.6904
1185.740, 356.7693
1186.222, 356.3944
1186.704, 356.6130
1187.186, 357.0304
1187.669, 357.7543
1188.151, 358.2147
1188.633, 357.7837
1189.115, 356.9503
1189.597, 356.6206
1190.079, 356.8221
1190.561, 356.6787
1191.043, 356.0891
1191.526, 355.7434
1192.008, 356.5416
1192.490, 357.4217
1192.972, 357.5634
1193.454, 357.2063
1193.936, 357.0182
1194.418, 357.0040
1194.900, 357.0794
1195.382, 357.2452
1195.865, 357.3576
1196.347, 357.4511
1196.829, 357.3112
1197.311, 356.5241
1197.793, 355.3536
1198.275, 354.8634
1198.757, 355.1063
1199.239, 355.4720
1199.721, 355.8975
1200.204, 356.0898
1200.686, 355.4515
1201.168, 354.7452
1201.650, 354.7415
1202.132, 355.3305
1202.614, 355.5628
1203.096, 355.4112
1203.578, 355.2532
1204.061, 355.1585
1204.543, 355.1852
1205.025, 355.5182
1205.507, 355.8964
1205.989, 356.0522
1206.471, 355.9819
1206.953, 355.8480
1207.435, 355.6354
1207.917, 355.4532
1208.400, 355.2986
1208.882, 355.2990
1209.364, 355.9824
1209.846, 356.6160
1210.328, 356.1968
1210.810, 354.7587
1211.292, 354.0493
1211.774, 354.0970
1212.256, 354.4635
1212.739, 355.2303
1213.221, 355.7065
1213.703, 354.9452
1214.185, 353.7418
1214.667, 352.8493
1215.149, 352.2651
1215.631, 352.7082
1216.113, 354.2233
1216.596, 355.2847
1217.078, 354.9994
1217.560, 354.3777
1218.042, 354.0815
1218.524, 354.0756
1219.006, 354.4474
1219.488, 355.2593
1219.970, 355.1709
1220.453, 354.1533
1220.935, 353.4277
1221.417, 353.8524
1221.899, 354.4324
1222.381, 354.1751
1222.863, 353.7566
1223.345, 354.1472
1223.827, 355.5304
1224.309, 355.6480
1224.792, 354.5063
1225.274, 353.7648
1225.756, 354.9268
1226.238, 356.0711
1226.720, 355.5742
1227.202, 354.4445
1227.684, 353.9656
1228.166, 354.2162
1228.648, 354.5060
1229.131, 354.8296
1229.613, 354.9708
1230.095, 354.3150
1230.577, 353.9784
1231.059, 355.3359
1231.541, 356.9397
1232.023, 356.8903
1232.505, 355.0678
1232.988, 353.9062
1233.470, 353.3890
1233.952, 353.0681
1234.434, 352.6182
1234.916, 352.3528
1235.398, 352.5794
1235.880, 353.0029
1236.362, 353.3417
1236.844, 353.5987
1237.327, 353.6832
1237.809, 353.6081
1238.291, 353.4734
1238.773, 353.1982
1239.255, 353.0523
1239.737, 353.3516
1240.219, 353.6871
1240.701, 353.5172
1241.183, 352.9371
1241.666, 352.8303
1242.148, 353.1777
1242.630, 353.5602
1243.112, 353.6891
1243.594, 353.9045
1244.076, 354.4991
1244.558, 355.0273
1245.040, 354.7866
1245.523, 354.0275
1246.005, 354.0060
1246.487, 354.6782
1246.969, 355.3272
1247.451, 355.7510
1247.933, 355.9009
1248.415, 355.7059
1248.897, 355.3709
1249.380, 354.9810
1249.862, 354.6616
1250.344, 354.9870
1250.826, 355.8334
1251.308, 356.4268
1251.790, 356.3933
1252.272, 356.0772
1252.754, 355.3609
1253.236, 354.7513
1253.719, 355.1001
1254.201, 355.8668
1254.683, 355.7822
1255.165, 355.0109
1255.647, 354.6471
1256.129, 355.4620
1256.611, 355.8295
1257.093, 355.4115
1257.575, 355.0374
1258.058, 355.9203
1258.540, 357.2059
1259.022, 357.6305
1259.504, 357.2804
1259.986, 356.7974
1260.468, 356.0869
1260.950, 355.8383
1261.432, 356.2119
1261.915, 356.6384
1262.397, 356.4977
1262.879, 356.1669
1263.361, 355.9633
1263.843, 355.9402
1264.325, 356.2660
1264.807, 357.1445
1265.289, 357.2637
1265.771, 356.3937
1266.254, 355.6859
1266.736, 356.8088
1267.218, 357.9256
1267.700, 357.0455
1268.182, 355.0104
1268.664, 354.3292
1269.146, 355.1007
1269.628, 355.8548
1270.110, 356.4677
1270.593, 356.7044
1271.075, 355.8344
1271.557, 355.1274
1272.039, 355.7651
1272.521, 356.9066
1273.003, 357.2502
1273.485, 356.8447
1273.967, 356.0940
1274.450, 355.0757
1274.932, 354.6294
1275.414, 355.9601
1275.896, 357.0612
1276.378, 357.0454
1276.860, 356.6042
1277.342, 356.7706
1277.824, 357.3325
1278.307, 357.3731
1278.789, 356.8991
1279.271, 356.5580
1279.753, 356.7621
1280.235, 356.9775
1280.717, 357.1348
1281.199, 357.2069
1281.681, 357.1220
1282.163, 356.9480
1282.646, 356.8017
1283.128, 356.6981
1283.610, 356.6578
1284.092, 356.7131
1284.574, 356.7923
1285.056, 356.9132
1285.538, 356.9580
1286.020, 356.7865
1286.502, 356.4778
1286.984, 356.0295
1287.467, 355.5316
1287.949, 355.2445
1288.431, 355.0666
1288.913, 355.6990
1289.395, 357.3382
1289.877, 358.5698
1290.359, 357.5818
1290.841, 356.2320
1291.324, 356.1555
1291.806, 356.9026
1292.288, 357.3055
1292.770, 357.3334
1293.252, 357.5259
1293.734, 357.9040
1294.216, 357.9478
1294.698, 356.8308
1295.181, 355.8122
1295.663, 355.7206
1296.145, 356.0333
1296.627, 356.1588
1297.109, 356.1427
1297.591, 356.3932
1298.073, 356.8773
1298.555, 357.2430
1299.037, 357.2430
1299.520, 357.1841
1300.002, 357.0381
1300.484, 357.1684
1300.966, 357.9901
1301.448, 359.0778
1301.930, 359.5410
1302.412, 359.5063
1302.894, 359.4884
1303.376, 359.6286
1303.859, 359.7613
1304.341, 359.7145
1304.823, 359.7260
1305.305, 359.3636
1305.787, 358.7228
##END=



