##NAMES=Wilhelmkleinite
##RRUFFID=R070060
##IDEAL CHEMISTRY=Zn^2+^Fe^3+^_2_(As^5+^O_4_)_2_(OH)_2_
##LOCALITY=Tsumeb mine, Tsumeb, Otavi District, Oshikoto, Namibia
##OWNER=RRUFF
##SOURCE=William W. Pinch
##DESCRIPTION=Dark green bladed crystal, vug has large xl with Parasymplessite xls, smaller xl removed from this larger one
##STATUS=The identification of this mineral is confirmed by single-crystal X-ray diffraction and chemical analysis.
##URL=rruff.info/R070060
##MEASURED CHEMISTRY=(Zn_0.90_Fe^2+^_0.07_Cu_0.03_)_Σ=1_(Fe^3+^_1.99_Al_0.01_)_Σ=2_(As_1.00_O_4_)_2_(OH)_2_ ; OH estimated by difference; Fe2+ and Fe3+ proportions estimated by charge balance and stoichiometry
140.0572, 549.1132
140.5393, 561.1135
141.0214, 573.6152
141.5036, 585.2053
141.9857, 595.9775
142.4678, 607.3610
142.9499, 613.5679
143.4320, 612.5011
143.9141, 606.4556
144.3963, 602.5996
144.8784, 601.3586
145.3605, 601.7601
145.8426, 603.3895
146.3247, 606.9650
146.8068, 610.5060
147.2890, 611.6197
147.7711, 611.0074
148.2532, 618.4727
148.7353, 641.8705
149.2174, 668.3357
149.6995, 688.5691
150.1817, 691.3214
150.6638, 699.8365
151.1459, 721.0565
151.6280, 757.3943
152.1101, 783.8036
152.5923, 797.1411
153.0744, 800.6370
153.5565, 797.6322
154.0386, 786.6028
154.5207, 770.7224
155.0028, 750.1071
155.4850, 723.7518
155.9671, 696.4260
156.4492, 668.4730
156.9313, 640.1462
157.4134, 611.9653
157.8955, 579.3154
158.3777, 550.0134
158.8598, 528.1202
159.3419, 516.8365
159.8240, 507.6402
160.3061, 497.8657
160.7882, 488.0807
161.2704, 479.7130
161.7525, 472.7807
162.2346, 467.7480
162.7167, 465.2557
163.1988, 468.3864
163.6809, 470.2892
164.1631, 464.7122
164.6452, 453.7581
165.1273, 447.4463
165.6094, 455.7332
166.0915, 469.4218
166.5736, 479.4774
167.0558, 479.9537
167.5379, 478.1437
168.0200, 479.1361
168.5021, 482.7219
168.9842, 485.5465
169.4663, 483.0401
169.9485, 478.7845
170.4306, 477.9956
170.9127, 486.0360
171.3948, 496.7518
171.8769, 503.8769
172.3590, 507.0056
172.8412, 509.9223
173.3233, 516.2053
173.8054, 524.6425
174.2875, 532.5571
174.7696, 539.1398
175.2517, 544.2708
175.7339, 546.4287
176.2160, 544.3744
176.6981, 544.3619
177.1802, 556.8622
177.6623, 578.3740
178.1444, 595.5706
178.6266, 596.0288
179.1087, 587.5657
179.5908, 585.6561
180.0729, 592.9045
180.5550, 605.8299
181.0371, 621.5603
181.5193, 639.7858
182.0014, 657.0515
182.4835, 669.6681
182.9656, 679.3586
183.4477, 691.9908
183.9299, 709.5219
184.4120, 729.3275
184.8941, 747.0204
185.3762, 762.7588
185.8583, 776.8568
186.3404, 788.4116
186.8226, 798.0836
187.3047, 810.0416
187.7868, 825.6811
188.2689, 843.9420
188.7510, 861.3264
189.2331, 877.4539
189.7153, 895.8715
190.1974, 921.7223
190.6795, 954.1899
191.1616, 984.6649
191.6437, 1009.528
192.1258, 1030.266
192.6080, 1052.413
193.0901, 1076.178
193.5722, 1101.828
194.0543, 1130.186
194.5364, 1161.147
195.0185, 1193.076
195.5007, 1224.929
195.9828, 1257.002
196.4649, 1290.344
196.9470, 1325.109
197.4291, 1362.088
197.9112, 1402.872
198.3934, 1447.672
198.8755, 1494.489
199.3576, 1543.534
199.8397, 1594.961
200.3218, 1643.376
200.8039, 1687.346
201.2861, 1730.454
201.7682, 1780.775
202.2503, 1840.505
202.7324, 1897.351
203.2145, 1947.691
203.6966, 1992.413
204.1788, 2024.210
204.6609, 2043.957
205.1430, 2049.394
205.6251, 2034.766
206.1072, 1999.067
206.5893, 1946.434
207.0715, 1875.314
207.5536, 1782.697
208.0357, 1690.471
208.5178, 1599.298
208.9999, 1509.801
209.4820, 1419.418
209.9642, 1324.654
210.4463, 1237.262
210.9284, 1165.481
211.4105, 1113.435
211.8926, 1063.542
212.3748, 1012.246
212.8569, 962.3746
213.3390, 924.9002
213.8211, 903.6906
214.3032, 888.2899
214.7853, 872.0882
215.2675, 855.0829
215.7496, 837.6057
216.2317, 818.8138
216.7138, 799.3669
217.1959, 783.9866
217.6780, 775.1034
218.1602, 766.3176
218.6423, 751.6740
219.1244, 726.7361
219.6065, 707.0072
220.0886, 695.9844
220.5707, 693.0373
221.0529, 687.6245
221.5350, 677.3740
222.0171, 667.6210
222.4992, 663.2155
222.9813, 666.3945
223.4634, 670.1646
223.9456, 674.1050
224.4277, 678.2557
224.9098, 678.4811
225.3919, 672.6487
225.8740, 665.2841
226.3561, 660.4050
226.8383, 657.7773
227.3204, 658.2961
227.8025, 662.9739
228.2846, 672.0820
228.7667, 680.2076
229.2488, 687.2933
229.7310, 693.2595
230.2131, 698.0175
230.6952, 701.3579
231.1773, 703.6816
231.6594, 704.0620
232.1415, 701.7567
232.6237, 704.5943
233.1058, 715.3357
233.5879, 728.9146
234.0700, 738.9598
234.5521, 742.7651
235.0342, 747.8830
235.5164, 756.7490
235.9985, 770.2855
236.4806, 781.7496
236.9627, 790.7446
237.4448, 797.8343
237.9269, 803.0480
238.4091, 802.6386
238.8912, 806.7899
239.3733, 820.0541
239.8554, 845.5521
240.3375, 864.2759
240.8196, 873.8871
241.3018, 878.2797
241.7839, 883.8437
242.2660, 894.7347
242.7481, 899.6150
243.2302, 893.9603
243.7124, 875.1201
244.1945, 857.7075
244.6766, 843.0062
245.1587, 828.9250
245.6408, 811.8716
246.1229, 790.7699
246.6051, 768.5143
247.0872, 745.6752
247.5693, 721.7933
248.0514, 698.7594
248.5335, 674.3237
249.0156, 652.0385
249.4978, 639.2682
249.9799, 641.9171
250.4620, 643.4238
250.9441, 637.1595
251.4262, 619.3766
251.9083, 608.8286
252.3905, 609.8284
252.8726, 615.3758
253.3547, 612.0744
253.8368, 592.7974
254.3189, 577.9922
254.8010, 576.2425
255.2832, 592.2834
255.7653, 602.4960
256.2474, 604.2532
256.7295, 601.9033
257.2116, 603.4360
257.6937, 610.9295
258.1758, 617.9670
258.6580, 621.6984
259.1401, 620.8000
259.6222, 622.5725
260.1043, 628.2121
260.5865, 635.6117
261.0686, 640.6771
261.5507, 642.3950
262.0328, 644.1250
262.5149, 647.6246
262.9970, 653.9014
263.4792, 656.8111
263.9613, 654.8152
264.4434, 650.8433
264.9255, 649.9595
265.4076, 652.5596
265.8897, 657.1966
266.3719, 664.1420
266.8540, 674.0938
267.3361, 681.5003
267.8182, 685.4951
268.3003, 687.7764
268.7824, 691.1254
269.2646, 695.6245
269.7467, 700.9266
270.2288, 707.2034
270.7109, 714.5664
271.1930, 721.9753
271.6751, 730.2766
272.1573, 737.5985
272.6394, 739.5814
273.1215, 734.3840
273.6036, 731.7523
274.0857, 736.2053
274.5678, 748.1467
275.0500, 759.9544
275.5321, 772.3215
276.0142, 783.5886
276.4963, 791.1937
276.9784, 794.8922
277.4605, 796.4410
277.9427, 795.2172
278.4248, 791.3575
278.9069, 791.3486
279.3890, 795.7084
279.8711, 802.8273
280.3532, 812.2588
280.8354, 824.5349
281.3175, 832.3684
281.7996, 830.1902
282.2817, 819.4178
282.7638, 815.7803
283.2459, 820.5624
283.7281, 828.4724
284.2102, 832.6885
284.6923, 833.2115
285.1744, 833.5948
285.6565, 833.5350
286.1386, 834.0383
286.6208, 841.6423
287.1029, 857.3821
287.5850, 875.7759
288.0671, 889.3249
288.5492, 898.7548
289.0313, 912.1981
289.5135, 935.6493
289.9956, 965.3005
290.4777, 987.3215
290.9598, 1001.117
291.4419, 1013.325
291.9240, 1031.576
292.4062, 1054.902
292.8883, 1077.367
293.3704, 1096.145
293.8525, 1113.076
294.3346, 1131.840
294.8167, 1152.177
295.2989, 1176.574
295.7810, 1211.320
296.2631, 1252.620
296.7452, 1289.753
297.2273, 1319.467
297.7094, 1342.316
298.1916, 1358.905
298.6737, 1369.154
299.1558, 1374.828
299.6379, 1374.843
300.1200, 1371.355
300.6021, 1369.720
301.0843, 1377.000
301.5664, 1381.847
302.0485, 1369.226
302.5306, 1340.058
303.0127, 1303.560
303.4948, 1260.601
303.9770, 1215.774
304.4591, 1175.255
304.9412, 1141.572
305.4233, 1112.333
305.9054, 1086.342
306.3875, 1063.337
306.8697, 1041.341
307.3518, 1020.988
307.8339, 1000.453
308.3160, 977.5964
308.7981, 950.3437
309.2802, 923.0837
309.7624, 897.2037
310.2445, 873.7950
310.7266, 856.9391
311.2087, 854.2563
311.6908, 855.9948
312.1729, 853.4734
312.6551, 843.0380
313.1372, 832.0242
313.6193, 824.2499
314.1014, 818.9459
314.5835, 814.4274
315.0656, 808.8190
315.5478, 804.4922
316.0299, 803.2019
316.5120, 806.0637
316.9941, 809.7459
317.4762, 813.0851
317.9583, 816.3652
318.4405, 820.1178
318.9226, 825.5829
319.4047, 830.6678
319.8868, 834.0215
320.3690, 834.6335
320.8511, 836.4910
321.3332, 839.3230
321.8153, 844.2194
322.2974, 852.7490
322.7795, 868.5342
323.2617, 884.9393
323.7438, 899.8484
324.2259, 912.7412
324.7080, 926.0344
325.1901, 938.3441
325.6722, 951.8140
326.1544, 968.7773
326.6365, 996.5524
327.1186, 1020.422
327.6007, 1034.848
328.0828, 1038.141
328.5649, 1050.132
329.0471, 1076.892
329.5292, 1108.525
330.0113, 1136.824
330.4934, 1159.938
330.9755, 1182.739
331.4576, 1205.548
331.9398, 1228.250
332.4219, 1252.489
332.9040, 1279.429
333.3861, 1306.688
333.8682, 1332.341
334.3503, 1355.432
334.8325, 1379.714
335.3146, 1405.534
335.7967, 1433.071
336.2788, 1463.672
336.7609, 1500.666
337.2430, 1534.152
337.7252, 1554.291
338.2073, 1557.049
338.6894, 1571.322
339.1715, 1602.943
339.6536, 1644.141
340.1357, 1675.163
340.6179, 1694.843
341.1000, 1711.621
341.5821, 1731.048
342.0642, 1752.720
342.5463, 1769.638
343.0284, 1780.887
343.5106, 1788.344
343.9927, 1794.791
344.4748, 1800.190
344.9569, 1803.392
345.4390, 1806.093
345.9211, 1806.615
346.4033, 1796.182
346.8854, 1773.778
347.3675, 1746.485
347.8496, 1721.795
348.3317, 1699.386
348.8138, 1677.367
349.2960, 1657.187
349.7781, 1636.467
350.2602, 1608.925
350.7423, 1574.619
351.2244, 1539.159
351.7065, 1506.330
352.1887, 1475.798
352.6708, 1447.535
353.1529, 1420.819
353.6350, 1397.008
354.1171, 1379.707
354.5992, 1367.558
355.0814, 1352.977
355.5635, 1324.570
356.0456, 1293.443
356.5277, 1272.643
357.0098, 1268.742
357.4919, 1270.283
357.9741, 1271.564
358.4562, 1272.621
358.9383, 1273.581
359.4204, 1270.574
359.9025, 1270.000
360.3846, 1277.289
360.8668, 1296.425
361.3489, 1315.254
361.8310, 1324.296
362.3131, 1330.415
362.7952, 1345.433
363.2773, 1379.846
363.7595, 1417.496
364.2416, 1452.194
364.7237, 1482.748
365.2058, 1513.667
365.6879, 1541.347
366.1700, 1571.156
366.6522, 1608.786
367.1343, 1664.435
367.6164, 1717.843
368.0985, 1763.133
368.5806, 1799.625
369.0627, 1843.447
369.5449, 1896.493
370.0270, 1955.362
370.5091, 2019.825
370.9912, 2098.550
371.4733, 2167.731
371.9554, 2220.702
372.4376, 2261.163
372.9197, 2307.810
373.4018, 2361.963
373.8839, 2419.302
374.3660, 2478.530
374.8481, 2539.699
375.3303, 2600.326
375.8124, 2660.790
376.2945, 2720.147
376.7766, 2776.507
377.2587, 2828.342
377.7408, 2883.467
378.2230, 2949.763
378.7051, 3026.027
379.1872, 3092.721
379.6693, 3148.926
380.1514, 3196.302
380.6335, 3239.652
381.1157, 3278.165
381.5978, 3297.619
382.0799, 3287.001
382.5620, 3255.129
383.0442, 3227.316
383.5263, 3203.716
384.0084, 3169.007
384.4905, 3106.444
384.9726, 3021.374
385.4547, 2928.178
385.9369, 2828.322
386.4190, 2722.479
386.9011, 2608.383
387.3832, 2486.747
387.8653, 2366.401
388.3474, 2251.466
388.8296, 2140.919
389.3117, 2034.166
389.7938, 1930.688
390.2759, 1835.178
390.7580, 1750.313
391.2401, 1675.235
391.7223, 1607.266
392.2044, 1548.251
392.6865, 1493.974
393.1686, 1440.604
393.6507, 1387.790
394.1328, 1340.782
394.6150, 1305.256
395.0971, 1275.037
395.5792, 1243.205
396.0613, 1202.965
396.5434, 1166.573
397.0255, 1136.988
397.5077, 1114.769
397.9898, 1094.882
398.4719, 1079.107
398.9540, 1064.168
399.4361, 1047.948
399.9182, 1026.748
400.4004, 1009.978
400.8825, 1001.119
401.3646, 997.0661
401.8467, 986.5638
402.3288, 966.2290
402.8109, 945.3356
403.2931, 928.0141
403.7752, 914.9560
404.2573, 902.1500
404.7394, 888.1876
405.2215, 876.2421
405.7036, 872.9080
406.1858, 879.4131
406.6679, 885.7708
407.1500, 889.5239
407.6321, 890.4183
408.1142, 884.3366
408.5963, 869.8820
409.0785, 857.4719
409.5606, 860.2841
410.0427, 875.5102
410.5248, 887.4181
411.0069, 891.0451
411.4890, 891.0502
411.9712, 894.2661
412.4533, 900.6321
412.9354, 909.8457
413.4175, 922.7878
413.8996, 937.9353
414.3817, 953.5776
414.8639, 969.9518
415.3460, 984.5301
415.8281, 993.1579
416.3102, 998.3339
416.7923, 1005.024
417.2744, 1018.971
417.7566, 1032.556
418.2387, 1037.764
418.7208, 1033.551
419.2029, 1035.606
419.6850, 1055.800
420.1671, 1083.104
420.6493, 1107.370
421.1314, 1127.053
421.6135, 1142.017
422.0956, 1151.062
422.5777, 1154.866
423.0598, 1158.233
423.5420, 1161.865
424.0241, 1165.011
424.5062, 1167.337
424.9883, 1168.443
425.4704, 1169.487
425.9525, 1171.507
426.4347, 1173.060
426.9168, 1171.545
427.3989, 1166.400
427.8810, 1159.134
428.3631, 1149.668
428.8452, 1137.933
429.3274, 1126.923
429.8095, 1116.694
430.2916, 1107.460
430.7737, 1100.545
431.2558, 1096.281
431.7379, 1089.229
432.2201, 1078.804
432.7022, 1064.488
433.1843, 1042.535
433.6664, 1013.150
434.1485, 985.0384
434.6306, 963.4280
435.1128, 947.6746
435.5949, 936.6581
436.0770, 930.8667
436.5591, 927.3448
437.0412, 921.7178
437.5233, 915.6852
438.0055, 913.6411
438.4876, 923.4038
438.9697, 934.5470
439.4518, 936.0417
439.9339, 927.9485
440.4160, 918.6613
440.8982, 911.3050
441.3803, 906.0464
441.8624, 903.0388
442.3445, 904.1849
442.8266, 905.3199
443.3088, 902.7636
443.7909, 898.6461
444.2730, 899.7549
444.7551, 914.3376
445.2372, 928.9419
445.7194, 937.3976
446.2015, 935.9914
446.6836, 936.7872
447.1657, 941.1113
447.6478, 947.2307
448.1299, 953.3550
448.6121, 960.8750
449.0942, 965.7485
449.5763, 965.7471
450.0584, 961.5338
450.5405, 962.0681
451.0226, 968.8427
451.5048, 977.0090
451.9869, 983.1189
452.4690, 986.9791
452.9511, 991.2472
453.4332, 996.1489
453.9153, 1001.615
454.3975, 1008.276
454.8796, 1016.044
455.3617, 1021.742
455.8438, 1022.639
456.3259, 1020.463
456.8080, 1020.951
457.2902, 1024.453
457.7723, 1025.115
458.2544, 1014.721
458.7365, 998.0576
459.2186, 984.2207
459.7007, 977.7463
460.1829, 972.7072
460.6650, 962.7480
461.1471, 949.6439
461.6292, 939.7485
462.1113, 941.6748
462.5934, 944.0099
463.0756, 938.3701
463.5577, 921.3879
464.0398, 904.0076
464.5219, 886.5108
465.0040, 871.3441
465.4861, 861.6509
465.9683, 863.8011
466.4504, 865.1932
466.9325, 861.4827
467.4146, 853.0806
467.8967, 851.2068
468.3788, 863.2231
468.8610, 873.4758
469.3431, 870.7862
469.8252, 847.6598
470.3073, 834.8464
470.7894, 837.9291
471.2715, 847.8062
471.7537, 843.7135
472.2358, 822.6415
472.7179, 808.8146
473.2000, 815.9143
473.6821, 839.1881
474.1642, 851.6777
474.6464, 852.4899
475.1285, 851.8789
475.6106, 860.7922
476.0927, 876.1942
476.5748, 888.9279
477.0569, 896.9252
477.5391, 901.6956
478.0212, 902.7103
478.5033, 901.4599
478.9854, 902.7293
479.4675, 908.6177
479.9496, 918.4423
480.4318, 933.4014
480.9139, 954.2198
481.3960, 972.6834
481.8781, 981.3313
482.3602, 987.3391
482.8423, 997.9069
483.3245, 1020.815
483.8066, 1041.850
484.2887, 1054.848
484.7708, 1062.139
485.2529, 1076.838
485.7350, 1104.536
486.2172, 1134.314
486.6993, 1162.018
487.1814, 1186.599
487.6635, 1212.193
488.1456, 1240.926
488.6277, 1268.462
489.1099, 1287.960
489.5920, 1297.686
490.0741, 1309.331
490.5562, 1326.594
491.0383, 1347.690
491.5204, 1366.525
492.0026, 1383.323
492.4847, 1396.588
492.9668, 1404.494
493.4489, 1408.041
493.9310, 1410.668
494.4131, 1413.167
494.8953, 1412.698
495.3774, 1407.679
495.8595, 1397.292
496.3416, 1380.131
496.8237, 1353.056
497.3058, 1320.775
497.7880, 1284.006
498.2701, 1243.853
498.7522, 1205.725
499.2343, 1172.007
499.7164, 1141.823
500.1985, 1114.647
500.6807, 1093.614
501.1628, 1070.440
501.6449, 1041.575
502.1270, 1010.082
502.6091, 980.9048
503.0912, 953.8793
503.5734, 929.2124
504.0555, 908.0947
504.5376, 890.4771
505.0197, 868.7618
505.5019, 841.1017
505.9840, 813.1483
506.4661, 788.1357
506.9482, 765.6786
507.4303, 748.8729
507.9124, 739.3005
508.3946, 732.6623
508.8767, 721.8759
509.3588, 707.3672
509.8409, 693.1104
510.3230, 680.4700
510.8051, 669.2556
511.2873, 659.2910
511.7694, 650.5641
512.2515, 643.4498
512.7336, 641.1793
513.2157, 639.3367
513.6978, 632.1671
514.1799, 616.6479
514.6620, 600.3574
515.1442, 584.7148
515.6263, 571.4431
516.1084, 563.6472
516.5905, 567.1568
517.0726, 571.3730
517.5547, 574.1757
518.0369, 575.5391
518.5190, 571.2120
519.0011, 553.2622
519.4832, 536.6971
519.9653, 531.0436
520.4474, 544.2448
520.9296, 549.0562
521.4117, 542.2317
521.8938, 529.5897
522.3759, 521.3500
522.8580, 518.1773
523.3401, 514.8499
523.8223, 508.8401
524.3044, 501.5193
524.7865, 499.0522
525.2686, 501.5315
525.7507, 502.6354
526.2328, 494.9386
526.7150, 482.6729
527.1971, 475.0964
527.6792, 474.5622
528.1613, 475.0792
528.6434, 471.0132
529.1255, 464.3268
529.6077, 458.3861
530.0898, 454.4922
530.5719, 451.7585
531.0540, 449.6714
531.5361, 448.2823
532.0182, 447.9710
532.5004, 450.2830
532.9825, 452.5998
533.4646, 453.3452
533.9467, 451.0340
534.4288, 450.3672
534.9109, 453.6406
535.3931, 457.0292
535.8752, 455.0058
536.3574, 445.3245
536.8395, 436.6971
537.3216, 430.6206
537.8037, 426.9698
538.2858, 425.9193
538.7679, 427.7963
539.2501, 429.0461
539.7322, 425.7059
540.2143, 419.7085
540.6964, 419.0010
541.1785, 424.6440
541.6606, 430.4742
542.1428, 427.2271
542.6249, 420.1152
543.1070, 419.4125
543.5891, 435.9548
544.0712, 450.7640
544.5533, 448.4106
545.0355, 433.4089
545.5176, 419.4680
545.9997, 409.8611
546.4818, 404.1549
546.9639, 403.3305
547.4460, 408.6737
547.9282, 412.4390
548.4103, 411.9197
548.8924, 411.0873
549.3745, 413.6475
549.8566, 423.8149
550.3387, 427.4919
550.8209, 420.9929
551.3030, 409.0565
551.7851, 403.1178
552.2672, 403.8201
552.7493, 405.3525
553.2314, 405.5675
553.7136, 404.6985
554.1957, 403.4625
554.6778, 390.7090
555.1599, 404.5606
555.6420, 412.2803
556.1241, 414.1975
556.6063, 392.9331
557.0884, 401.6029
557.5705, 398.2765
558.0526, 394.4581
558.5347, 407.3410
559.0168, 389.4484
559.4990, 402.0663
559.9811, 402.5051
560.4632, 408.5180
560.9453, 402.4605
561.4274, 400.1313
561.9095, 409.8762
562.3917, 412.9355
562.8738, 405.4886
563.3559, 411.8558
563.8380, 393.5415
564.3201, 396.8856
564.8022, 409.5743
565.2844, 402.7342
565.7665, 409.3221
566.2486, 410.7959
566.7307, 389.0283
567.2128, 407.6799
567.6949, 408.8515
568.1771, 392.0749
568.6592, 409.3416
569.1413, 400.6884
569.6234, 404.0171
570.1055, 404.1200
570.5876, 400.9100
571.0698, 397.4429
571.5519, 394.7347
572.0340, 393.2548
572.5161, 393.8055
572.9982, 398.4664
573.4803, 401.6502
573.9625, 400.7608
574.4446, 397.4984
574.9267, 394.8977
575.4088, 394.0037
575.8909, 392.7364
576.3730, 390.2364
576.8552, 386.8177
577.3373, 385.2854
577.8194, 386.1270
578.3015, 387.6995
578.7836, 389.0226
579.2657, 390.0931
579.7479, 392.0974
580.2300, 395.2513
580.7121, 398.4115
581.1942, 400.7147
581.6763, 401.9600
582.1584, 401.2354
582.6406, 397.0758
583.1227, 392.8234
583.6048, 392.2911
584.0869, 394.4201
584.5690, 396.4086
585.0511, 396.4507
585.5333, 396.4281
586.0154, 398.0504
586.4975, 401.4753
586.9796, 402.6982
587.4617, 397.4822
587.9438, 392.5099
588.4260, 392.0026
588.9081, 400.5798
589.3902, 403.7314
589.8723, 399.3589
590.3544, 391.6915
590.8365, 386.1211
591.3187, 382.4526
591.8008, 382.8564
592.2829, 390.0514
592.7650, 399.6643
593.2471, 398.9636
593.7292, 389.1112
594.2114, 381.7921
594.6935, 388.2338
595.1756, 399.3068
595.6577, 401.7425
596.1398, 394.7953
596.6219, 387.9949
597.1041, 386.9754
597.5862, 389.0846
598.0683, 392.2584
598.5504, 398.8121
599.0325, 401.5965
599.5146, 395.1853
599.9968, 385.0166
600.4789, 380.0997
600.9610, 384.0345
601.4431, 387.5894
601.9252, 388.4584
602.4073, 387.4729
602.8895, 389.8566
603.3716, 396.8552
603.8537, 401.7494
604.3358, 398.7005
604.8179, 389.6742
605.3000, 385.6765
605.7822, 387.1808
606.2643, 390.9290
606.7464, 396.2292
607.2285, 401.1585
607.7106, 401.9971
608.1927, 396.1273
608.6749, 389.9746
609.1570, 386.9968
609.6391, 386.7637
610.1212, 388.6187
610.6033, 396.9086
611.0854, 402.5001
611.5676, 400.2747
612.0497, 391.5086
612.5318, 388.2677
613.0139, 395.2340
613.4960, 400.9515
613.9781, 399.0365
614.4603, 388.5121
614.9424, 383.5320
615.4245, 384.7502
615.9066, 389.4741
616.3887, 397.8108
616.8708, 408.2515
617.3530, 412.1092
617.8351, 406.3664
618.3172, 398.0156
618.7993, 394.1607
619.2814, 393.7246
619.7635, 394.3189
620.2457, 395.4379
620.7278, 396.8292
621.2099, 398.4310
621.6920, 400.2089
622.1741, 402.0087
622.6563, 405.9344
623.1384, 407.8912
623.6205, 405.1944
624.1026, 396.6250
624.5847, 391.6618
625.0668, 391.2882
625.5490, 393.0692
626.0311, 395.9602
626.5132, 400.2717
626.9953, 400.7970
627.4774, 395.9506
627.9595, 390.2750
628.4417, 390.6999
628.9238, 396.0306
629.4059, 401.7072
629.8880, 407.4859
630.3701, 411.4070
630.8522, 409.1202
631.3344, 402.8967
631.8165, 399.7759
632.2986, 408.7190
632.7807, 416.6945
633.2628, 414.8426
633.7449, 401.7450
634.2271, 394.0663
634.7092, 396.5746
635.1913, 402.0040
635.6734, 407.4221
636.1555, 414.9318
636.6376, 414.3949
637.1198, 402.3695
637.6019, 388.5498
638.0840, 384.7643
638.5661, 390.5145
639.0482, 399.4576
639.5303, 412.0117
640.0125, 423.4828
640.4946, 424.9735
640.9767, 419.2872
641.4588, 414.5143
641.9409, 416.1364
642.4230, 418.8686
642.9052, 418.6634
643.3873, 415.9223
643.8694, 414.2068
644.3515, 415.3408
644.8336, 417.1603
645.3157, 418.4858
645.7979, 418.9969
646.2800, 420.5210
646.7621, 423.7052
647.2442, 427.0009
647.7263, 429.4033
648.2084, 431.0511
648.6906, 430.1739
649.1727, 426.2112
649.6548, 420.8148
650.1369, 414.6733
650.6190, 408.8511
651.1011, 407.3323
651.5833, 414.6535
652.0654, 423.2151
652.5475, 424.9073
653.0296, 421.7739
653.5117, 419.6563
653.9938, 422.9959
654.4760, 426.0848
654.9581, 425.1792
655.4402, 419.9546
655.9223, 418.5684
656.4044, 424.4201
656.8865, 430.4885
657.3687, 432.7829
657.8508, 430.2297
658.3329, 430.7958
658.8150, 435.7295
659.2971, 440.0550
659.7793, 436.6081
660.2614, 427.1891
660.7435, 421.6926
661.2256, 422.5555
661.7078, 425.7892
662.1899, 427.3977
662.6720, 428.1183
663.1541, 429.3692
663.6362, 434.0461
664.1183, 437.0804
664.6005, 434.2757
665.0826, 427.5534
665.5647, 423.7461
666.0468, 424.7601
666.5289, 428.1868
667.0110, 434.9202
667.4932, 444.7758
667.9753, 448.7793
668.4574, 445.5495
668.9395, 440.6700
669.4216, 437.2657
669.9037, 435.3358
670.3859, 434.5588
670.8680, 434.8702
671.3501, 436.8661
671.8322, 443.7138
672.3143, 451.8223
672.7964, 455.0193
673.2786, 449.5769
673.7607, 444.7972
674.2428, 448.5635
674.7249, 455.2155
675.2070, 456.8368
675.6891, 442.5578
676.1713, 434.5811
676.6534, 439.5573
677.1355, 452.1221
677.6176, 456.7332
678.0997, 450.7328
678.5818, 445.7077
679.0640, 446.4491
679.5461, 451.3122
680.0282, 452.7277
680.5103, 450.9297
680.9924, 451.0978
681.4745, 460.3696
681.9567, 472.0547
682.4388, 476.0596
682.9209, 471.6039
683.4030, 466.4873
683.8851, 463.3131
684.3672, 462.3499
684.8494, 463.9400
685.3315, 469.0539
685.8136, 474.9601
686.2957, 483.2391
686.7778, 490.9311
687.2599, 494.7770
687.7421, 494.1253
688.2242, 492.1581
688.7063, 489.0378
689.1884, 485.2244
689.6705, 479.4126
690.1526, 472.7512
690.6348, 472.7080
691.1169, 487.7817
691.5990, 505.0333
692.0811, 506.8948
692.5632, 498.0137
693.0453, 493.3401
693.5275, 506.9012
694.0096, 519.6980
694.4917, 519.1973
694.9738, 504.8064
695.4559, 500.9019
695.9380, 518.2927
696.4202, 533.4298
696.9023, 533.5784
697.3844, 516.7141
697.8665, 505.6696
698.3486, 500.5012
698.8307, 500.9377
699.3129, 510.2579
699.7950, 525.1097
700.2771, 534.2897
700.7592, 535.4855
701.2413, 535.3315
701.7234, 539.5251
702.2056, 545.9306
702.6877, 551.8293
703.1698, 556.6183
703.6519, 560.3509
704.1340, 561.2476
704.6161, 561.5074
705.0983, 565.4885
705.5804, 577.1611
706.0625, 584.6919
706.5446, 584.1568
707.0267, 578.9673
707.5089, 579.1517
707.9910, 584.7841
708.4731, 592.0001
708.9552, 600.9441
709.4373, 609.2377
709.9194, 610.7076
710.4016, 606.5593
710.8837, 604.1144
711.3658, 606.8318
711.8479, 613.4009
712.3300, 625.9827
712.8121, 645.6160
713.2943, 656.1797
713.7764, 641.4595
714.2585, 627.8220
714.7406, 630.6396
715.2227, 656.0086
715.7048, 670.0112
716.1870, 668.8697
716.6691, 665.8759
717.1512, 678.5322
717.6333, 702.8210
718.1154, 714.8132
718.5975, 708.5850
719.0797, 699.8530
719.5618, 705.4954
720.0439, 718.6861
720.5260, 728.8995
721.0081, 728.2062
721.4902, 730.2287
721.9724, 744.7249
722.4545, 764.1055
722.9366, 773.3707
723.4187, 761.9982
723.9008, 758.4565
724.3829, 771.7433
724.8651, 794.3235
725.3472, 800.5790
725.8293, 789.4980
726.3114, 782.8513
726.7935, 792.8276
727.2756, 811.5139
727.7578, 826.4576
728.2399, 837.5485
728.7220, 844.6486
729.2041, 843.1888
729.6862, 841.2745
730.1683, 844.3131
730.6505, 852.7164
731.1326, 863.2115
731.6147, 878.8962
732.0968, 893.1011
732.5789, 902.5006
733.0610, 906.3674
733.5432, 910.3559
734.0253, 914.4318
734.5074, 918.5530
734.9895, 920.6459
735.4716, 922.4587
735.9537, 932.2684
736.4359, 951.9107
736.9180, 972.3170
737.4001, 982.8497
737.8822, 990.3274
738.3643, 1003.740
738.8464, 1030.807
739.3286, 1053.239
739.8107, 1063.284
740.2928, 1066.827
740.7749, 1070.468
741.2570, 1070.823
741.7391, 1080.092
742.2213, 1102.789
742.7034, 1131.313
743.1855, 1149.351
743.6676, 1158.169
744.1497, 1170.791
744.6318, 1193.593
745.1140, 1219.422
745.5961, 1239.157
746.0782, 1254.677
746.5603, 1270.554
747.0424, 1291.518
747.5245, 1310.573
748.0067, 1324.109
748.4888, 1332.880
748.9709, 1341.115
749.4530, 1344.696
749.9351, 1355.308
750.4172, 1379.071
750.8994, 1413.801
751.3815, 1444.473
751.8636, 1471.611
752.3457, 1489.169
752.8278, 1486.486
753.3099, 1474.483
753.7921, 1472.287
754.2742, 1480.066
754.7563, 1490.632
755.2384, 1504.052
755.7205, 1515.613
756.2026, 1521.097
756.6848, 1518.026
757.1669, 1518.745
757.6490, 1526.953
758.1311, 1535.409
758.6132, 1539.265
759.0953, 1537.941
759.5775, 1537.531
760.0596, 1538.902
760.5417, 1537.476
761.0238, 1525.025
761.5059, 1506.758
761.9880, 1495.710
762.4702, 1495.736
762.9523, 1495.020
763.4344, 1484.257
763.9165, 1469.021
764.3986, 1455.605
764.8807, 1447.408
765.3629, 1437.486
765.8450, 1425.393
766.3271, 1411.508
766.8092, 1395.217
767.2913, 1375.612
767.7734, 1360.727
768.2556, 1353.162
768.7377, 1348.518
769.2198, 1339.766
769.7019, 1328.373
770.1840, 1318.779
770.6661, 1314.302
771.1483, 1309.610
771.6304, 1300.667
772.1125, 1288.974
772.5946, 1277.331
773.0767, 1261.559
773.5588, 1252.348
774.0410, 1255.892
774.5231, 1265.779
775.0052, 1261.354
775.4873, 1239.011
775.9694, 1224.776
776.4515, 1229.279
776.9337, 1245.437
777.4158, 1260.304
777.8979, 1274.013
778.3800, 1286.793
778.8621, 1299.832
779.3442, 1311.221
779.8264, 1318.869
780.3085, 1323.475
780.7906, 1328.877
781.2727, 1329.497
781.7548, 1338.420
782.2369, 1361.531
782.7191, 1397.167
783.2012, 1431.860
783.6833, 1465.648
784.1655, 1497.030
784.6476, 1521.971
785.1297, 1544.961
785.6118, 1577.595
786.0939, 1619.111
786.5760, 1661.744
787.0582, 1694.235
787.5403, 1729.892
788.0224, 1779.897
788.5045, 1845.698
788.9866, 1910.212
789.4688, 1969.540
789.9509, 2028.993
790.4330, 2089.746
790.9151, 2152.428
791.3972, 2220.097
791.8793, 2294.211
792.3615, 2368.660
792.8436, 2434.339
793.3257, 2498.937
793.8078, 2581.141
794.2899, 2684.054
794.7720, 2784.470
795.2542, 2875.723
795.7363, 2956.489
796.2184, 3023.650
796.7005, 3071.165
797.1826, 3125.075
797.6647, 3186.036
798.1469, 3253.378
798.6290, 3334.243
799.1111, 3429.627
799.5932, 3480.688
800.0753, 3480.768
800.5574, 3467.820
801.0396, 3478.490
801.5217, 3501.795
802.0038, 3525.595
802.4859, 3552.135
802.9680, 3555.719
803.4501, 3505.034
803.9323, 3437.181
804.4144, 3386.722
804.8965, 3367.105
805.3786, 3336.950
805.8607, 3290.407
806.3428, 3243.000
806.8250, 3210.250
807.3071, 3191.444
807.7892, 3182.715
808.2713, 3185.615
808.7534, 3187.432
809.2355, 3169.955
809.7177, 3145.284
810.1998, 3129.456
810.6819, 3123.643
811.1640, 3132.354
811.6461, 3169.729
812.1282, 3215.409
812.6104, 3245.902
813.0925, 3252.076
813.5746, 3273.932
814.0567, 3317.126
814.5388, 3369.858
815.0209, 3419.364
815.5031, 3465.334
815.9852, 3505.699
816.4673, 3540.322
816.9494, 3569.420
817.4315, 3588.073
817.9136, 3602.960
818.3958, 3622.639
818.8779, 3669.089
819.3600, 3692.087
819.8421, 3681.639
820.3242, 3652.515
820.8063, 3623.208
821.2885, 3594.762
821.7706, 3557.726
822.2527, 3510.309
822.7348, 3453.989
823.2169, 3390.340
823.6990, 3318.898
824.1812, 3236.288
824.6633, 3135.286
825.1454, 3034.597
825.6275, 2943.954
826.1096, 2857.530
826.5917, 2764.552
827.0739, 2654.981
827.5560, 2558.373
828.0381, 2480.194
828.5202, 2412.488
829.0023, 2345.906
829.4844, 2281.035
829.9666, 2214.288
830.4487, 2143.832
830.9308, 2076.570
831.4129, 2019.801
831.8950, 1972.201
832.3771, 1931.018
832.8593, 1897.805
833.3414, 1869.080
833.8235, 1844.169
834.3056, 1823.234
834.7877, 1806.775
835.2698, 1794.860
835.7520, 1785.970
836.2341, 1778.814
836.7162, 1777.250
837.1983, 1792.789
837.6804, 1818.400
838.1625, 1833.557
838.6447, 1828.285
839.1268, 1821.921
839.6089, 1824.297
840.0910, 1833.881
840.5731, 1848.649
841.0552, 1867.836
841.5374, 1893.435
842.0195, 1927.114
842.5016, 1965.386
842.9837, 2004.845
843.4658, 2045.305
843.9479, 2082.321
844.4301, 2113.768
844.9122, 2145.309
845.3943, 2180.876
845.8764, 2221.151
846.3585, 2267.772
846.8406, 2325.516
847.3228, 2381.392
847.8049, 2428.875
848.2870, 2474.433
848.7691, 2525.334
849.2512, 2581.708
849.7333, 2640.192
850.2155, 2699.242
850.6976, 2764.082
851.1797, 2846.214
851.6618, 2939.130
852.1439, 3025.222
852.6260, 3099.347
853.1082, 3174.839
853.5903, 3269.755
854.0724, 3365.768
854.5545, 3442.072
855.0366, 3482.940
855.5187, 3530.308
856.0009, 3588.050
856.4830, 3646.044
856.9651, 3694.105
857.4472, 3732.385
857.9293, 3769.124
858.4114, 3806.641
858.8936, 3831.371
859.3757, 3830.331
859.8578, 3809.686
860.3399, 3777.570
860.8220, 3738.793
861.3041, 3677.380
861.7863, 3573.993
862.2684, 3458.697
862.7505, 3348.801
863.2326, 3248.168
863.7147, 3141.831
864.1968, 3030.970
864.6790, 2910.360
865.1611, 2764.492
865.6432, 2608.285
866.1253, 2464.125
866.6074, 2334.767
867.0895, 2218.958
867.5717, 2124.239
868.0538, 2033.670
868.5359, 1933.108
869.0180, 1817.615
869.5001, 1716.231
869.9822, 1630.269
870.4644, 1555.170
870.9465, 1489.596
871.4286, 1433.452
871.9107, 1391.596
872.3928, 1362.909
872.8749, 1332.734
873.3571, 1288.535
873.8392, 1240.428
874.3213, 1193.804
874.8034, 1148.422
875.2855, 1115.939
875.7676, 1104.426
876.2498, 1093.679
876.7319, 1075.441
877.2140, 1050.616
877.6961, 1023.169
878.1782, 993.2764
878.6603, 969.5592
879.1425, 962.3790
879.6246, 959.9803
880.1067, 951.3340
880.5888, 936.6901
881.0709, 918.6705
881.5530, 891.1730
882.0352, 868.2942
882.5173, 853.8338
882.9994, 846.9072
883.4815, 844.5575
883.9636, 847.0497
884.4457, 851.1873
884.9279, 856.9141
885.4100, 862.2560
885.8921, 863.2418
886.3742, 861.1633
886.8563, 859.4493
887.3384, 858.5466
887.8206, 859.3528
888.3027, 862.1265
888.7848, 866.8931
889.2669, 874.2368
889.7490, 884.9426
890.2311, 894.8611
890.7133, 902.8304
891.1954, 910.0364
891.6775, 916.1596
892.1596, 923.0663
892.6417, 935.9471
893.1238, 956.9161
893.6060, 983.1979
894.0881, 1016.748
894.5702, 1053.698
895.0523, 1087.627
895.5344, 1111.969
896.0165, 1149.044
896.4987, 1204.020
896.9808, 1264.843
897.4629, 1312.826
897.9450, 1353.436
898.4271, 1409.709
898.9092, 1486.564
899.3914, 1568.313
899.8735, 1643.058
900.3556, 1716.576
900.8377, 1791.232
901.3198, 1865.420
901.8019, 1951.978
902.2841, 2056.563
902.7662, 2163.670
903.2483, 2261.034
903.7304, 2349.028
904.2125, 2434.577
904.6946, 2516.822
905.1768, 2594.206
905.6589, 2672.066
906.1410, 2740.599
906.6232, 2787.682
907.1053, 2811.866
907.5874, 2839.058
908.0695, 2888.942
908.5516, 2919.798
909.0338, 2913.646
909.5159, 2874.498
909.9980, 2826.489
910.4801, 2769.399
910.9622, 2695.131
911.4443, 2590.440
911.9265, 2473.000
912.4086, 2354.722
912.8907, 2236.942
913.3728, 2123.534
913.8549, 2014.402
914.3370, 1911.992
914.8192, 1819.777
915.3013, 1733.914
915.7834, 1633.518
916.2655, 1519.881
916.7476, 1447.625
917.2297, 1436.057
917.7119, 1468.340
918.1940, 1601.455
918.6761, 1745.237
919.1582, 1748.237
919.6403, 1401.009
920.1224, 1130.775
920.6046, 1019.946
921.0867, 987.3490
921.5688, 944.8129
922.0509, 891.5754
922.5330, 850.4332
923.0151, 824.5222
923.4973, 806.7061
923.9794, 792.8190
924.4615, 780.5541
924.9436, 766.3604
925.4257, 749.1351
925.9078, 732.5308
926.3900, 720.0029
926.8721, 706.2684
927.3542, 686.8721
927.8363, 661.2576
928.3184, 645.3539
928.8005, 639.8325
929.2827, 635.2219
929.7648, 623.1356
930.2469, 608.6686
930.7290, 598.7275
931.2111, 593.0114
931.6932, 587.6949
932.1754, 582.4411
932.6575, 576.0052
933.1396, 566.7506
933.6217, 556.0824
934.1038, 549.9984
934.5859, 548.6975
935.0681, 549.5630
935.5502, 553.8232
936.0323, 556.7341
936.5144, 549.2836
936.9965, 535.9669
937.4786, 526.2072
937.9608, 529.9060
938.4429, 529.1597
938.9250, 518.3273
939.4071, 502.9947
939.8892, 488.4466
940.3713, 473.9331
940.8535, 474.0860
941.3356, 494.1337
941.8177, 514.3820
942.2998, 509.3258
942.7819, 491.8239
943.2640, 478.2839
943.7462, 471.7464
944.2283, 469.4895
944.7104, 475.8749
945.1925, 481.6659
945.6746, 480.7501
946.1567, 472.8731
946.6389, 466.9489
947.1210, 462.9514
947.6031, 460.4012
948.0852, 459.9575
948.5673, 460.0805
949.0494, 458.4844
949.5316, 455.4810
950.0137, 453.9963
950.4958, 458.0011
950.9779, 459.8034
951.4600, 456.7178
951.9421, 450.1681
952.4243, 444.7139
952.9064, 440.3552
953.3885, 437.0266
953.8706, 434.4673
954.3527, 433.3639
954.8348, 435.8362
955.3170, 439.9196
955.7991, 442.3181
956.2812, 440.7668
956.7633, 439.5513
957.2454, 439.9384
957.7275, 439.5923
958.2097, 434.1536
958.6918, 424.5290
959.1739, 420.3014
959.6560, 423.1184
960.1381, 425.7301
960.6202, 420.8058
961.1024, 413.4083
961.5845, 407.2902
962.0666, 402.5775
962.5487, 403.4073
963.0308, 414.2938
963.5129, 422.5806
963.9951, 420.2520
964.4772, 409.7369
964.9593, 402.9283
965.4414, 399.4775
965.9235, 397.6338
966.4056, 396.3728
966.8878, 396.3447
967.3699, 398.8123
967.8520, 402.9281
968.3341, 405.8755
968.8162, 408.0103
969.2983, 407.5801
969.7805, 403.1134
970.2626, 397.9574
970.7447, 398.9028
971.2268, 403.8964
971.7089, 407.0251
972.1910, 406.6509
972.6732, 404.5290
973.1553, 400.3148
973.6374, 395.6241
974.1195, 392.2950
974.6016, 391.3334
975.0837, 386.9321
975.5659, 377.6713
976.0480, 370.8325
976.5301, 374.8001
977.0122, 384.1731
977.4943, 389.1796
977.9764, 389.5777
978.4586, 387.6819
978.9407, 381.8716
979.4228, 376.7791
979.9049, 374.4022
980.3870, 374.2543
980.8691, 374.5662
981.3513, 375.3011
981.8334, 377.1036
982.3155, 380.5392
982.7976, 384.5330
983.2797, 387.1646
983.7618, 389.4408
984.2440, 393.2717
984.7261, 406.2322
985.2082, 409.2752
985.6903, 394.8021
986.1724, 376.6440
986.6545, 369.1019
987.1367, 371.6498
987.6188, 372.9500
988.1009, 372.1812
988.5830, 372.2115
989.0651, 376.1236
989.5472, 381.3717
990.0294, 386.7098
990.5115, 392.0213
990.9936, 392.8443
991.4757, 387.3950
991.9578, 380.8507
992.4399, 374.3181
992.9221, 368.6478
993.4042, 366.3043
993.8863, 367.1078
994.3684, 370.2819
994.8505, 377.7378
995.3326, 384.6498
995.8148, 389.1221
996.2969, 391.0572
996.7790, 390.0983
997.2611, 384.8790
997.7432, 381.6099
998.2253, 381.0447
998.7075, 381.4842
999.1896, 381.3286
999.6717, 380.7527
1000.154, 379.5559
1000.636, 377.6176
1001.118, 377.5519
1001.600, 382.6321
1002.082, 387.7081
1002.564, 391.1527
1003.047, 392.6759
1003.529, 387.9002
1004.011, 376.6945
1004.493, 367.8956
1004.975, 366.0557
1005.457, 368.2000
1005.939, 373.4389
1006.421, 379.8384
1006.903, 383.3506
1007.386, 380.6457
1007.868, 378.2463
1008.350, 376.7452
1008.832, 375.4743
1009.314, 372.0313
1009.796, 367.8230
1010.278, 371.1262
1010.760, 383.5341
1011.242, 393.2758
1011.725, 388.6606
1012.207, 381.1814
1012.689, 380.6125
1013.171, 387.3221
1013.653, 388.1074
1014.135, 381.2511
1014.617, 375.4079
1015.099, 374.7032
1015.582, 377.3083
1016.064, 381.8276
1016.546, 386.8062
1017.028, 388.4720
1017.510, 380.5219
1017.992, 375.2386
1018.474, 376.8129
1018.956, 381.3966
1019.438, 385.0568
1019.921, 387.8029
1020.403, 389.0080
1020.885, 388.6080
1021.367, 386.6120
1021.849, 379.3579
1022.331, 373.0274
1022.813, 375.4238
1023.295, 387.7387
1023.778, 394.7744
1024.260, 394.1964
1024.742, 390.8633
1025.224, 384.5092
1025.706, 378.4147
1026.188, 385.3339
1026.670, 400.7951
1027.152, 408.9782
1027.635, 395.8181
1028.117, 384.6409
1028.599, 389.3491
1029.081, 399.5283
1029.563, 401.9457
1030.045, 394.5453
1030.527, 390.7794
1031.009, 391.4712
1031.491, 394.7855
1031.974, 401.7924
1032.456, 408.6878
1032.938, 410.2718
1033.420, 406.3755
1033.902, 401.6469
1034.384, 395.5103
1034.866, 391.0149
1035.348, 388.9477
1035.830, 389.2276
1036.313, 392.2160
1036.795, 397.4439
1037.277, 402.9880
1037.759, 408.8907
1038.241, 413.3606
1038.723, 413.2863
1039.205, 412.1959
1039.687, 414.4995
1040.170, 422.2976
1040.652, 426.0365
1041.134, 425.1045
1041.616, 423.3300
1042.098, 423.4318
1042.580, 424.8608
1043.062, 427.6789
1043.544, 431.3620
1044.026, 433.2309
1044.509, 430.0027
1044.991, 427.7391
1045.473, 427.7081
1045.955, 429.5412
1046.437, 433.8653
1046.919, 439.8741
1047.401, 441.1288
1047.883, 434.4326
1048.365, 429.6011
1048.848, 438.7268
1049.330, 450.0771
1049.812, 450.7862
1050.294, 438.1288
1050.776, 432.0371
1051.258, 433.0940
1051.740, 438.0213
1052.222, 447.3853
1052.705, 457.8019
1053.187, 463.7737
1053.669, 465.9714
1054.151, 466.5433
1054.633, 467.2605
1055.115, 464.4932
1055.597, 454.4637
1056.079, 444.3685
1056.562, 447.5835
1057.044, 461.4949
1057.526, 465.2335
1058.008, 455.6198
1058.490, 443.1342
1058.972, 429.9169
1059.454, 421.0695
1059.936, 423.6100
1060.418, 436.7158
1060.901, 441.5497
1061.383, 436.5466
1061.865, 430.9882
1062.347, 428.1225
1062.829, 426.9842
1063.311, 428.1259
1063.793, 429.4700
1064.275, 427.0011
1064.757, 417.4542
1065.240, 406.9809
1065.722, 392.8619
1066.204, 382.7254
1066.686, 386.6581
1067.168, 401.3341
1067.650, 405.1213
1068.132, 398.0510
1068.614, 389.6161
1069.097, 383.8307
1069.579, 379.9749
1070.061, 379.6212
1070.543, 380.7174
1071.025, 376.4235
1071.507, 365.3075
1071.989, 360.1555
1072.471, 364.8860
1072.953, 371.3720
1073.436, 370.0812
1073.918, 365.2542
1074.400, 362.5338
1074.882, 363.8589
1075.364, 361.7123
1075.846, 353.3390
1076.328, 346.1483
1076.810, 344.9116
1077.292, 347.1305
1077.775, 344.3394
1078.257, 338.2424
1078.739, 334.8947
1079.221, 337.7640
1079.703, 342.9081
1080.185, 353.2711
1080.667, 362.3280
1081.149, 362.2061
1081.632, 352.5321
1082.114, 344.3297
1082.596, 338.3030
1083.078, 333.1817
1083.560, 326.0392
1084.042, 321.0942
1084.524, 324.2591
1085.006, 334.1410
1085.489, 337.2900
1085.971, 329.9454
1086.453, 327.7947
1086.935, 336.9618
1087.417, 348.1237
1087.899, 345.7250
1088.381, 335.9306
1088.863, 329.3615
1089.345, 328.9438
1089.828, 329.5274
1090.310, 331.2019
1090.792, 331.9355
1091.274, 329.6247
1091.756, 325.4792
1092.238, 327.2404
1092.720, 333.5116
1093.202, 336.7490
1093.685, 328.1693
1094.167, 321.1696
1094.649, 326.0329
1095.131, 334.1128
1095.613, 332.9370
1096.095, 320.8518
1096.577, 312.7231
1097.059, 309.5394
1097.542, 310.3917
1098.024, 319.0839
1098.506, 328.0103
1098.988, 328.3947
1099.470, 320.9926
1099.952, 316.7967
1100.434, 318.1188
1100.916, 317.9015
1101.398, 313.5845
1101.880, 308.8471
1102.363, 310.8370
1102.845, 316.4142
1103.327, 319.3877
1103.809, 306.6124
1104.291, 320.5645
1104.773, 328.3846
1105.255, 330.4023
1105.737, 309.2385
1106.220, 318.0086
1106.702, 314.7827
1107.184, 311.0648
1107.666, 324.0482
1108.148, 306.2561
1108.630, 318.9746
1109.112, 319.5138
1109.594, 325.6272
1110.077, 319.6701
1110.559, 317.4413
1111.041, 327.2867
1111.523, 330.4466
1112.005, 323.1001
1112.487, 329.5678
1112.969, 311.3540
1113.451, 314.7986
1113.933, 327.5878
1114.416, 320.8481
1114.898, 327.5365
1115.380, 329.1108
1115.862, 307.4437
1116.344, 326.1957
1116.826, 327.4678
1117.308, 314.4298
1117.790, 313.2904
1118.272, 312.4006
1118.755, 312.9607
1119.237, 317.7029
1119.719, 319.3103
1120.201, 313.0119
1120.683, 303.2615
1121.165, 302.7292
1121.647, 308.7627
1122.129, 313.2364
1122.612, 312.1952
1123.094, 311.6804
1123.576, 315.3438
1124.058, 319.1109
1124.540, 320.0193
1125.022, 318.1616
1125.504, 315.2405
1125.986, 311.4398
1126.469, 309.0040
1126.951, 310.5322
1127.433, 312.5609
1127.915, 312.9626
1128.397, 312.4379
1128.879, 312.4811
1129.361, 313.3031
1129.843, 313.0729
1130.325, 311.4901
1130.807, 310.0882
1131.290, 310.8165
1131.772, 312.0261
1132.254, 312.4285
1132.736, 311.8379
1133.218, 309.4806
1133.700, 303.8538
1134.182, 301.4131
1134.664, 304.5258
1135.147, 309.3916
1135.629, 310.2317
1136.111, 309.2371
1136.593, 310.1117
1137.075, 314.1501
1137.557, 316.3028
1138.039, 315.0143
1138.521, 313.6406
1139.004, 313.8884
1139.486, 314.9732
1139.968, 314.2471
1140.450, 312.6374
1140.932, 312.9965
1141.414, 319.6585
1141.896, 322.2879
1142.378, 313.6816
1142.860, 305.0735
1143.343, 306.4989
1143.825, 316.5346
1144.307, 321.8909
1144.789, 322.7672
1145.271, 321.2888
1145.753, 316.2567
1146.235, 311.8434
1146.717, 309.5607
1147.199, 309.2677
1147.682, 312.1118
1148.164, 318.2410
1148.646, 318.2070
1149.128, 310.8724
1149.610, 304.8031
1150.092, 307.4346
1150.574, 313.2484
1151.056, 320.4675
1151.539, 327.4739
1152.021, 327.6619
1152.503, 319.8427
1152.985, 313.5070
1153.467, 310.4339
1153.949, 310.7441
1154.431, 318.1166
1154.913, 326.6676
1155.396, 329.9484
1155.878, 326.4305
1156.360, 323.2498
1156.842, 320.6732
1157.324, 317.1661
1157.806, 311.1548
1158.288, 305.4630
1158.770, 303.7249
1159.252, 305.4604
1159.734, 310.4951
1160.217, 322.1452
1160.699, 327.9613
1161.181, 325.7337
1161.663, 322.4510
1162.145, 323.9937
1162.627, 326.7971
1163.109, 320.6857
1163.591, 309.1559
1164.074, 301.8704
1164.556, 305.8658
1165.038, 309.7521
1165.520, 312.8381
1166.002, 314.6810
1166.484, 313.4554
1166.966, 310.8378
1167.448, 313.7801
1167.931, 321.3013
1168.413, 325.0640
1168.895, 316.5210
1169.377, 310.1119
1169.859, 310.7519
1170.341, 313.8935
1170.823, 311.6078
1171.305, 305.5399
1171.787, 303.3893
1172.270, 306.0430
1172.752, 309.6308
1173.234, 311.6641
1173.716, 314.7433
1174.198, 321.3068
1174.680, 328.9758
1175.162, 332.1761
1175.644, 330.7841
1176.126, 322.4467
1176.609, 304.7017
1177.091, 290.5638
1177.573, 290.3126
1178.055, 295.5670
1178.537, 301.2570
1179.019, 307.0595
1179.501, 312.8559
1179.983, 318.3869
1180.466, 319.6231
1180.948, 312.8814
1181.430, 306.3972
1181.912, 307.7217
1182.394, 311.2235
1182.876, 310.9986
1183.358, 306.7023
1183.840, 303.8972
1184.323, 302.5632
1184.805, 302.9168
1185.287, 306.0576
1185.769, 309.7943
1186.251, 312.8319
1186.733, 315.1147
1187.215, 316.8340
1187.697, 318.6369
1188.179, 315.1932
1188.661, 305.7682
1189.144, 300.5015
1189.626, 312.4075
1190.108, 326.7538
1190.590, 330.5539
1191.072, 326.6794
1191.554, 323.3938
1192.036, 321.1008
1192.518, 319.0945
1193.001, 317.2699
1193.483, 316.0189
1193.965, 316.3575
1194.447, 316.8982
1194.929, 315.1168
1195.411, 312.0255
1195.893, 313.5576
1196.375, 321.9257
1196.858, 326.9170
1197.340, 326.4978
1197.822, 323.1729
1198.304, 317.1988
1198.786, 311.4663
1199.268, 309.8036
1199.750, 312.4600
1200.232, 313.8873
1200.714, 313.3148
1201.197, 314.0282
1201.679, 317.7242
1202.161, 320.6698
1202.643, 316.8660
1203.125, 309.9797
1203.607, 304.4590
1204.089, 301.0854
1204.571, 297.7390
1205.053, 292.8436
1205.536, 293.8851
1206.018, 306.2924
1206.500, 321.5119
1206.982, 328.2493
1207.464, 328.6828
1207.946, 325.2651
1208.428, 316.5380
1208.910, 310.5878
1209.393, 307.9268
1209.875, 306.3365
1210.357, 304.9102
1210.839, 303.5368
1211.321, 299.4286
1211.803, 295.9792
1212.285, 299.9018
1212.767, 321.2384
1213.250, 330.5470
1213.732, 325.1202
1214.214, 317.0974
1214.696, 313.9695
1215.178, 314.2650
1215.660, 317.2706
1216.142, 321.6714
1216.624, 324.3740
1217.106, 324.9129
1217.589, 322.9408
1218.071, 317.6845
1218.553, 312.6230
1219.035, 310.4166
1219.517, 310.4252
1219.999, 312.6950
1220.481, 316.3729
1220.963, 318.6099
1221.446, 318.6480
1221.928, 317.6917
1222.410, 315.3851
1222.892, 313.7275
1223.374, 316.0125
1223.856, 319.3256
1224.338, 319.4885
1224.820, 316.8028
1225.302, 314.0096
1225.785, 309.8281
1226.267, 310.3339
1226.749, 317.4036
1227.231, 325.6343
1227.713, 330.8750
1228.195, 332.2899
1228.677, 325.8758
1229.159, 312.7735
1229.641, 307.8630
1230.124, 315.1129
1230.606, 319.6483
1231.088, 317.4799
1231.570, 314.7002
1232.052, 320.9215
1232.534, 329.5730
1233.016, 332.6815
1233.498, 329.2383
1233.981, 324.8119
1234.463, 318.6158
1234.945, 316.1929
1235.427, 320.1133
1235.909, 325.1711
1236.391, 324.0114
1236.873, 320.7996
1237.355, 320.4554
1237.838, 323.7715
1238.320, 327.9470
1238.802, 333.9646
1239.284, 334.0371
1239.766, 322.7465
1240.248, 311.0614
1240.730, 313.7193
1241.212, 321.9074
1241.694, 324.8812
1242.177, 321.2264
1242.659, 321.9388
1243.141, 327.6785
1243.623, 330.5408
1244.105, 325.1365
1244.587, 319.7650
1245.069, 326.5219
1245.551, 335.6790
1246.033, 333.3486
1246.516, 317.7769
1246.998, 315.0980
1247.480, 325.8640
1247.962, 334.0228
1248.444, 330.1004
1248.926, 323.4041
1249.408, 319.8123
1249.890, 318.8478
1250.373, 320.3788
1250.855, 324.7336
1251.337, 326.2025
1251.819, 324.8341
1252.301, 321.7985
1252.783, 316.0811
1253.265, 311.0504
1253.747, 309.2711
1254.229, 309.0709
1254.712, 307.9057
1255.194, 305.5478
1255.676, 309.6564
1256.158, 319.4765
1256.640, 327.1012
1257.122, 327.2050
1257.604, 325.0502
1258.086, 320.7687
1258.568, 317.2134
1259.051, 318.6749
1259.533, 324.3024
1260.015, 322.6879
1260.497, 314.7649
1260.979, 308.8384
1261.461, 312.6734
1261.943, 314.8289
1262.425, 309.3517
1262.908, 303.1845
1263.390, 304.6607
1263.872, 311.7837
1264.354, 316.2834
1264.836, 318.0264
1265.318, 318.2625
1265.800, 315.2325
1266.282, 314.1389
1266.765, 316.4217
1267.247, 320.0052
1267.729, 322.5636
1268.211, 324.5977
1268.693, 328.8181
1269.175, 334.3471
1269.657, 335.6165
1270.139, 327.1123
1270.621, 319.0663
1271.104, 311.8961
1271.586, 307.3477
1272.068, 308.1466
1272.550, 312.5423
1273.032, 319.2104
1273.514, 327.0925
1273.996, 331.2931
1274.478, 328.8914
1274.960, 329.0391
1275.443, 333.9677
1275.925, 337.4131
1276.407, 328.2709
1276.889, 317.0902
1277.371, 320.0685
1277.853, 314.2246
1278.335, 309.2261
1278.817, 314.8201
1279.300, 304.7175
1279.782, 308.0936
1280.264, 316.3525
1280.746, 325.0362
1281.228, 331.7807
1281.710, 333.5036
1282.192, 331.2881
1282.674, 329.5772
1283.156, 328.4284
1283.639, 325.8792
1284.121, 321.4042
1284.603, 319.0061
1285.085, 324.3251
1285.567, 330.1921
1286.049, 331.4341
1286.531, 330.0099
1287.013, 331.4998
1287.495, 335.0598
1287.978, 330.9221
1288.460, 317.3417
1288.942, 306.6109
1289.424, 308.0903
1289.906, 311.7356
1290.388, 313.9039
1290.870, 314.9435
1291.352, 315.1906
1291.835, 314.9258
1292.317, 314.3629
1292.799, 313.5238
1293.281, 315.6869
1293.763, 328.6755
1294.245, 335.0027
1294.727, 328.5860
1295.209, 317.1778
1295.692, 311.3305
1296.174, 309.9342
1296.656, 311.7458
1297.138, 316.6066
1297.620, 321.8167
1298.102, 328.5315
1298.584, 330.8902
1299.066, 326.2171
1299.548, 320.9831
1300.031, 325.4962
1300.513, 332.7454
1300.995, 333.7759
1301.477, 335.4716
1301.959, 336.6089
1302.441, 332.2818
1302.923, 332.9026
1303.405, 326.2592
1303.887, 318.8599
1304.370, 314.6600
1304.852, 314.0598
1305.334, 320.1840
1305.816, 329.8766
1306.298, 333.1912
1306.780, 330.5525
1307.262, 328.2797
1307.744, 327.6296
1308.227, 327.3805
1308.709, 327.1356
1309.191, 326.7019
1309.673, 326.5132
1310.155, 325.6875
1310.637, 320.3496
1311.119, 312.6314
1311.601, 310.1610
1312.083, 314.4859
1312.566, 318.7069
1313.048, 320.2137
1313.530, 321.8618
1314.012, 325.3325
1314.494, 327.4679
1314.976, 318.9562
1315.458, 307.3851
1315.940, 306.5765
1316.422, 318.4975
1316.905, 327.8836
1317.387, 333.8106
##END=



