##NAMES=Willhendersonite
##RRUFFID=R060508
##IDEAL CHEMISTRY=KCa(Si_3_Al_3_)O_12_&#183;5H_2_O
##LOCALITY=San Venzano Quarry, Terni, Umbria, central Italy
##OWNER=RRUFF
##SOURCE=Michael Scott
##DESCRIPTION=Colorless tabular crystals forming a spherical aggregate
##STATUS=The identification of this mineral is confirmed by single-crystal X-ray diffraction and chemical analysis.
##URL=rruff.info/R060508
##MEASURED CHEMISTRY=(K_0.98_Na_0.02_)_Σ=1_Ca_1.00_(Si_3.06_Al_2.93_Fe^3+^_0.01_)_Σ=6_O_12_·5.43H_2_ O ; H_2_O estimated by difference; Fe^3+^ by charge balance
8.930109e+001, 0.000000e+000
8.978320e+001, 2.736069e+003
9.026532e+001, 2.744378e+003
9.074744e+001, 2.748704e+003
9.122955e+001, 2.748658e+003
9.171167e+001, 2.748764e+003
9.219379e+001, 2.755864e+003
9.267590e+001, 2.769482e+003
9.315802e+001, 2.773848e+003
9.364014e+001, 2.750033e+003
9.412225e+001, 2.707579e+003
9.460437e+001, 2.672729e+003
9.508649e+001, 2.655675e+003
9.556860e+001, 2.647448e+003
9.605072e+001, 2.628354e+003
9.653284e+001, 2.600249e+003
9.701495e+001, 2.570181e+003
9.749707e+001, 2.541887e+003
9.797919e+001, 2.515081e+003
9.846130e+001, 2.495091e+003
9.894342e+001, 2.483922e+003
9.942554e+001, 2.480939e+003
9.990765e+001, 2.481710e+003
1.003898e+002, 2.487821e+003
1.008719e+002, 2.494445e+003
1.013540e+002, 2.493943e+003
1.018361e+002, 2.484736e+003
1.023182e+002, 2.474969e+003
1.028004e+002, 2.467103e+003
1.032825e+002, 2.460802e+003
1.037646e+002, 2.458021e+003
1.042467e+002, 2.458882e+003
1.047288e+002, 2.463120e+003
1.052109e+002, 2.469745e+003
1.056931e+002, 2.476567e+003
1.061752e+002, 2.488756e+003
1.066573e+002, 2.509085e+003
1.071394e+002, 2.542137e+003
1.076215e+002, 2.575431e+003
1.081036e+002, 2.614935e+003
1.085858e+002, 2.657079e+003
1.090679e+002, 2.680496e+003
1.095500e+002, 2.670717e+003
1.100321e+002, 2.653756e+003
1.105142e+002, 2.643542e+003
1.109963e+002, 2.644506e+003
1.114785e+002, 2.647153e+003
1.119606e+002, 2.651454e+003
1.124427e+002, 2.657295e+003
1.129248e+002, 2.661723e+003
1.134069e+002, 2.661056e+003
1.138890e+002, 2.660431e+003
1.143712e+002, 2.663985e+003
1.148533e+002, 2.675503e+003
1.153354e+002, 2.688509e+003
1.158175e+002, 2.703022e+003
1.162996e+002, 2.719806e+003
1.167817e+002, 2.730403e+003
1.172639e+002, 2.727048e+003
1.177460e+002, 2.717209e+003
1.182281e+002, 2.710339e+003
1.187102e+002, 2.714421e+003
1.191923e+002, 2.719301e+003
1.196744e+002, 2.717922e+003
1.201566e+002, 2.708166e+003
1.206387e+002, 2.698389e+003
1.211208e+002, 2.692875e+003
1.216029e+002, 2.690999e+003
1.220850e+002, 2.691665e+003
1.225671e+002, 2.691058e+003
1.230493e+002, 2.694002e+003
1.235314e+002, 2.708764e+003
1.240135e+002, 2.742610e+003
1.244956e+002, 2.773412e+003
1.249777e+002, 2.775405e+003
1.254598e+002, 2.754278e+003
1.259420e+002, 2.731484e+003
1.264241e+002, 2.720862e+003
1.269062e+002, 2.718025e+003
1.273883e+002, 2.715024e+003
1.278704e+002, 2.709962e+003
1.283525e+002, 2.704292e+003
1.288347e+002, 2.700310e+003
1.293168e+002, 2.697924e+003
1.297989e+002, 2.695920e+003
1.302810e+002, 2.693226e+003
1.307631e+002, 2.690054e+003
1.312452e+002, 2.687480e+003
1.317274e+002, 2.687150e+003
1.322095e+002, 2.686982e+003
1.326916e+002, 2.680431e+003
1.331737e+002, 2.666802e+003
1.336558e+002, 2.651299e+003
1.341379e+002, 2.637861e+003
1.346201e+002, 2.626512e+003
1.351022e+002, 2.617695e+003
1.355843e+002, 2.612068e+003
1.360664e+002, 2.609304e+003
1.365485e+002, 2.607163e+003
1.370306e+002, 2.605582e+003
1.375128e+002, 2.604771e+003
1.379949e+002, 2.604272e+003
1.384770e+002, 2.603480e+003
1.389591e+002, 2.606187e+003
1.394412e+002, 2.615604e+003
1.399233e+002, 2.632578e+003
1.404055e+002, 2.642835e+003
1.408876e+002, 2.645062e+003
1.413697e+002, 2.641774e+003
1.418518e+002, 2.636509e+003
1.423339e+002, 2.628090e+003
1.428160e+002, 2.620312e+003
1.432982e+002, 2.614760e+003
1.437803e+002, 2.612406e+003
1.442624e+002, 2.609281e+003
1.447445e+002, 2.605133e+003
1.452266e+002, 2.600297e+003
1.457087e+002, 2.595482e+003
1.461909e+002, 2.588824e+003
1.466730e+002, 2.584488e+003
1.471551e+002, 2.584476e+003
1.476372e+002, 2.593175e+003
1.481193e+002, 2.598905e+003
1.486014e+002, 2.601570e+003
1.490836e+002, 2.601311e+003
1.495657e+002, 2.598487e+003
1.500478e+002, 2.589622e+003
1.505299e+002, 2.581071e+003
1.510120e+002, 2.575553e+003
1.514941e+002, 2.575891e+003
1.519763e+002, 2.575928e+003
1.524584e+002, 2.575141e+003
1.529405e+002, 2.573762e+003
1.534226e+002, 2.573028e+003
1.539047e+002, 2.571249e+003
1.543868e+002, 2.571260e+003
1.548690e+002, 2.574602e+003
1.553511e+002, 2.586999e+003
1.558332e+002, 2.596794e+003
1.563153e+002, 2.601396e+003
1.567974e+002, 2.601274e+003
1.572795e+002, 2.600364e+003
1.577617e+002, 2.597713e+003
1.582438e+002, 2.595570e+003
1.587259e+002, 2.595563e+003
1.592080e+002, 2.599575e+003
1.596901e+002, 2.604390e+003
1.601722e+002, 2.609594e+003
1.606544e+002, 2.615123e+003
1.611365e+002, 2.619834e+003
1.616186e+002, 2.621621e+003
1.621007e+002, 2.623083e+003
1.625828e+002, 2.626660e+003
1.630649e+002, 2.636165e+003
1.635471e+002, 2.645364e+003
1.640292e+002, 2.650680e+003
1.645113e+002, 2.651968e+003
1.649934e+002, 2.653631e+003
1.654755e+002, 2.658492e+003
1.659576e+002, 2.664798e+003
1.664398e+002, 2.670320e+003
1.669219e+002, 2.671847e+003
1.674040e+002, 2.673999e+003
1.678861e+002, 2.680702e+003
1.683682e+002, 2.692414e+003
1.688503e+002, 2.703872e+003
1.693325e+002, 2.710364e+003
1.698146e+002, 2.714561e+003
1.702967e+002, 2.720671e+003
1.707788e+002, 2.732757e+003
1.712609e+002, 2.746475e+003
1.717430e+002, 2.758191e+003
1.722252e+002, 2.767788e+003
1.727073e+002, 2.775151e+003
1.731894e+002, 2.778676e+003
1.736715e+002, 2.779822e+003
1.741536e+002, 2.781730e+003
1.746357e+002, 2.786347e+003
1.751179e+002, 2.792423e+003
1.756000e+002, 2.799313e+003
1.760821e+002, 2.807387e+003
1.765642e+002, 2.813557e+003
1.770463e+002, 2.813121e+003
1.775284e+002, 2.807859e+003
1.780106e+002, 2.803263e+003
1.784927e+002, 2.803288e+003
1.789748e+002, 2.805654e+003
1.794569e+002, 2.806522e+003
1.799390e+002, 2.805415e+003
1.804211e+002, 2.803357e+003
1.809033e+002, 2.801331e+003
1.813854e+002, 2.799326e+003
1.818675e+002, 2.797303e+003
1.823496e+002, 2.795648e+003
1.828317e+002, 2.793954e+003
1.833138e+002, 2.790741e+003
1.837960e+002, 2.785407e+003
1.842781e+002, 2.779859e+003
1.847602e+002, 2.777801e+003
1.852423e+002, 2.778720e+003
1.857244e+002, 2.778594e+003
1.862065e+002, 2.773512e+003
1.866887e+002, 2.765034e+003
1.871708e+002, 2.759244e+003
1.876529e+002, 2.757255e+003
1.881350e+002, 2.757145e+003
1.886171e+002, 2.756507e+003
1.890992e+002, 2.755290e+003
1.895814e+002, 2.752282e+003
1.900635e+002, 2.745521e+003
1.905456e+002, 2.735625e+003
1.910277e+002, 2.727624e+003
1.915098e+002, 2.722361e+003
1.919919e+002, 2.718729e+003
1.924741e+002, 2.715385e+003
1.929562e+002, 2.712445e+003
1.934383e+002, 2.707805e+003
1.939204e+002, 2.699012e+003
1.944025e+002, 2.686366e+003
1.948846e+002, 2.675466e+003
1.953668e+002, 2.667575e+003
1.958489e+002, 2.661077e+003
1.963310e+002, 2.651638e+003
1.968131e+002, 2.638859e+003
1.972952e+002, 2.626183e+003
1.977773e+002, 2.616142e+003
1.982595e+002, 2.608871e+003
1.987416e+002, 2.600770e+003
1.992237e+002, 2.590898e+003
1.997058e+002, 2.580480e+003
2.001879e+002, 2.573634e+003
2.006700e+002, 2.571054e+003
2.011522e+002, 2.568737e+003
2.016343e+002, 2.563370e+003
2.021164e+002, 2.554501e+003
2.025985e+002, 2.547393e+003
2.030806e+002, 2.542921e+003
2.035627e+002, 2.540543e+003
2.040449e+002, 2.538974e+003
2.045270e+002, 2.538528e+003
2.050091e+002, 2.537801e+003
2.054912e+002, 2.534761e+003
2.059733e+002, 2.528323e+003
2.064554e+002, 2.526485e+003
2.069376e+002, 2.531785e+003
2.074197e+002, 2.541868e+003
2.079018e+002, 2.547737e+003
2.083839e+002, 2.548343e+003
2.088660e+002, 2.547441e+003
2.093481e+002, 2.547081e+003
2.098303e+002, 2.546908e+003
2.103124e+002, 2.549135e+003
2.107945e+002, 2.554683e+003
2.112766e+002, 2.562733e+003
2.117587e+002, 2.570357e+003
2.122408e+002, 2.577981e+003
2.127230e+002, 2.584337e+003
2.132051e+002, 2.588117e+003
2.136872e+002, 2.588135e+003
2.141693e+002, 2.589702e+003
2.146514e+002, 2.593909e+003
2.151335e+002, 2.600027e+003
2.156157e+002, 2.604422e+003
2.160978e+002, 2.606295e+003
2.165799e+002, 2.607836e+003
2.170620e+002, 2.610763e+003
2.175441e+002, 2.616049e+003
2.180262e+002, 2.619779e+003
2.185084e+002, 2.621472e+003
2.189905e+002, 2.621319e+003
2.194726e+002, 2.620151e+003
2.199547e+002, 2.617523e+003
2.204368e+002, 2.614674e+003
2.209189e+002, 2.612331e+003
2.214011e+002, 2.610356e+003
2.218832e+002, 2.609475e+003
2.223653e+002, 2.610465e+003
2.228474e+002, 2.612667e+003
2.233295e+002, 2.612850e+003
2.238116e+002, 2.610029e+003
2.242938e+002, 2.606788e+003
2.247759e+002, 2.605013e+003
2.252580e+002, 2.606328e+003
2.257401e+002, 2.604812e+003
2.262222e+002, 2.597925e+003
2.267043e+002, 2.587835e+003
2.271865e+002, 2.584003e+003
2.276686e+002, 2.589785e+003
2.281507e+002, 2.596886e+003
2.286328e+002, 2.600770e+003
2.291149e+002, 2.601064e+003
2.295970e+002, 2.598719e+003
2.300792e+002, 2.592058e+003
2.305613e+002, 2.582806e+003
2.310434e+002, 2.578325e+003
2.315255e+002, 2.581405e+003
2.320076e+002, 2.585302e+003
2.324897e+002, 2.586151e+003
2.329719e+002, 2.581798e+003
2.334540e+002, 2.579397e+003
2.339361e+002, 2.579673e+003
2.344182e+002, 2.582097e+003
2.349003e+002, 2.584871e+003
2.353824e+002, 2.588396e+003
2.358646e+002, 2.591706e+003
2.363467e+002, 2.593963e+003
2.368288e+002, 2.593358e+003
2.373109e+002, 2.596011e+003
2.377930e+002, 2.604477e+003
2.382751e+002, 2.615882e+003
2.387573e+002, 2.620796e+003
2.392394e+002, 2.614930e+003
2.397215e+002, 2.608633e+003
2.402036e+002, 2.606725e+003
2.406857e+002, 2.611719e+003
2.411678e+002, 2.615336e+003
2.416500e+002, 2.617295e+003
2.421321e+002, 2.617907e+003
2.426142e+002, 2.618011e+003
2.430963e+002, 2.617793e+003
2.435784e+002, 2.616760e+003
2.440605e+002, 2.614376e+003
2.445427e+002, 2.609232e+003
2.450248e+002, 2.606614e+003
2.455069e+002, 2.608354e+003
2.459890e+002, 2.611925e+003
2.464711e+002, 2.611558e+003
2.469532e+002, 2.605430e+003
2.474354e+002, 2.598452e+003
2.479175e+002, 2.592501e+003
2.483996e+002, 2.587855e+003
2.488817e+002, 2.583412e+003
2.493638e+002, 2.579461e+003
2.498459e+002, 2.575616e+003
2.503281e+002, 2.571092e+003
2.508102e+002, 2.565557e+003
2.512923e+002, 2.559991e+003
2.517744e+002, 2.554784e+003
2.522565e+002, 2.550257e+003
2.527386e+002, 2.544970e+003
2.532208e+002, 2.538554e+003
2.537029e+002, 2.531663e+003
2.541850e+002, 2.525195e+003
2.546671e+002, 2.519247e+003
2.551492e+002, 2.513428e+003
2.556313e+002, 2.507545e+003
2.561135e+002, 2.501483e+003
2.565956e+002, 2.496042e+003
2.570777e+002, 2.491551e+003
2.575598e+002, 2.487338e+003
2.580419e+002, 2.482171e+003
2.585240e+002, 2.474830e+003
2.590062e+002, 2.469394e+003
2.594883e+002, 2.467683e+003
2.599704e+002, 2.470090e+003
2.604525e+002, 2.470200e+003
2.609346e+002, 2.466807e+003
2.614167e+002, 2.462636e+003
2.618989e+002, 2.461092e+003
2.623810e+002, 2.463380e+003
2.628631e+002, 2.465169e+003
2.633452e+002, 2.465061e+003
2.638273e+002, 2.463112e+003
2.643094e+002, 2.463448e+003
2.647916e+002, 2.467271e+003
2.652737e+002, 2.471579e+003
2.657558e+002, 2.473070e+003
2.662379e+002, 2.470491e+003
2.667200e+002, 2.469310e+003
2.672021e+002, 2.470854e+003
2.676843e+002, 2.474859e+003
2.681664e+002, 2.478638e+003
2.686485e+002, 2.481823e+003
2.691306e+002, 2.485480e+003
2.696127e+002, 2.490540e+003
2.700948e+002, 2.497156e+003
2.705770e+002, 2.504389e+003
2.710591e+002, 2.512711e+003
2.715412e+002, 2.521372e+003
2.720233e+002, 2.526594e+003
2.725054e+002, 2.527302e+003
2.729875e+002, 2.527147e+003
2.734697e+002, 2.528396e+003
2.739518e+002, 2.531022e+003
2.744339e+002, 2.535529e+003
2.749160e+002, 2.542755e+003
2.753981e+002, 2.551427e+003
2.758802e+002, 2.558238e+003
2.763624e+002, 2.563291e+003
2.768445e+002, 2.565707e+003
2.773266e+002, 2.563840e+003
2.778087e+002, 2.557309e+003
2.782908e+002, 2.552552e+003
2.787729e+002, 2.550432e+003
2.792551e+002, 2.550002e+003
2.797372e+002, 2.549299e+003
2.802193e+002, 2.548306e+003
2.807014e+002, 2.547202e+003
2.811835e+002, 2.546545e+003
2.816656e+002, 2.546305e+003
2.821478e+002, 2.543631e+003
2.826299e+002, 2.537546e+003
2.831120e+002, 2.530729e+003
2.835941e+002, 2.528193e+003
2.840762e+002, 2.530137e+003
2.845583e+002, 2.532254e+003
2.850405e+002, 2.531993e+003
2.855226e+002, 2.529776e+003
2.860047e+002, 2.529667e+003
2.864868e+002, 2.531931e+003
2.869689e+002, 2.535482e+003
2.874510e+002, 2.539235e+003
2.879332e+002, 2.543152e+003
2.884153e+002, 2.546683e+003
2.888974e+002, 2.549506e+003
2.893795e+002, 2.551717e+003
2.898616e+002, 2.553430e+003
2.903438e+002, 2.554564e+003
2.908259e+002, 2.555701e+003
2.913080e+002, 2.557914e+003
2.917901e+002, 2.560894e+003
2.922722e+002, 2.562908e+003
2.927543e+002, 2.563098e+003
2.932365e+002, 2.562071e+003
2.937186e+002, 2.560928e+003
2.942007e+002, 2.559668e+003
2.946828e+002, 2.558923e+003
2.951649e+002, 2.559336e+003
2.956470e+002, 2.560745e+003
2.961292e+002, 2.562626e+003
2.966113e+002, 2.564848e+003
2.970934e+002, 2.567463e+003
2.975755e+002, 2.571635e+003
2.980576e+002, 2.577078e+003
2.985397e+002, 2.580537e+003
2.990219e+002, 2.578746e+003
2.995040e+002, 2.573338e+003
2.999861e+002, 2.567435e+003
3.004682e+002, 2.560919e+003
3.009503e+002, 2.555659e+003
3.014324e+002, 2.554703e+003
3.019146e+002, 2.557293e+003
3.023967e+002, 2.560136e+003
3.028788e+002, 2.560724e+003
3.033609e+002, 2.560461e+003
3.038430e+002, 2.561647e+003
3.043251e+002, 2.564992e+003
3.048073e+002, 2.568257e+003
3.052894e+002, 2.569145e+003
3.057715e+002, 2.568297e+003
3.062536e+002, 2.567327e+003
3.067357e+002, 2.564878e+003
3.072178e+002, 2.563790e+003
3.077000e+002, 2.568071e+003
3.081821e+002, 2.578513e+003
3.086642e+002, 2.589112e+003
3.091463e+002, 2.595225e+003
3.096284e+002, 2.598563e+003
3.101105e+002, 2.601888e+003
3.105927e+002, 2.604912e+003
3.110748e+002, 2.609300e+003
3.115569e+002, 2.617683e+003
3.120390e+002, 2.630020e+003
3.125211e+002, 2.640491e+003
3.130032e+002, 2.643903e+003
3.134854e+002, 2.644612e+003
3.139675e+002, 2.647194e+003
3.144496e+002, 2.654640e+003
3.149317e+002, 2.663045e+003
3.154138e+002, 2.669745e+003
3.158959e+002, 2.675380e+003
3.163781e+002, 2.683879e+003
3.168602e+002, 2.701302e+003
3.173423e+002, 2.719691e+003
3.178244e+002, 2.732893e+003
3.183065e+002, 2.735359e+003
3.187886e+002, 2.738505e+003
3.192708e+002, 2.746204e+003
3.197529e+002, 2.757413e+003
3.202350e+002, 2.769258e+003
3.207171e+002, 2.780715e+003
3.211992e+002, 2.792549e+003
3.216813e+002, 2.804871e+003
3.221635e+002, 2.816933e+003
3.226456e+002, 2.831131e+003
3.231277e+002, 2.849547e+003
3.236098e+002, 2.870089e+003
3.240919e+002, 2.889355e+003
3.245740e+002, 2.906057e+003
3.250562e+002, 2.921817e+003
3.255383e+002, 2.936645e+003
3.260204e+002, 2.949948e+003
3.265025e+002, 2.964806e+003
3.269846e+002, 2.984824e+003
3.274667e+002, 3.005103e+003
3.279489e+002, 3.020688e+003
3.284310e+002, 3.028594e+003
3.289131e+002, 3.035260e+003
3.293952e+002, 3.042331e+003
3.298773e+002, 3.049926e+003
3.303594e+002, 3.053967e+003
3.308416e+002, 3.054575e+003
3.313237e+002, 3.051537e+003
3.318058e+002, 3.044645e+003
3.322879e+002, 3.033407e+003
3.327700e+002, 3.018864e+003
3.332521e+002, 2.999882e+003
3.337343e+002, 2.977348e+003
3.342164e+002, 2.955473e+003
3.346985e+002, 2.934599e+003
3.351806e+002, 2.914157e+003
3.356627e+002, 2.893813e+003
3.361448e+002, 2.873705e+003
3.366270e+002, 2.853595e+003
3.371091e+002, 2.833120e+003
3.375912e+002, 2.813143e+003
3.380733e+002, 2.794945e+003
3.385554e+002, 2.778547e+003
3.390375e+002, 2.764503e+003
3.395197e+002, 2.753709e+003
3.400018e+002, 2.746492e+003
3.404839e+002, 2.738224e+003
3.409660e+002, 2.728906e+003
3.414481e+002, 2.718877e+003
3.419302e+002, 2.708267e+003
3.424124e+002, 2.696821e+003
3.428945e+002, 2.687012e+003
3.433766e+002, 2.680066e+003
3.438587e+002, 2.675283e+003
3.443408e+002, 2.668918e+003
3.448229e+002, 2.660777e+003
3.453051e+002, 2.652549e+003
3.457872e+002, 2.646088e+003
3.462693e+002, 2.641115e+003
3.467514e+002, 2.635258e+003
3.472335e+002, 2.627357e+003
3.477156e+002, 2.619324e+003
3.481978e+002, 2.615022e+003
3.486799e+002, 2.614341e+003
3.491620e+002, 2.615675e+003
3.496441e+002, 2.619956e+003
3.501262e+002, 2.625374e+003
3.506083e+002, 2.626733e+003
3.510905e+002, 2.622438e+003
3.515726e+002, 2.617748e+003
3.520547e+002, 2.619807e+003
3.525368e+002, 2.626727e+003
3.530189e+002, 2.632787e+003
3.535010e+002, 2.633131e+003
3.539832e+002, 2.631948e+003
3.544653e+002, 2.634949e+003
3.549474e+002, 2.642535e+003
3.554295e+002, 2.650281e+003
3.559116e+002, 2.653812e+003
3.563937e+002, 2.655461e+003
3.568759e+002, 2.658690e+003
3.573580e+002, 2.666180e+003
3.578401e+002, 2.674516e+003
3.583222e+002, 2.680869e+003
3.588043e+002, 2.685740e+003
3.592864e+002, 2.691750e+003
3.597686e+002, 2.700954e+003
3.602507e+002, 2.711608e+003
3.607328e+002, 2.722159e+003
3.612149e+002, 2.732371e+003
3.616970e+002, 2.742362e+003
3.621791e+002, 2.752306e+003
3.626613e+002, 2.762029e+003
3.631434e+002, 2.771159e+003
3.636255e+002, 2.780730e+003
3.641076e+002, 2.788707e+003
3.645897e+002, 2.794144e+003
3.650718e+002, 2.796607e+003
3.655540e+002, 2.797211e+003
3.660361e+002, 2.795469e+003
3.665182e+002, 2.792197e+003
3.670003e+002, 2.788376e+003
3.674824e+002, 2.784127e+003
3.679645e+002, 2.779385e+003
3.684467e+002, 2.773474e+003
3.689288e+002, 2.766397e+003
3.694109e+002, 2.761379e+003
3.698930e+002, 2.759376e+003
3.703751e+002, 2.758786e+003
3.708572e+002, 2.758603e+003
3.713394e+002, 2.759109e+003
3.718215e+002, 2.759584e+003
3.723036e+002, 2.759650e+003
3.727857e+002, 2.759656e+003
3.732678e+002, 2.760788e+003
3.737499e+002, 2.762906e+003
3.742321e+002, 2.766337e+003
3.747142e+002, 2.771195e+003
3.751963e+002, 2.777528e+003
3.756784e+002, 2.785323e+003
3.761605e+002, 2.795125e+003
3.766426e+002, 2.805582e+003
3.771248e+002, 2.814521e+003
3.776069e+002, 2.822065e+003
3.780890e+002, 2.827788e+003
3.785711e+002, 2.830466e+003
3.790532e+002, 2.830879e+003
3.795353e+002, 2.834620e+003
3.800175e+002, 2.841999e+003
3.804996e+002, 2.851390e+003
3.809817e+002, 2.863520e+003
3.814638e+002, 2.877496e+003
3.819459e+002, 2.885318e+003
3.824280e+002, 2.883135e+003
3.829102e+002, 2.876792e+003
3.833923e+002, 2.878208e+003
3.838744e+002, 2.886690e+003
3.843565e+002, 2.895235e+003
3.848386e+002, 2.899829e+003
3.853207e+002, 2.901177e+003
3.858029e+002, 2.899730e+003
3.862850e+002, 2.894958e+003
3.867671e+002, 2.890387e+003
3.872492e+002, 2.890474e+003
3.877313e+002, 2.893549e+003
3.882134e+002, 2.895816e+003
3.886956e+002, 2.894054e+003
3.891777e+002, 2.891701e+003
3.896598e+002, 2.891896e+003
3.901419e+002, 2.894637e+003
3.906240e+002, 2.898420e+003
3.911061e+002, 2.902197e+003
3.915883e+002, 2.906690e+003
3.920704e+002, 2.912691e+003
3.925525e+002, 2.920809e+003
3.930346e+002, 2.929981e+003
3.935167e+002, 2.941048e+003
3.939988e+002, 2.953064e+003
3.944810e+002, 2.963477e+003
3.949631e+002, 2.969367e+003
3.954452e+002, 2.975018e+003
3.959273e+002, 2.983007e+003
3.964094e+002, 2.994867e+003
3.968915e+002, 3.005063e+003
3.973737e+002, 3.011510e+003
3.978558e+002, 3.016063e+003
3.983379e+002, 3.021003e+003
3.988200e+002, 3.027069e+003
3.993021e+002, 3.032886e+003
3.997842e+002, 3.037919e+003
4.002664e+002, 3.042141e+003
4.007485e+002, 3.047041e+003
4.012306e+002, 3.052668e+003
4.017127e+002, 3.058782e+003
4.021948e+002, 3.065313e+003
4.026769e+002, 3.072743e+003
4.031591e+002, 3.079439e+003
4.036412e+002, 3.085108e+003
4.041233e+002, 3.090045e+003
4.046054e+002, 3.095161e+003
4.050875e+002, 3.100505e+003
4.055696e+002, 3.105796e+003
4.060518e+002, 3.111238e+003
4.065339e+002, 3.116907e+003
4.070160e+002, 3.121242e+003
4.074981e+002, 3.124490e+003
4.079802e+002, 3.125770e+003
4.084623e+002, 3.123903e+003
4.089445e+002, 3.118926e+003
4.094266e+002, 3.112002e+003
4.099087e+002, 3.103475e+003
4.103908e+002, 3.093293e+003
4.108729e+002, 3.080857e+003
4.113550e+002, 3.066190e+003
4.118372e+002, 3.051130e+003
4.123193e+002, 3.037856e+003
4.128014e+002, 3.024955e+003
4.132835e+002, 3.008020e+003
4.137656e+002, 2.985269e+003
4.142477e+002, 2.962736e+003
4.147299e+002, 2.947512e+003
4.152120e+002, 2.937634e+003
4.156941e+002, 2.928852e+003
4.161762e+002, 2.920324e+003
4.166583e+002, 2.910998e+003
4.171404e+002, 2.898993e+003
4.176226e+002, 2.884302e+003
4.181047e+002, 2.870854e+003
4.185868e+002, 2.860088e+003
4.190689e+002, 2.851877e+003
4.195510e+002, 2.846089e+003
4.200331e+002, 2.844458e+003
4.205153e+002, 2.842937e+003
4.209974e+002, 2.839783e+003
4.214795e+002, 2.835615e+003
4.219616e+002, 2.832104e+003
4.224437e+002, 2.831043e+003
4.229258e+002, 2.829605e+003
4.234080e+002, 2.825957e+003
4.238901e+002, 2.818524e+003
4.243722e+002, 2.814333e+003
4.248543e+002, 2.815521e+003
4.253364e+002, 2.819538e+003
4.258185e+002, 2.823997e+003
4.263007e+002, 2.829970e+003
4.267828e+002, 2.834891e+003
4.272649e+002, 2.837698e+003
4.277470e+002, 2.838903e+003
4.282291e+002, 2.842052e+003
4.287112e+002, 2.847551e+003
4.291934e+002, 2.854194e+003
4.296755e+002, 2.861829e+003
4.301576e+002, 2.870853e+003
4.306397e+002, 2.878343e+003
4.311218e+002, 2.883866e+003
4.316039e+002, 2.888324e+003
4.320861e+002, 2.893287e+003
4.325682e+002, 2.898811e+003
4.330503e+002, 2.903901e+003
4.335324e+002, 2.908482e+003
4.340145e+002, 2.912382e+003
4.344966e+002, 2.915222e+003
4.349788e+002, 2.917054e+003
4.354609e+002, 2.917114e+003
4.359430e+002, 2.913139e+003
4.364251e+002, 2.906832e+003
4.369072e+002, 2.902872e+003
4.373893e+002, 2.902154e+003
4.378715e+002, 2.903823e+003
4.383536e+002, 2.907510e+003
4.388357e+002, 2.912874e+003
4.393178e+002, 2.918960e+003
4.397999e+002, 2.925219e+003
4.402820e+002, 2.931993e+003
4.407642e+002, 2.940030e+003
4.412463e+002, 2.949405e+003
4.417284e+002, 2.957737e+003
4.422105e+002, 2.963060e+003
4.426926e+002, 2.967029e+003
4.431747e+002, 2.971178e+003
4.436569e+002, 2.974558e+003
4.441390e+002, 2.979761e+003
4.446211e+002, 2.988469e+003
4.451032e+002, 2.999725e+003
4.455853e+002, 3.010506e+003
4.460674e+002, 3.018840e+003
4.465496e+002, 3.027992e+003
4.470317e+002, 3.039692e+003
4.475138e+002, 3.055483e+003
4.479959e+002, 3.069280e+003
4.484780e+002, 3.081415e+003
4.489601e+002, 3.091557e+003
4.494423e+002, 3.099410e+003
4.499244e+002, 3.104195e+003
4.504065e+002, 3.108277e+003
4.508886e+002, 3.111885e+003
4.513707e+002, 3.115065e+003
4.518528e+002, 3.118592e+003
4.523350e+002, 3.123251e+003
4.528171e+002, 3.125749e+003
4.532992e+002, 3.123331e+003
4.537813e+002, 3.115851e+003
4.542634e+002, 3.110134e+003
4.547455e+002, 3.106465e+003
4.552277e+002, 3.103708e+003
4.557098e+002, 3.100511e+003
4.561919e+002, 3.096899e+003
4.566740e+002, 3.092989e+003
4.571561e+002, 3.088604e+003
4.576382e+002, 3.084212e+003
4.581204e+002, 3.081298e+003
4.586025e+002, 3.079582e+003
4.590846e+002, 3.077132e+003
4.595667e+002, 3.068302e+003
4.600488e+002, 3.059708e+003
4.605309e+002, 3.062365e+003
4.610131e+002, 3.080591e+003
4.614952e+002, 3.096966e+003
4.619773e+002, 3.095615e+003
4.624594e+002, 3.085338e+003
4.629415e+002, 3.078976e+003
4.634236e+002, 3.084771e+003
4.639058e+002, 3.092333e+003
4.643879e+002, 3.096866e+003
4.648700e+002, 3.098682e+003
4.653521e+002, 3.102230e+003
4.658342e+002, 3.109499e+003
4.663163e+002, 3.118145e+003
4.667985e+002, 3.126941e+003
4.672806e+002, 3.135803e+003
4.677627e+002, 3.144741e+003
4.682448e+002, 3.154606e+003
4.687269e+002, 3.164082e+003
4.692090e+002, 3.171460e+003
4.696912e+002, 3.176540e+003
4.701733e+002, 3.179977e+003
4.706554e+002, 3.181871e+003
4.711375e+002, 3.182227e+003
4.716196e+002, 3.180921e+003
4.721017e+002, 3.177558e+003
4.725839e+002, 3.173605e+003
4.730660e+002, 3.170433e+003
4.735481e+002, 3.168083e+003
4.740302e+002, 3.163415e+003
4.745123e+002, 3.155920e+003
4.749944e+002, 3.146891e+003
4.754766e+002, 3.137416e+003
4.759587e+002, 3.127783e+003
4.764408e+002, 3.119734e+003
4.769229e+002, 3.115410e+003
4.774050e+002, 3.112373e+003
4.778871e+002, 3.105277e+003
4.783693e+002, 3.094780e+003
4.788514e+002, 3.086627e+003
4.793335e+002, 3.087043e+003
4.798156e+002, 3.091173e+003
4.802977e+002, 3.092997e+003
4.807798e+002, 3.090715e+003
4.812620e+002, 3.088545e+003
4.817441e+002, 3.088352e+003
4.822262e+002, 3.089898e+003
4.827083e+002, 3.092840e+003
4.831904e+002, 3.097057e+003
4.836725e+002, 3.102591e+003
4.841547e+002, 3.110931e+003
4.846368e+002, 3.121565e+003
4.851189e+002, 3.128704e+003
4.856010e+002, 3.128581e+003
4.860831e+002, 3.127004e+003
4.865652e+002, 3.126793e+003
4.870474e+002, 3.128101e+003
4.875295e+002, 3.130373e+003
4.880116e+002, 3.133338e+003
4.884937e+002, 3.137431e+003
4.889758e+002, 3.143419e+003
4.894579e+002, 3.151685e+003
4.899401e+002, 3.160820e+003
4.904222e+002, 3.170776e+003
4.909043e+002, 3.181326e+003
4.913864e+002, 3.191524e+003
4.918685e+002, 3.201217e+003
4.923506e+002, 3.211954e+003
4.928328e+002, 3.224760e+003
4.933149e+002, 3.239467e+003
4.937970e+002, 3.255656e+003
4.942791e+002, 3.273387e+003
4.947612e+002, 3.292539e+003
4.952433e+002, 3.313685e+003
4.957255e+002, 3.336406e+003
4.962076e+002, 3.359778e+003
4.966897e+002, 3.383019e+003
4.971718e+002, 3.407264e+003
4.976539e+002, 3.432907e+003
4.981360e+002, 3.460013e+003
4.986182e+002, 3.489472e+003
4.991003e+002, 3.523296e+003
4.995824e+002, 3.558451e+003
5.000645e+002, 3.591699e+003
5.005466e+002, 3.622549e+003
5.010287e+002, 3.654454e+003
5.015109e+002, 3.687721e+003
5.019930e+002, 3.722902e+003
5.024751e+002, 3.760135e+003
5.029572e+002, 3.799913e+003
5.034393e+002, 3.841196e+003
5.039214e+002, 3.885058e+003
5.044036e+002, 3.930009e+003
5.048857e+002, 3.971581e+003
5.053678e+002, 4.006897e+003
5.058499e+002, 4.044663e+003
5.063320e+002, 4.089573e+003
5.068141e+002, 4.142358e+003
5.072963e+002, 4.191096e+003
5.077784e+002, 4.235439e+003
5.082605e+002, 4.278309e+003
5.087426e+002, 4.324807e+003
5.092247e+002, 4.374424e+003
5.097068e+002, 4.419259e+003
5.101890e+002, 4.457336e+003
5.106711e+002, 4.490798e+003
5.111532e+002, 4.522485e+003
5.116353e+002, 4.552213e+003
5.121174e+002, 4.578424e+003
5.125995e+002, 4.601137e+003
5.130817e+002, 4.619734e+003
5.135638e+002, 4.634546e+003
5.140459e+002, 4.645370e+003
5.145280e+002, 4.648734e+003
5.150101e+002, 4.640290e+003
5.154922e+002, 4.624443e+003
5.159744e+002, 4.605650e+003
5.164565e+002, 4.586227e+003
5.169386e+002, 4.561138e+003
5.174207e+002, 4.527987e+003
5.179028e+002, 4.488338e+003
5.183849e+002, 4.444717e+003
5.188671e+002, 4.395731e+003
5.193492e+002, 4.344639e+003
5.198313e+002, 4.290856e+003
5.203134e+002, 4.235041e+003
5.207955e+002, 4.179910e+003
5.212776e+002, 4.125109e+003
5.217598e+002, 4.071215e+003
5.222419e+002, 4.019316e+003
5.227240e+002, 3.969524e+003
5.232061e+002, 3.919235e+003
5.236882e+002, 3.867496e+003
5.241703e+002, 3.816754e+003
5.246525e+002, 3.769758e+003
5.251346e+002, 3.726305e+003
5.256167e+002, 3.686366e+003
5.260988e+002, 3.651001e+003
5.265809e+002, 3.618591e+003
5.270630e+002, 3.586402e+003
5.275452e+002, 3.554769e+003
5.280273e+002, 3.524793e+003
5.285094e+002, 3.496938e+003
5.289915e+002, 3.470990e+003
5.294736e+002, 3.445814e+003
5.299557e+002, 3.421165e+003
5.304379e+002, 3.399605e+003
5.309200e+002, 3.384405e+003
5.314021e+002, 3.371874e+003
5.318842e+002, 3.358211e+003
5.323663e+002, 3.340511e+003
5.328484e+002, 3.324377e+003
5.333306e+002, 3.311513e+003
5.338127e+002, 3.301129e+003
5.342948e+002, 3.291972e+003
5.347769e+002, 3.285671e+003
5.352590e+002, 3.278449e+003
5.357411e+002, 3.269530e+003
5.362233e+002, 3.258999e+003
5.367054e+002, 3.246840e+003
5.371875e+002, 3.231564e+003
5.376696e+002, 3.217873e+003
5.381517e+002, 3.209811e+003
5.386339e+002, 3.208100e+003
5.391160e+002, 3.202991e+003
5.395981e+002, 3.193045e+003
5.400802e+002, 3.182424e+003
5.405623e+002, 3.177215e+003
5.410444e+002, 3.176454e+003
5.415266e+002, 3.174486e+003
5.420087e+002, 3.169137e+003
5.424908e+002, 3.162140e+003
5.429729e+002, 3.155479e+003
5.434550e+002, 3.149257e+003
5.439371e+002, 3.143716e+003
5.444193e+002, 3.138587e+003
5.449014e+002, 3.134383e+003
5.453835e+002, 3.131915e+003
5.458656e+002, 3.131329e+003
5.463477e+002, 3.130431e+003
5.468298e+002, 3.128626e+003
5.473120e+002, 3.125906e+003
5.477941e+002, 3.122256e+003
5.482762e+002, 3.116281e+003
5.487583e+002, 3.111216e+003
5.492404e+002, 3.107079e+003
5.497225e+002, 3.104017e+003
5.502047e+002, 3.102623e+003
5.506868e+002, 3.104609e+003
5.511689e+002, 3.104828e+003
5.516510e+002, 3.101300e+003
5.521331e+002, 3.094826e+003
5.526152e+002, 3.090906e+003
5.530974e+002, 3.089987e+003
5.535795e+002, 3.089605e+003
5.540616e+002, 3.087902e+003
5.545437e+002, 3.085286e+003
5.550258e+002, 3.084324e+003
5.555079e+002, 3.085435e+003
5.559901e+002, 3.086506e+003
5.564722e+002, 3.084483e+003
5.569543e+002, 3.080887e+003
5.574364e+002, 3.078987e+003
5.579185e+002, 3.080557e+003
5.584006e+002, 3.082733e+003
5.588828e+002, 3.082678e+003
5.593649e+002, 3.081425e+003
5.598470e+002, 3.081410e+003
5.603291e+002, 3.084214e+003
5.608112e+002, 3.087784e+003
5.612933e+002, 3.091309e+003
5.617755e+002, 3.094690e+003
5.622576e+002, 3.098051e+003
5.627397e+002, 3.102481e+003
5.632218e+002, 3.105863e+003
5.637039e+002, 3.106735e+003
5.641860e+002, 3.102851e+003
5.646682e+002, 3.102823e+003
5.651503e+002, 3.108854e+003
5.656324e+002, 3.116082e+003
5.661145e+002, 3.117537e+003
5.665966e+002, 3.112554e+003
5.670787e+002, 3.108802e+003
5.675609e+002, 3.108295e+003
5.680430e+002, 3.109626e+003
5.685251e+002, 3.109591e+003
5.690072e+002, 3.108436e+003
5.694893e+002, 3.107944e+003
5.699714e+002, 3.109573e+003
5.704536e+002, 3.112223e+003
5.709357e+002, 3.114522e+003
5.714178e+002, 3.116403e+003
5.718999e+002, 3.117735e+003
5.723820e+002, 3.117306e+003
5.728641e+002, 3.116869e+003
5.733463e+002, 3.118193e+003
5.738284e+002, 3.122380e+003
5.743105e+002, 3.126089e+003
5.747926e+002, 3.128174e+003
5.752747e+002, 3.129239e+003
5.757568e+002, 3.130040e+003
5.762390e+002, 3.131191e+003
5.767211e+002, 3.131183e+003
5.772032e+002, 3.128522e+003
5.776853e+002, 3.124679e+003
5.781674e+002, 3.125446e+003
5.786495e+002, 3.132703e+003
5.791317e+002, 3.139112e+003
5.796138e+002, 3.141535e+003
5.800959e+002, 3.140375e+003
5.805780e+002, 3.138310e+003
5.810601e+002, 3.135187e+003
5.815422e+002, 3.132908e+003
5.820244e+002, 3.134803e+003
5.825065e+002, 3.138662e+003
5.829886e+002, 3.138035e+003
5.834707e+002, 3.131207e+003
5.839528e+002, 3.124685e+003
5.844349e+002, 3.124737e+003
5.849171e+002, 3.128742e+003
5.853992e+002, 3.132836e+003
5.858813e+002, 3.137027e+003
5.863634e+002, 3.139531e+003
5.868455e+002, 3.138880e+003
5.873276e+002, 3.135871e+003
5.878098e+002, 3.132723e+003
5.882919e+002, 3.128580e+003
5.887740e+002, 3.125623e+003
5.892561e+002, 3.124750e+003
5.897382e+002, 3.125985e+003
5.902203e+002, 3.127170e+003
5.907025e+002, 3.129136e+003
5.911846e+002, 3.129521e+003
5.916667e+002, 3.125802e+003
5.921488e+002, 3.117492e+003
5.926309e+002, 3.112531e+003
5.931130e+002, 3.111766e+003
5.935952e+002, 3.112195e+003
5.940773e+002, 3.109140e+003
5.945594e+002, 3.103954e+003
5.950415e+002, 3.102341e+003
5.955236e+002, 3.107332e+003
5.960057e+002, 3.113431e+003
5.964879e+002, 3.113605e+003
5.969700e+002, 3.110082e+003
5.974521e+002, 3.108062e+003
5.979342e+002, 3.113287e+003
5.984163e+002, 3.117714e+003
5.988984e+002, 3.114932e+003
5.993806e+002, 3.105938e+003
5.998627e+002, 3.100865e+003
6.003448e+002, 3.106047e+003
6.008269e+002, 3.112216e+003
6.013090e+002, 3.114872e+003
6.017911e+002, 3.112889e+003
6.022733e+002, 3.111713e+003
6.027554e+002, 3.111778e+003
6.032375e+002, 3.112024e+003
6.037196e+002, 3.111229e+003
6.042017e+002, 3.109203e+003
6.046838e+002, 3.107898e+003
6.051660e+002, 3.107224e+003
6.056481e+002, 3.108093e+003
6.061302e+002, 3.113940e+003
6.066123e+002, 3.123301e+003
6.070944e+002, 3.129137e+003
6.075765e+002, 3.126640e+003
6.080587e+002, 3.121581e+003
6.085408e+002, 3.120429e+003
6.090229e+002, 3.122421e+003
6.095050e+002, 3.124801e+003
6.099871e+002, 3.125739e+003
6.104692e+002, 3.126906e+003
6.109514e+002, 3.129847e+003
6.114335e+002, 3.134815e+003
6.119156e+002, 3.138203e+003
6.123977e+002, 3.137720e+003
6.128798e+002, 3.136597e+003
6.133619e+002, 3.136634e+003
6.138441e+002, 3.137858e+003
6.143262e+002, 3.140657e+003
6.148083e+002, 3.146554e+003
6.152904e+002, 3.152049e+003
6.157725e+002, 3.151412e+003
6.162546e+002, 3.144148e+003
6.167368e+002, 3.140070e+003
6.172189e+002, 3.141697e+003
6.177010e+002, 3.146310e+003
6.181831e+002, 3.148798e+003
6.186652e+002, 3.149835e+003
6.191473e+002, 3.152146e+003
6.196295e+002, 3.159959e+003
6.201116e+002, 3.167681e+003
6.205937e+002, 3.168265e+003
6.210758e+002, 3.163077e+003
6.215579e+002, 3.159005e+003
6.220400e+002, 3.161025e+003
6.225222e+002, 3.163930e+003
6.230043e+002, 3.164285e+003
6.234864e+002, 3.160986e+003
6.239685e+002, 3.159738e+003
6.244506e+002, 3.162962e+003
6.249327e+002, 3.166827e+003
6.254149e+002, 3.168656e+003
6.258970e+002, 3.167292e+003
6.263791e+002, 3.167427e+003
6.268612e+002, 3.169632e+003
6.273433e+002, 3.172656e+003
6.278254e+002, 3.174613e+003
6.283076e+002, 3.175568e+003
6.287897e+002, 3.177156e+003
6.292718e+002, 3.180199e+003
6.297539e+002, 3.183403e+003
6.302360e+002, 3.184055e+003
6.307181e+002, 3.182996e+003
6.312003e+002, 3.182864e+003
6.316824e+002, 3.185848e+003
6.321645e+002, 3.189627e+003
6.326466e+002, 3.192729e+003
6.331287e+002, 3.195136e+003
6.336108e+002, 3.196782e+003
6.340930e+002, 3.196293e+003
6.345751e+002, 3.196206e+003
6.350572e+002, 3.198031e+003
6.355393e+002, 3.202300e+003
6.360214e+002, 3.206010e+003
6.365035e+002, 3.209288e+003
6.369857e+002, 3.211830e+003
6.374678e+002, 3.212897e+003
6.379499e+002, 3.212008e+003
6.384320e+002, 3.213415e+003
6.389141e+002, 3.218020e+003
6.393962e+002, 3.223054e+003
6.398784e+002, 3.224003e+003
6.403605e+002, 3.221914e+003
6.408426e+002, 3.221503e+003
6.413247e+002, 3.224623e+003
6.418068e+002, 3.228954e+003
6.422889e+002, 3.232141e+003
6.427711e+002, 3.234629e+003
6.432532e+002, 3.237483e+003
6.437353e+002, 3.242340e+003
6.442174e+002, 3.246546e+003
6.446995e+002, 3.248640e+003
6.451816e+002, 3.248828e+003
6.456638e+002, 3.248777e+003
6.461459e+002, 3.247900e+003
6.466280e+002, 3.247694e+003
6.471101e+002, 3.248873e+003
6.475922e+002, 3.251516e+003
6.480743e+002, 3.253546e+003
6.485565e+002, 3.254637e+003
6.490386e+002, 3.255814e+003
6.495207e+002, 3.257444e+003
6.500028e+002, 3.259611e+003
6.504849e+002, 3.264211e+003
6.509670e+002, 3.271777e+003
6.514492e+002, 3.278542e+003
6.519313e+002, 3.279534e+003
6.524134e+002, 3.276949e+003
6.528955e+002, 3.274831e+003
6.533776e+002, 3.274065e+003
6.538597e+002, 3.274246e+003
6.543419e+002, 3.275147e+003
6.548240e+002, 3.276863e+003
6.553061e+002, 3.279528e+003
6.557882e+002, 3.286586e+003
6.562703e+002, 3.290801e+003
6.567524e+002, 3.288932e+003
6.572346e+002, 3.283155e+003
6.577167e+002, 3.279523e+003
6.581988e+002, 3.278025e+003
6.586809e+002, 3.278952e+003
6.591630e+002, 3.283392e+003
6.596451e+002, 3.290409e+003
6.601273e+002, 3.293752e+003
6.606094e+002, 3.293202e+003
6.610915e+002, 3.293398e+003
6.615736e+002, 3.298733e+003
6.620557e+002, 3.306584e+003
6.625378e+002, 3.312198e+003
6.630200e+002, 3.315289e+003
6.635021e+002, 3.316108e+003
6.639842e+002, 3.311458e+003
6.644663e+002, 3.306487e+003
6.649484e+002, 3.306989e+003
6.654305e+002, 3.316905e+003
6.659127e+002, 3.323540e+003
6.663948e+002, 3.319922e+003
6.668769e+002, 3.313707e+003
6.673590e+002, 3.312914e+003
6.678411e+002, 3.321289e+003
6.683232e+002, 3.327444e+003
6.688054e+002, 3.330424e+003
6.692875e+002, 3.330934e+003
6.697696e+002, 3.328494e+003
6.702517e+002, 3.322957e+003
6.707338e+002, 3.322384e+003
6.712159e+002, 3.331238e+003
6.716981e+002, 3.343499e+003
6.721802e+002, 3.349222e+003
6.726623e+002, 3.349308e+003
6.731444e+002, 3.347216e+003
6.736265e+002, 3.341890e+003
6.741086e+002, 3.337390e+003
6.745908e+002, 3.337827e+003
6.750729e+002, 3.342424e+003
6.755550e+002, 3.345698e+003
6.760371e+002, 3.343410e+003
6.765192e+002, 3.341809e+003
6.770013e+002, 3.344294e+003
6.774835e+002, 3.351446e+003
6.779656e+002, 3.356622e+003
6.784477e+002, 3.359234e+003
6.789298e+002, 3.361031e+003
6.794119e+002, 3.362808e+003
6.798940e+002, 3.364570e+003
6.803762e+002, 3.368074e+003
6.808583e+002, 3.373759e+003
6.813404e+002, 3.378804e+003
6.818225e+002, 3.379573e+003
6.823046e+002, 3.377679e+003
6.827867e+002, 3.376515e+003
6.832689e+002, 3.376866e+003
6.837510e+002, 3.377740e+003
6.842331e+002, 3.378125e+003
6.847152e+002, 3.378729e+003
6.851973e+002, 3.380447e+003
6.856794e+002, 3.384229e+003
6.861616e+002, 3.388372e+003
6.866437e+002, 3.392491e+003
6.871258e+002, 3.396854e+003
6.876079e+002, 3.402148e+003
6.880900e+002, 3.409238e+003
6.885721e+002, 3.414833e+003
6.890543e+002, 3.418000e+003
6.895364e+002, 3.419138e+003
6.900185e+002, 3.418766e+003
6.905006e+002, 3.416943e+003
6.909827e+002, 3.416039e+003
6.914648e+002, 3.418277e+003
6.919470e+002, 3.421598e+003
6.924291e+002, 3.422348e+003
6.929112e+002, 3.421032e+003
6.933933e+002, 3.420507e+003
6.938754e+002, 3.422516e+003
6.943575e+002, 3.425749e+003
6.948397e+002, 3.430014e+003
6.953218e+002, 3.435507e+003
6.958039e+002, 3.439199e+003
6.962860e+002, 3.437400e+003
6.967681e+002, 3.437025e+003
6.972502e+002, 3.442583e+003
6.977324e+002, 3.456290e+003
6.982145e+002, 3.464527e+003
6.986966e+002, 3.466157e+003
6.991787e+002, 3.465583e+003
6.996608e+002, 3.466438e+003
7.001429e+002, 3.468673e+003
7.006251e+002, 3.472507e+003
7.011072e+002, 3.478239e+003
7.015893e+002, 3.483837e+003
7.020714e+002, 3.486199e+003
7.025535e+002, 3.487418e+003
7.030356e+002, 3.490668e+003
7.035178e+002, 3.497633e+003
7.039999e+002, 3.505222e+003
7.044820e+002, 3.514068e+003
7.049641e+002, 3.522246e+003
7.054462e+002, 3.526621e+003
7.059283e+002, 3.522950e+003
7.064105e+002, 3.522274e+003
7.068926e+002, 3.527045e+003
7.073747e+002, 3.535004e+003
7.078568e+002, 3.540750e+003
7.083389e+002, 3.544167e+003
7.088210e+002, 3.547650e+003
7.093032e+002, 3.552753e+003
7.097853e+002, 3.557757e+003
7.102674e+002, 3.557777e+003
7.107495e+002, 3.554109e+003
7.112316e+002, 3.552158e+003
7.117137e+002, 3.555661e+003
7.121959e+002, 3.561303e+003
7.126780e+002, 3.567482e+003
7.131601e+002, 3.573944e+003
7.136422e+002, 3.579333e+003
7.141243e+002, 3.585098e+003
7.146064e+002, 3.587844e+003
7.150886e+002, 3.585219e+003
7.155707e+002, 3.576975e+003
7.160528e+002, 3.572045e+003
7.165349e+002, 3.571278e+003
7.170170e+002, 3.571596e+003
7.174991e+002, 3.571190e+003
7.179813e+002, 3.570155e+003
7.184634e+002, 3.568538e+003
7.189455e+002, 3.566247e+003
7.194276e+002, 3.565794e+003
7.199097e+002, 3.572877e+003
7.203918e+002, 3.581591e+003
7.208740e+002, 3.582750e+003
7.213561e+002, 3.573708e+003
7.218382e+002, 3.565481e+003
7.223203e+002, 3.562990e+003
7.228024e+002, 3.563720e+003
7.232845e+002, 3.565542e+003
7.237667e+002, 3.569710e+003
7.242488e+002, 3.572263e+003
7.247309e+002, 3.573058e+003
7.252130e+002, 3.572362e+003
7.256951e+002, 3.569538e+003
7.261772e+002, 3.564246e+003
7.266594e+002, 3.562825e+003
7.271415e+002, 3.567356e+003
7.276236e+002, 3.572916e+003
7.281057e+002, 3.571710e+003
7.285878e+002, 3.566110e+003
7.290699e+002, 3.562270e+003
7.295521e+002, 3.562676e+003
7.300342e+002, 3.564726e+003
7.305163e+002, 3.567632e+003
7.309984e+002, 3.570822e+003
7.314805e+002, 3.573266e+003
7.319626e+002, 3.574614e+003
7.324448e+002, 3.575270e+003
7.329269e+002, 3.574683e+003
7.334090e+002, 3.573628e+003
7.338911e+002, 3.574321e+003
7.343732e+002, 3.577088e+003
7.348553e+002, 3.580209e+003
7.353375e+002, 3.583000e+003
7.358196e+002, 3.585907e+003
7.363017e+002, 3.591639e+003
7.367838e+002, 3.599311e+003
7.372659e+002, 3.603518e+003
7.377480e+002, 3.597059e+003
7.382302e+002, 3.588930e+003
7.387123e+002, 3.589027e+003
7.391944e+002, 3.595562e+003
7.396765e+002, 3.599248e+003
7.401586e+002, 3.592533e+003
7.406407e+002, 3.586155e+003
7.411229e+002, 3.585362e+003
7.416050e+002, 3.589883e+003
7.420871e+002, 3.593770e+003
7.425692e+002, 3.596926e+003
7.430513e+002, 3.599763e+003
7.435334e+002, 3.602540e+003
7.440156e+002, 3.605232e+003
7.444977e+002, 3.607641e+003
7.449798e+002, 3.609788e+003
7.454619e+002, 3.611091e+003
7.459440e+002, 3.610436e+003
7.464261e+002, 3.608997e+003
7.469083e+002, 3.608466e+003
7.473904e+002, 3.608999e+003
7.478725e+002, 3.608844e+003
7.483546e+002, 3.604883e+003
7.488367e+002, 3.601581e+003
7.493188e+002, 3.601908e+003
7.498010e+002, 3.606279e+003
7.502831e+002, 3.614086e+003
7.507652e+002, 3.629425e+003
7.512473e+002, 3.641805e+003
7.517294e+002, 3.640179e+003
7.522115e+002, 3.624825e+003
7.526937e+002, 3.616870e+003
7.531758e+002, 3.617960e+003
7.536579e+002, 3.623693e+003
7.541400e+002, 3.633059e+003
7.546221e+002, 3.642930e+003
7.551042e+002, 3.647596e+003
7.555864e+002, 3.644799e+003
7.560685e+002, 3.641614e+003
7.565506e+002, 3.641323e+003
7.570327e+002, 3.642813e+003
7.575148e+002, 3.644987e+003
7.579969e+002, 3.647898e+003
7.584791e+002, 3.651335e+003
7.589612e+002, 3.655520e+003
7.594433e+002, 3.659954e+003
7.599254e+002, 3.664174e+003
7.604075e+002, 3.668218e+003
7.608896e+002, 3.670826e+003
7.613718e+002, 3.671375e+003
7.618539e+002, 3.671677e+003
7.623360e+002, 3.674829e+003
7.628181e+002, 3.679422e+003
7.633002e+002, 3.682452e+003
7.637823e+002, 3.682450e+003
7.642645e+002, 3.681806e+003
7.647466e+002, 3.680832e+003
7.652287e+002, 3.680371e+003
7.657108e+002, 3.681722e+003
7.661929e+002, 3.688429e+003
7.666750e+002, 3.692315e+003
7.671572e+002, 3.692357e+003
7.676393e+002, 3.689555e+003
7.681214e+002, 3.684402e+003
7.686035e+002, 3.676504e+003
7.690856e+002, 3.672886e+003
7.695677e+002, 3.676458e+003
7.700499e+002, 3.682856e+003
7.705320e+002, 3.685808e+003
7.710141e+002, 3.686094e+003
7.714962e+002, 3.685755e+003
7.719783e+002, 3.685091e+003
7.724604e+002, 3.684569e+003
7.729426e+002, 3.684422e+003
7.734247e+002, 3.684579e+003
7.739068e+002, 3.684922e+003
7.743889e+002, 3.686086e+003
7.748710e+002, 3.686513e+003
7.753531e+002, 3.686042e+003
7.758353e+002, 3.684644e+003
7.763174e+002, 3.681581e+003
7.767995e+002, 3.676765e+003
7.772816e+002, 3.673464e+003
7.777637e+002, 3.673358e+003
7.782458e+002, 3.674997e+003
7.787280e+002, 3.676602e+003
7.792101e+002, 3.677991e+003
7.796922e+002, 3.678507e+003
7.801743e+002, 3.677348e+003
7.806564e+002, 3.675746e+003
7.811385e+002, 3.673969e+003
7.816207e+002, 3.672180e+003
7.821028e+002, 3.671001e+003
7.825849e+002, 3.669427e+003
7.830670e+002, 3.670176e+003
7.835491e+002, 3.675483e+003
7.840313e+002, 3.683224e+003
7.845134e+002, 3.683911e+003
7.849955e+002, 3.677383e+003
7.854776e+002, 3.672056e+003
7.859597e+002, 3.673160e+003
7.864418e+002, 3.676816e+003
7.869240e+002, 3.676093e+003
7.874061e+002, 3.672328e+003
7.878882e+002, 3.670486e+003
7.883703e+002, 3.676326e+003
7.888524e+002, 3.681609e+003
7.893345e+002, 3.680672e+003
7.898167e+002, 3.674649e+003
7.902988e+002, 3.673673e+003
7.907809e+002, 3.682375e+003
7.912630e+002, 3.687841e+003
7.917451e+002, 3.684542e+003
7.922272e+002, 3.674843e+003
7.927094e+002, 3.668378e+003
7.931915e+002, 3.665169e+003
7.936736e+002, 3.664136e+003
7.941557e+002, 3.665928e+003
7.946378e+002, 3.668816e+003
7.951199e+002, 3.670594e+003
7.956021e+002, 3.671445e+003
7.960842e+002, 3.672405e+003
7.965663e+002, 3.673991e+003
7.970484e+002, 3.675675e+003
7.975305e+002, 3.677513e+003
7.980126e+002, 3.679360e+003
7.984948e+002, 3.679905e+003
7.989769e+002, 3.678450e+003
7.994590e+002, 3.677468e+003
7.999411e+002, 3.678367e+003
8.004232e+002, 3.680486e+003
8.009053e+002, 3.680737e+003
8.013875e+002, 3.679369e+003
8.018696e+002, 3.678755e+003
8.023517e+002, 3.681223e+003
8.028338e+002, 3.684500e+003
8.033159e+002, 3.685735e+003
8.037980e+002, 3.685428e+003
8.042802e+002, 3.686778e+003
8.047623e+002, 3.693788e+003
8.052444e+002, 3.699422e+003
8.057265e+002, 3.700871e+003
8.062086e+002, 3.698515e+003
8.066907e+002, 3.695316e+003
8.071729e+002, 3.690472e+003
8.076550e+002, 3.688121e+003
8.081371e+002, 3.691922e+003
8.086192e+002, 3.698869e+003
8.091013e+002, 3.700260e+003
8.095834e+002, 3.697015e+003
8.100656e+002, 3.694348e+003
8.105477e+002, 3.696998e+003
8.110298e+002, 3.699951e+003
8.115119e+002, 3.698681e+003
8.119940e+002, 3.693956e+003
8.124761e+002, 3.692341e+003
8.129583e+002, 3.698440e+003
8.134404e+002, 3.703264e+003
8.139225e+002, 3.703707e+003
8.144046e+002, 3.700604e+003
8.148867e+002, 3.698559e+003
8.153688e+002, 3.697580e+003
8.158510e+002, 3.697956e+003
8.163331e+002, 3.700980e+003
8.168152e+002, 3.704745e+003
8.172973e+002, 3.704490e+003
8.177794e+002, 3.701642e+003
8.182615e+002, 3.702073e+003
8.187437e+002, 3.713738e+003
8.192258e+002, 3.724347e+003
8.197079e+002, 3.727107e+003
8.201900e+002, 3.722940e+003
8.206721e+002, 3.720772e+003
8.211542e+002, 3.721309e+003
8.216364e+002, 3.722328e+003
8.221185e+002, 3.723879e+003
8.226006e+002, 3.724995e+003
8.230827e+002, 3.721095e+003
8.235648e+002, 3.712980e+003
8.240469e+002, 3.706731e+003
8.245291e+002, 3.706819e+003
8.250112e+002, 3.709317e+003
8.254933e+002, 3.710971e+003
8.259754e+002, 3.711995e+003
8.264575e+002, 3.713031e+003
8.269396e+002, 3.715238e+003
8.274218e+002, 3.716408e+003
8.279039e+002, 3.715726e+003
8.283860e+002, 3.713669e+003
8.288681e+002, 3.711518e+003
8.293502e+002, 3.709011e+003
8.298323e+002, 3.707882e+003
8.303145e+002, 3.709097e+003
8.307966e+002, 3.711519e+003
8.312787e+002, 3.713213e+003
8.317608e+002, 3.714284e+003
8.322429e+002, 3.715036e+003
8.327250e+002, 3.714542e+003
8.332072e+002, 3.714846e+003
8.336893e+002, 3.718520e+003
8.341714e+002, 3.723805e+003
8.346535e+002, 3.725860e+003
8.351356e+002, 3.723151e+003
8.356177e+002, 3.719481e+003
8.360999e+002, 3.714390e+003
8.365820e+002, 3.709733e+003
8.370641e+002, 3.710495e+003
8.375462e+002, 3.716207e+003
8.380283e+002, 3.721413e+003
8.385104e+002, 3.723906e+003
8.389926e+002, 3.726011e+003
8.394747e+002, 3.730726e+003
8.399568e+002, 3.736748e+003
8.404389e+002, 3.741891e+003
8.409210e+002, 3.746111e+003
8.414031e+002, 3.748351e+003
8.418853e+002, 3.746754e+003
8.423674e+002, 3.743783e+003
8.428495e+002, 3.742760e+003
8.433316e+002, 3.743805e+003
8.438137e+002, 3.746459e+003
8.442958e+002, 3.751333e+003
8.447780e+002, 3.755977e+003
8.452601e+002, 3.756545e+003
8.457422e+002, 3.754057e+003
8.462243e+002, 3.750977e+003
8.467064e+002, 3.748011e+003
8.471885e+002, 3.744464e+003
8.476707e+002, 3.737406e+003
8.481528e+002, 3.730737e+003
8.486349e+002, 3.729384e+003
8.491170e+002, 3.738625e+003
8.495991e+002, 3.744203e+003
8.500812e+002, 3.744986e+003
8.505634e+002, 3.743659e+003
8.510455e+002, 3.743355e+003
8.515276e+002, 3.743846e+003
8.520097e+002, 3.742549e+003
8.524918e+002, 3.738796e+003
8.529739e+002, 3.735884e+003
8.534561e+002, 3.737605e+003
8.539382e+002, 3.741425e+003
8.544203e+002, 3.744507e+003
8.549024e+002, 3.746043e+003
8.553845e+002, 3.747774e+003
8.558666e+002, 3.749959e+003
8.563488e+002, 3.752453e+003
8.568309e+002, 3.755034e+003
8.573130e+002, 3.757591e+003
8.577951e+002, 3.761076e+003
8.582772e+002, 3.765637e+003
8.587593e+002, 3.769435e+003
8.592415e+002, 3.771208e+003
8.597236e+002, 3.770935e+003
8.602057e+002, 3.767302e+003
8.606878e+002, 3.760280e+003
8.611699e+002, 3.755821e+003
8.616520e+002, 3.758824e+003
8.621342e+002, 3.763598e+003
8.626163e+002, 3.767639e+003
8.630984e+002, 3.771050e+003
8.635805e+002, 3.769821e+003
8.640626e+002, 3.762187e+003
8.645447e+002, 3.755375e+003
8.650269e+002, 3.754140e+003
8.655090e+002, 3.756929e+003
8.659911e+002, 3.759331e+003
8.664732e+002, 3.761117e+003
8.669553e+002, 3.760441e+003
8.674374e+002, 3.751535e+003
8.679196e+002, 3.743729e+003
8.684017e+002, 3.745834e+003
8.688838e+002, 3.756243e+003
8.693659e+002, 3.761619e+003
8.698480e+002, 3.757312e+003
8.703301e+002, 3.753743e+003
8.708123e+002, 3.753929e+003
8.712944e+002, 3.756879e+003
8.717765e+002, 3.760027e+003
8.722586e+002, 3.763141e+003
8.727407e+002, 3.764487e+003
8.732228e+002, 3.762401e+003
8.737050e+002, 3.759132e+003
8.741871e+002, 3.756815e+003
8.746692e+002, 3.755138e+003
8.751513e+002, 3.753388e+003
8.756334e+002, 3.749466e+003
8.761155e+002, 3.748167e+003
8.765977e+002, 3.751960e+003
8.770798e+002, 3.757732e+003
8.775619e+002, 3.759548e+003
8.780440e+002, 3.757147e+003
8.785261e+002, 3.754837e+003
8.790082e+002, 3.753407e+003
8.794904e+002, 3.752594e+003
8.799725e+002, 3.752299e+003
8.804546e+002, 3.752265e+003
8.809367e+002, 3.752077e+003
8.814188e+002, 3.751727e+003
8.819009e+002, 3.750927e+003
8.823831e+002, 3.748579e+003
8.828652e+002, 3.746322e+003
8.833473e+002, 3.746023e+003
8.838294e+002, 3.748514e+003
8.843115e+002, 3.749617e+003
8.847936e+002, 3.748949e+003
8.852758e+002, 3.747956e+003
8.857579e+002, 3.748251e+003
8.862400e+002, 3.749360e+003
8.867221e+002, 3.749640e+003
8.872042e+002, 3.748785e+003
8.876863e+002, 3.749851e+003
8.881685e+002, 3.757801e+003
8.886506e+002, 3.765845e+003
8.891327e+002, 3.768911e+003
8.896148e+002, 3.766249e+003
8.900969e+002, 3.761887e+003
8.905790e+002, 3.754062e+003
8.910612e+002, 3.748781e+003
8.915433e+002, 3.750774e+003
8.920254e+002, 3.758019e+003
8.925075e+002, 3.763701e+003
8.929896e+002, 3.767825e+003
8.934717e+002, 3.770636e+003
8.939539e+002, 3.772521e+003
8.944360e+002, 3.772968e+003
8.949181e+002, 3.771586e+003
8.954002e+002, 3.768448e+003
8.958823e+002, 3.763821e+003
8.963644e+002, 3.755440e+003
8.968466e+002, 3.750329e+003
8.973287e+002, 3.751401e+003
8.978108e+002, 3.756190e+003
8.982929e+002, 3.758716e+003
8.987750e+002, 3.759072e+003
8.992571e+002, 3.757404e+003
8.997393e+002, 3.751860e+003
9.002214e+002, 3.747277e+003
9.007035e+002, 3.749815e+003
9.011856e+002, 3.755595e+003
9.016677e+002, 3.758047e+003
9.021498e+002, 3.749493e+003
9.026320e+002, 3.746544e+003
9.031141e+002, 3.752480e+003
9.035962e+002, 3.761484e+003
9.040783e+002, 3.765131e+003
9.045604e+002, 3.763919e+003
9.050425e+002, 3.764913e+003
9.055247e+002, 3.769573e+003
9.060068e+002, 3.773762e+003
9.064889e+002, 3.772576e+003
9.069710e+002, 3.769318e+003
9.074531e+002, 3.767564e+003
9.079352e+002, 3.768073e+003
9.084174e+002, 3.769730e+003
9.088995e+002, 3.773837e+003
9.093816e+002, 3.777345e+003
9.098637e+002, 3.777760e+003
9.103458e+002, 3.775104e+003
9.108279e+002, 3.774938e+003
9.113101e+002, 3.777262e+003
9.117922e+002, 3.781397e+003
9.122743e+002, 3.789634e+003
9.127564e+002, 3.797495e+003
9.132385e+002, 3.798183e+003
9.137206e+002, 3.792776e+003
9.142028e+002, 3.790610e+003
9.146849e+002, 3.797132e+003
9.151670e+002, 3.804458e+003
9.156491e+002, 3.811335e+003
9.161312e+002, 3.817068e+003
9.166133e+002, 3.817843e+003
9.170955e+002, 3.813601e+003
9.175776e+002, 3.810583e+003
9.180597e+002, 3.811710e+003
9.185418e+002, 3.814282e+003
9.190239e+002, 3.815621e+003
9.195060e+002, 3.815811e+003
9.199882e+002, 3.814988e+003
9.204703e+002, 3.810026e+003
9.209524e+002, 3.808288e+003
9.214345e+002, 3.812796e+003
9.219166e+002, 3.819373e+003
9.223987e+002, 3.822776e+003
9.228809e+002, 3.822741e+003
9.233630e+002, 3.822884e+003
9.238451e+002, 3.823525e+003
9.243272e+002, 3.824667e+003
9.248093e+002, 3.826348e+003
9.252914e+002, 3.828521e+003
9.257736e+002, 3.831548e+003
9.262557e+002, 3.835892e+003
9.267378e+002, 3.838601e+003
9.272199e+002, 3.837358e+003
9.277020e+002, 3.835668e+003
9.281841e+002, 3.835077e+003
9.286663e+002, 3.835620e+003
9.291484e+002, 3.837111e+003
9.296305e+002, 3.839531e+003
9.301126e+002, 3.843941e+003
9.305947e+002, 3.852319e+003
9.310768e+002, 3.862290e+003
9.315590e+002, 3.869758e+003
9.320411e+002, 3.875846e+003
9.325232e+002, 3.884854e+003
9.330053e+002, 3.904953e+003
9.334874e+002, 3.919884e+003
9.339695e+002, 3.923294e+003
9.344517e+002, 3.920255e+003
9.349338e+002, 3.923777e+003
9.354159e+002, 3.933995e+003
9.358980e+002, 3.943382e+003
9.363801e+002, 3.949506e+003
9.368622e+002, 3.954771e+003
9.373444e+002, 3.960833e+003
9.378265e+002, 3.968173e+003
9.383086e+002, 3.977566e+003
9.387907e+002, 3.988984e+003
9.392728e+002, 4.002969e+003
9.397549e+002, 4.022251e+003
9.402371e+002, 4.041173e+003
9.407192e+002, 4.054551e+003
9.412013e+002, 4.062048e+003
9.416834e+002, 4.073286e+003
9.421655e+002, 4.088695e+003
9.426476e+002, 4.104053e+003
9.431298e+002, 4.116208e+003
9.436119e+002, 4.125934e+003
9.440940e+002, 4.133277e+003
9.445761e+002, 4.138493e+003
9.450582e+002, 4.145146e+003
9.455403e+002, 4.158064e+003
9.460225e+002, 4.167505e+003
9.465046e+002, 4.169438e+003
9.469867e+002, 4.165762e+003
9.474688e+002, 4.163616e+003
9.479509e+002, 4.163039e+003
9.484330e+002, 4.164296e+003
9.489152e+002, 4.169734e+003
9.493973e+002, 4.173999e+003
9.498794e+002, 4.171938e+003
9.503615e+002, 4.165027e+003
9.508436e+002, 4.155845e+003
9.513257e+002, 4.144152e+003
9.518079e+002, 4.131440e+003
9.522900e+002, 4.117771e+003
9.527721e+002, 4.103205e+003
9.532542e+002, 4.086766e+003
9.537363e+002, 4.069056e+003
9.542184e+002, 4.055886e+003
9.547006e+002, 4.048379e+003
9.551827e+002, 4.039017e+003
9.556648e+002, 4.017239e+003
9.561469e+002, 3.993813e+003
9.566290e+002, 3.979347e+003
9.571111e+002, 3.976130e+003
9.575933e+002, 3.970368e+003
9.580754e+002, 3.960631e+003
9.585575e+002, 3.950104e+003
9.590396e+002, 3.939988e+003
9.595217e+002, 3.930458e+003
9.600038e+002, 3.922625e+003
9.604860e+002, 3.916050e+003
9.609681e+002, 3.908425e+003
9.614502e+002, 3.895278e+003
9.619323e+002, 3.884076e+003
9.624144e+002, 3.881003e+003
9.628965e+002, 3.882816e+003
9.633787e+002, 3.882411e+003
9.638608e+002, 3.879053e+003
9.643429e+002, 3.874022e+003
9.648250e+002, 3.866395e+003
9.653071e+002, 3.859544e+003
9.657892e+002, 3.858702e+003
9.662714e+002, 3.862247e+003
9.667535e+002, 3.866718e+003
9.672356e+002, 3.871756e+003
9.677177e+002, 3.875590e+003
9.681998e+002, 3.875746e+003
9.686819e+002, 3.875493e+003
9.691641e+002, 3.877671e+003
9.696462e+002, 3.882678e+003
9.701283e+002, 3.883993e+003
9.706104e+002, 3.880708e+003
9.710925e+002, 3.878866e+003
9.715746e+002, 3.883304e+003
9.720568e+002, 3.890718e+003
9.725389e+002, 3.895828e+003
9.730210e+002, 3.898808e+003
9.735031e+002, 3.900079e+003
9.739852e+002, 3.898632e+003
9.744673e+002, 3.896874e+003
9.749495e+002, 3.894651e+003
9.754316e+002, 3.893031e+003
9.759137e+002, 3.894428e+003
9.763958e+002, 3.899079e+003
9.768779e+002, 3.902909e+003
9.773600e+002, 3.905271e+003
9.778422e+002, 3.906622e+003
9.783243e+002, 3.907062e+003
9.788064e+002, 3.907058e+003
9.792885e+002, 3.907465e+003
9.797706e+002, 3.908866e+003
9.802527e+002, 3.908296e+003
9.807349e+002, 3.902868e+003
9.812170e+002, 3.898704e+003
9.816991e+002, 3.899849e+003
9.821812e+002, 3.905340e+003
9.826633e+002, 3.908325e+003
9.831454e+002, 3.908812e+003
9.836276e+002, 3.907325e+003
9.841097e+002, 3.903227e+003
9.845918e+002, 3.898035e+003
9.850739e+002, 3.891103e+003
9.855560e+002, 3.884031e+003
9.860381e+002, 3.881740e+003
9.865203e+002, 3.888229e+003
9.870024e+002, 3.891228e+003
9.874845e+002, 3.888557e+003
9.879666e+002, 3.883195e+003
9.884487e+002, 3.879173e+003
9.889308e+002, 3.876074e+003
9.894130e+002, 3.872086e+003
9.898951e+002, 3.866649e+003
9.903772e+002, 3.862749e+003
9.908593e+002, 3.863864e+003
9.913414e+002, 3.865844e+003
9.918235e+002, 3.865128e+003
9.923057e+002, 3.861434e+003
9.927878e+002, 3.860968e+003
9.932699e+002, 3.864205e+003
9.937520e+002, 3.867617e+003
9.942341e+002, 3.869206e+003
9.947162e+002, 3.869842e+003
9.951984e+002, 3.871085e+003
9.956805e+002, 3.872610e+003
9.961626e+002, 3.873536e+003
9.966447e+002, 3.873266e+003
9.971268e+002, 3.872624e+003
9.976089e+002, 3.871040e+003
9.980911e+002, 3.869789e+003
9.985732e+002, 3.870799e+003
9.990553e+002, 3.874048e+003
9.995374e+002, 3.878370e+003
1.000020e+003, 3.883821e+003
1.000502e+003, 3.887791e+003
1.000984e+003, 3.887485e+003
1.001466e+003, 3.884675e+003
1.001948e+003, 3.879647e+003
1.002430e+003, 3.871990e+003
1.002912e+003, 3.870384e+003
1.003394e+003, 3.879837e+003
1.003876e+003, 3.886084e+003
1.004359e+003, 3.881380e+003
1.004841e+003, 3.870407e+003
1.005323e+003, 3.868363e+003
1.005805e+003, 3.873222e+003
1.006287e+003, 3.876734e+003
1.006769e+003, 3.873844e+003
1.007251e+003, 3.870680e+003
1.007733e+003, 3.871885e+003
1.008216e+003, 3.873987e+003
1.008698e+003, 3.871960e+003
1.009180e+003, 3.864238e+003
1.009662e+003, 3.857607e+003
1.010144e+003, 3.852004e+003
1.010626e+003, 3.849455e+003
1.011108e+003, 3.855012e+003
1.011590e+003, 3.863474e+003
1.012072e+003, 3.866511e+003
1.012555e+003, 3.863810e+003
1.013037e+003, 3.861189e+003
1.013519e+003, 3.859014e+003
1.014001e+003, 3.859449e+003
1.014483e+003, 3.864938e+003
1.014965e+003, 3.872822e+003
1.015447e+003, 3.872842e+003
1.015929e+003, 3.865836e+003
1.016411e+003, 3.860520e+003
1.016894e+003, 3.859732e+003
1.017376e+003, 3.861601e+003
1.017858e+003, 3.867548e+003
1.018340e+003, 3.873795e+003
1.018822e+003, 3.875063e+003
1.019304e+003, 3.867174e+003
1.019786e+003, 3.863970e+003
1.020268e+003, 3.867017e+003
1.020751e+003, 3.870711e+003
1.021233e+003, 3.870397e+003
1.021715e+003, 3.867524e+003
1.022197e+003, 3.865570e+003
1.022679e+003, 3.864590e+003
1.023161e+003, 3.864438e+003
1.023643e+003, 3.865289e+003
1.024125e+003, 3.866648e+003
1.024607e+003, 3.868271e+003
1.025090e+003, 3.870225e+003
1.025572e+003, 3.872643e+003
1.026054e+003, 3.875490e+003
1.026536e+003, 3.879375e+003
1.027018e+003, 3.884635e+003
1.027500e+003, 3.889918e+003
1.027982e+003, 3.893058e+003
1.028464e+003, 3.895794e+003
1.028947e+003, 3.900628e+003
1.029429e+003, 3.908668e+003
1.029911e+003, 3.914594e+003
1.030393e+003, 3.917153e+003
1.030875e+003, 3.919646e+003
1.031357e+003, 3.924298e+003
1.031839e+003, 3.930010e+003
1.032321e+003, 3.931428e+003
1.032803e+003, 3.929956e+003
1.033286e+003, 3.931461e+003
1.033768e+003, 3.941509e+003
1.034250e+003, 3.952126e+003
1.034732e+003, 3.960587e+003
1.035214e+003, 3.967187e+003
1.035696e+003, 3.971619e+003
1.036178e+003, 3.972711e+003
1.036660e+003, 3.979059e+003
1.037143e+003, 3.992139e+003
1.037625e+003, 4.004619e+003
1.038107e+003, 4.007859e+003
1.038589e+003, 4.007914e+003
1.039071e+003, 4.012919e+003
1.039553e+003, 4.023073e+003
1.040035e+003, 4.031055e+003
1.040517e+003, 4.032589e+003
1.041000e+003, 4.036127e+003
1.041482e+003, 4.044590e+003
1.041964e+003, 4.055814e+003
1.042446e+003, 4.066119e+003
1.042928e+003, 4.074741e+003
1.043410e+003, 4.077115e+003
1.043892e+003, 4.069393e+003
1.044374e+003, 4.062895e+003
1.044856e+003, 4.068311e+003
1.045339e+003, 4.075462e+003
1.045821e+003, 4.074468e+003
1.046303e+003, 4.063670e+003
1.046785e+003, 4.056635e+003
1.047267e+003, 4.053517e+003
1.047749e+003, 4.052926e+003
1.048231e+003, 4.057714e+003
1.048713e+003, 4.061912e+003
1.049195e+003, 4.056792e+003
1.049677e+003, 4.044561e+003
1.050160e+003, 4.031831e+003
1.050642e+003, 4.018894e+003
1.051124e+003, 4.007885e+003
1.051606e+003, 3.999597e+003
1.052088e+003, 3.992381e+003
1.052570e+003, 3.984663e+003
1.053052e+003, 3.976184e+003
1.053534e+003, 3.965631e+003
1.054017e+003, 3.952742e+003
1.054499e+003, 3.941220e+003
1.054981e+003, 3.935004e+003
1.055463e+003, 3.929370e+003
1.055945e+003, 3.920516e+003
1.056427e+003, 3.909421e+003
1.056909e+003, 3.902824e+003
1.057391e+003, 3.901211e+003
1.057874e+003, 3.899039e+003
1.058356e+003, 3.894635e+003
1.058838e+003, 3.888498e+003
1.059320e+003, 3.879273e+003
1.059802e+003, 3.869561e+003
1.060284e+003, 3.862976e+003
1.060766e+003, 3.862048e+003
1.061248e+003, 3.860210e+003
1.061730e+003, 3.856427e+003
1.062213e+003, 3.853271e+003
1.062695e+003, 3.853996e+003
1.063177e+003, 3.856689e+003
1.063659e+003, 3.852678e+003
1.064141e+003, 3.843644e+003
1.064623e+003, 3.837808e+003
1.065105e+003, 3.843403e+003
1.065587e+003, 3.848204e+003
1.066070e+003, 3.845752e+003
1.066552e+003, 3.840446e+003
1.067034e+003, 3.838963e+003
1.067516e+003, 3.841421e+003
1.067998e+003, 3.843255e+003
1.068480e+003, 3.843924e+003
1.068962e+003, 3.843906e+003
1.069444e+003, 3.844158e+003
1.069927e+003, 3.843570e+003
1.070409e+003, 3.840484e+003
1.070891e+003, 3.834923e+003
1.071373e+003, 3.830792e+003
1.071855e+003, 3.827715e+003
1.072337e+003, 3.828019e+003
1.072819e+003, 3.834187e+003
1.073301e+003, 3.841294e+003
1.073783e+003, 3.838641e+003
1.074266e+003, 3.830554e+003
1.074748e+003, 3.826580e+003
1.075230e+003, 3.831481e+003
1.075712e+003, 3.834284e+003
1.076194e+003, 3.829246e+003
1.076676e+003, 3.824532e+003
1.077158e+003, 3.825824e+003
1.077640e+003, 3.832270e+003
1.078122e+003, 3.834116e+003
1.078604e+003, 3.832067e+003
1.079087e+003, 3.832195e+003
1.079569e+003, 3.843978e+003
1.080051e+003, 3.852544e+003
1.080533e+003, 3.843632e+003
1.081015e+003, 3.827409e+003
1.081497e+003, 3.823295e+003
1.081979e+003, 3.835267e+003
1.082461e+003, 3.840328e+003
1.082944e+003, 3.835872e+003
1.083426e+003, 3.830637e+003
1.083908e+003, 3.834393e+003
1.084390e+003, 3.841224e+003
1.084872e+003, 3.843789e+003
1.085354e+003, 3.842042e+003
1.085836e+003, 3.841263e+003
1.086318e+003, 3.842494e+003
1.086801e+003, 3.844409e+003
1.087283e+003, 3.847081e+003
1.087765e+003, 3.849727e+003
1.088247e+003, 3.851167e+003
1.088729e+003, 3.851381e+003
1.089211e+003, 3.849603e+003
1.089693e+003, 3.844826e+003
1.090175e+003, 3.842513e+003
1.090657e+003, 3.848355e+003
1.091140e+003, 3.853905e+003
1.091622e+003, 3.853968e+003
1.092104e+003, 3.849472e+003
1.092586e+003, 3.848527e+003
1.093068e+003, 3.850792e+003
1.093550e+003, 3.852229e+003
1.094032e+003, 3.850918e+003
1.094514e+003, 3.848376e+003
1.094997e+003, 3.843421e+003
1.095479e+003, 3.839045e+003
1.095961e+003, 3.839504e+003
1.096443e+003, 3.846552e+003
1.096925e+003, 3.853050e+003
1.097407e+003, 3.859320e+003
1.097889e+003, 3.862964e+003
1.098371e+003, 3.858761e+003
1.098854e+003, 3.853113e+003
1.099336e+003, 3.856016e+003
1.099818e+003, 3.865018e+003
1.100300e+003, 3.869866e+003
1.100782e+003, 3.865862e+003
1.101264e+003, 3.861478e+003
1.101746e+003, 3.857206e+003
1.102228e+003, 3.853986e+003
1.102710e+003, 3.852880e+003
1.103193e+003, 3.853915e+003
1.103675e+003, 3.858708e+003
1.104157e+003, 3.867417e+003
1.104639e+003, 3.872217e+003
1.105121e+003, 3.866629e+003
1.105603e+003, 3.859827e+003
1.106085e+003, 3.855031e+003
1.106567e+003, 3.851792e+003
1.107049e+003, 3.848047e+003
1.107531e+003, 3.844215e+003
1.108014e+003, 3.844563e+003
1.108496e+003, 3.851616e+003
1.108978e+003, 3.858009e+003
1.109460e+003, 3.857827e+003
1.109942e+003, 3.855108e+003
1.110424e+003, 3.853435e+003
1.110906e+003, 3.852961e+003
1.111388e+003, 3.850633e+003
1.111871e+003, 3.846262e+003
1.112353e+003, 3.842689e+003
1.112835e+003, 3.842144e+003
1.113317e+003, 3.842111e+003
1.113799e+003, 3.838675e+003
1.114281e+003, 3.834294e+003
1.114763e+003, 3.833215e+003
1.115245e+003, 3.838996e+003
1.115728e+003, 3.842278e+003
1.116210e+003, 3.842925e+003
1.116692e+003, 3.841697e+003
1.117174e+003, 3.838326e+003
1.117656e+003, 3.833967e+003
1.118138e+003, 3.829660e+003
1.118620e+003, 3.826047e+003
1.119102e+003, 3.825454e+003
1.119584e+003, 3.833748e+003
1.120067e+003, 3.837382e+003
1.120549e+003, 3.831803e+003
1.121031e+003, 3.824545e+003
1.121513e+003, 3.828210e+003
1.121995e+003, 3.838647e+003
1.122477e+003, 3.840807e+003
1.122959e+003, 3.833397e+003
1.123441e+003, 3.825301e+003
1.123924e+003, 3.819452e+003
1.124406e+003, 3.816045e+003
1.124888e+003, 3.815758e+003
1.125370e+003, 3.817448e+003
1.125852e+003, 3.817892e+003
1.126334e+003, 3.817282e+003
1.126816e+003, 3.817597e+003
1.127298e+003, 3.819644e+003
1.127781e+003, 3.821223e+003
1.128263e+003, 3.822309e+003
1.128745e+003, 3.821016e+003
1.129227e+003, 3.813668e+003
1.129709e+003, 3.800850e+003
1.130191e+003, 3.796922e+003
1.130673e+003, 3.802469e+003
1.131155e+003, 3.807031e+003
1.131637e+003, 3.805500e+003
1.132120e+003, 3.802722e+003
1.132602e+003, 3.804027e+003
1.133084e+003, 3.807189e+003
1.133566e+003, 3.809021e+003
1.134048e+003, 3.808668e+003
1.134530e+003, 3.808638e+003
1.135012e+003, 3.809180e+003
1.135494e+003, 3.808852e+003
1.135976e+003, 3.804739e+003
1.136458e+003, 3.800471e+003
1.136941e+003, 3.803498e+003
1.137423e+003, 3.811020e+003
1.137905e+003, 3.816179e+003
1.138387e+003, 3.814681e+003
1.138869e+003, 3.814362e+003
1.139351e+003, 3.815832e+003
1.139833e+003, 3.818015e+003
1.140315e+003, 3.820471e+003
1.140798e+003, 3.822621e+003
1.141280e+003, 3.823055e+003
1.141762e+003, 3.821802e+003
1.142244e+003, 3.819505e+003
1.142726e+003, 3.813336e+003
1.143208e+003, 3.810565e+003
1.143690e+003, 3.814454e+003
1.144172e+003, 3.820212e+003
1.144655e+003, 3.819937e+003
1.145137e+003, 3.815136e+003
1.145619e+003, 3.812127e+003
1.146101e+003, 3.811758e+003
1.146583e+003, 3.810582e+003
1.147065e+003, 3.803410e+003
1.147547e+003, 3.798918e+003
1.148029e+003, 3.802692e+003
1.148511e+003, 3.811099e+003
1.148994e+003, 3.813163e+003
1.149476e+003, 3.809628e+003
1.149958e+003, 3.806943e+003
1.150440e+003, 3.806500e+003
1.150922e+003, 3.807450e+003
1.151404e+003, 3.809843e+003
1.151886e+003, 3.812780e+003
1.152368e+003, 3.815644e+003
1.152851e+003, 3.818363e+003
1.153333e+003, 3.820747e+003
1.153815e+003, 3.822739e+003
1.154297e+003, 3.824789e+003
1.154779e+003, 3.827188e+003
1.155261e+003, 3.829285e+003
1.155743e+003, 3.829636e+003
1.156225e+003, 3.829749e+003
1.156708e+003, 3.831957e+003
1.157190e+003, 3.837017e+003
1.157672e+003, 3.838489e+003
1.158154e+003, 3.836016e+003
1.158636e+003, 3.833355e+003
1.159118e+003, 3.834353e+003
1.159600e+003, 3.834429e+003
1.160082e+003, 3.824928e+003
1.160564e+003, 3.812055e+003
1.161047e+003, 3.807137e+003
1.161529e+003, 3.816512e+003
1.162011e+003, 3.822200e+003
1.162493e+003, 3.823711e+003
1.162975e+003, 3.823624e+003
1.163457e+003, 3.823492e+003
1.163939e+003, 3.823259e+003
1.164421e+003, 3.822211e+003
1.164903e+003, 3.820952e+003
1.165385e+003, 3.821457e+003
1.165868e+003, 3.827034e+003
1.166350e+003, 3.828259e+003
1.166832e+003, 3.823021e+003
1.167314e+003, 3.817050e+003
1.167796e+003, 3.817179e+003
1.168278e+003, 3.820322e+003
1.168760e+003, 3.820852e+003
1.169242e+003, 3.818951e+003
1.169725e+003, 3.817961e+003
1.170207e+003, 3.819731e+003
1.170689e+003, 3.821507e+003
1.171171e+003, 3.823325e+003
1.171653e+003, 3.824231e+003
1.172135e+003, 3.821269e+003
1.172617e+003, 3.816797e+003
1.173099e+003, 3.816757e+003
1.173582e+003, 3.821712e+003
1.174064e+003, 3.825956e+003
1.174546e+003, 3.826579e+003
1.175028e+003, 3.827236e+003
1.175510e+003, 3.828935e+003
1.175992e+003, 3.830995e+003
1.176474e+003, 3.832091e+003
1.176956e+003, 3.832385e+003
1.177438e+003, 3.832232e+003
1.177921e+003, 3.831625e+003
1.178403e+003, 3.831250e+003
1.178885e+003, 3.831841e+003
1.179367e+003, 3.832216e+003
1.179849e+003, 3.831774e+003
1.180331e+003, 3.830913e+003
1.180813e+003, 3.831186e+003
1.181295e+003, 3.832148e+003
1.181778e+003, 3.831538e+003
1.182260e+003, 3.827625e+003
1.182742e+003, 3.826260e+003
1.183224e+003, 3.834318e+003
1.183706e+003, 3.841243e+003
1.184188e+003, 3.839827e+003
1.184670e+003, 3.832425e+003
1.185152e+003, 3.833201e+003
1.185635e+003, 3.840476e+003
1.186117e+003, 3.845607e+003
1.186599e+003, 3.844176e+003
1.187081e+003, 3.842333e+003
1.187563e+003, 3.844513e+003
1.188045e+003, 3.846062e+003
1.188527e+003, 3.842490e+003
1.189009e+003, 3.834534e+003
1.189491e+003, 3.831687e+003
1.189974e+003, 3.833515e+003
1.190456e+003, 3.836862e+003
1.190938e+003, 3.841431e+003
1.191420e+003, 3.845425e+003
1.191902e+003, 3.848009e+003
1.192384e+003, 3.849542e+003
1.192866e+003, 3.850470e+003
1.193348e+003, 3.850800e+003
1.193830e+003, 3.850070e+003
1.194313e+003, 3.848301e+003
1.194795e+003, 3.845826e+003
1.195277e+003, 3.842013e+003
1.195759e+003, 3.838442e+003
1.196241e+003, 3.835968e+003
1.196723e+003, 3.834290e+003
1.197205e+003, 3.833001e+003
1.197687e+003, 3.832109e+003
1.198169e+003, 3.832326e+003
1.198652e+003, 3.833668e+003
1.199134e+003, 3.835061e+003
1.199616e+003, 3.835968e+003
1.200098e+003, 3.836549e+003
1.200580e+003, 3.836018e+003
1.201062e+003, 3.835688e+003
1.201544e+003, 3.838660e+003
1.202026e+003, 3.845144e+003
1.202509e+003, 3.846190e+003
1.202991e+003, 3.840957e+003
1.203473e+003, 3.836349e+003
1.203955e+003, 3.835632e+003
1.204437e+003, 3.838843e+003
1.204919e+003, 3.850214e+003
1.205401e+003, 3.864246e+003
1.205883e+003, 3.868423e+003
1.206365e+003, 3.862536e+003
1.206848e+003, 3.855266e+003
1.207330e+003, 3.847493e+003
1.207812e+003, 3.842388e+003
1.208294e+003, 3.845270e+003
1.208776e+003, 3.848912e+003
1.209258e+003, 3.846900e+003
1.209740e+003, 3.841826e+003
1.210222e+003, 3.842101e+003
1.210705e+003, 3.847844e+003
1.211187e+003, 3.848920e+003
1.211669e+003, 3.842969e+003
1.212151e+003, 3.837935e+003
1.212633e+003, 3.842052e+003
1.213115e+003, 3.847938e+003
1.213597e+003, 3.850321e+003
1.214079e+003, 3.849896e+003
1.214562e+003, 3.849324e+003
1.215044e+003, 3.848584e+003
1.215526e+003, 3.845494e+003
1.216008e+003, 3.838748e+003
1.216490e+003, 3.833881e+003
1.216972e+003, 3.837537e+003
1.217454e+003, 3.842688e+003
1.217936e+003, 3.842796e+003
1.218418e+003, 3.839440e+003
1.218901e+003, 3.842487e+003
1.219383e+003, 3.851523e+003
1.219865e+003, 3.857905e+003
1.220347e+003, 3.859051e+003
1.220829e+003, 3.857382e+003
1.221311e+003, 3.853067e+003
1.221793e+003, 3.847983e+003
1.222275e+003, 3.842667e+003
1.222757e+003, 3.837664e+003
1.223240e+003, 3.837597e+003
1.223722e+003, 3.842097e+003
1.224204e+003, 3.846234e+003
1.224686e+003, 3.848982e+003
1.225168e+003, 3.849335e+003
1.225650e+003, 3.844277e+003
1.226132e+003, 3.838711e+003
1.226614e+003, 3.836181e+003
1.227096e+003, 3.836556e+003
1.227579e+003, 3.839300e+003
1.228061e+003, 3.844052e+003
1.228543e+003, 3.847836e+003
1.229025e+003, 3.850381e+003
1.229507e+003, 3.849515e+003
1.229989e+003, 3.838004e+003
1.230471e+003, 3.827881e+003
1.230953e+003, 3.829337e+003
1.231436e+003, 3.840818e+003
1.231918e+003, 3.849194e+003
1.232400e+003, 3.854412e+003
1.232882e+003, 3.855838e+003
1.233364e+003, 3.850830e+003
1.233846e+003, 3.846593e+003
1.234328e+003, 3.847090e+003
1.234810e+003, 3.849361e+003
1.235292e+003, 3.851163e+003
1.235775e+003, 3.852774e+003
1.236257e+003, 3.858032e+003
1.236739e+003, 3.865719e+003
1.237221e+003, 3.869328e+003
1.237703e+003, 3.864079e+003
1.238185e+003, 3.857409e+003
1.238667e+003, 3.848788e+003
1.239149e+003, 3.843270e+003
1.239632e+003, 3.847355e+003
1.240114e+003, 3.858195e+003
1.240596e+003, 3.857570e+003
1.241078e+003, 3.847897e+003
1.241560e+003, 3.839369e+003
1.242042e+003, 3.835388e+003
1.242524e+003, 3.835184e+003
1.243006e+003, 3.839863e+003
1.243489e+003, 3.846267e+003
1.243971e+003, 3.852919e+003
1.244453e+003, 3.859238e+003
1.244935e+003, 3.862328e+003
1.245417e+003, 3.862680e+003
1.245899e+003, 3.862035e+003
1.246381e+003, 3.859134e+003
1.246863e+003, 3.858550e+003
1.247345e+003, 3.862268e+003
1.247828e+003, 3.865756e+003
1.248310e+003, 3.865131e+003
1.248792e+003, 3.861323e+003
1.249274e+003, 3.853917e+003
1.249756e+003, 3.845266e+003
1.250238e+003, 3.843038e+003
1.250720e+003, 3.858833e+003
1.251202e+003, 3.867199e+003
1.251684e+003, 3.864270e+003
1.252167e+003, 3.858504e+003
1.252649e+003, 3.856660e+003
1.253131e+003, 3.857353e+003
1.253613e+003, 3.858165e+003
1.254095e+003, 3.859105e+003
1.254577e+003, 3.860483e+003
1.255059e+003, 3.862814e+003
1.255541e+003, 3.864478e+003
1.256023e+003, 3.865060e+003
1.256506e+003, 3.865990e+003
1.256988e+003, 3.870870e+003
1.257470e+003, 3.875288e+003
1.257952e+003, 3.871157e+003
1.258434e+003, 3.861369e+003
1.258916e+003, 3.854882e+003
1.259398e+003, 3.853280e+003
1.259880e+003, 3.853735e+003
1.260363e+003, 3.856509e+003
1.260845e+003, 3.859023e+003
1.261327e+003, 3.858200e+003
1.261809e+003, 3.856782e+003
1.262291e+003, 3.858625e+003
1.262773e+003, 3.861951e+003
1.263255e+003, 3.861967e+003
1.263737e+003, 3.858056e+003
1.264219e+003, 3.852058e+003
1.264702e+003, 3.843738e+003
1.265184e+003, 3.838480e+003
1.265666e+003, 3.842931e+003
1.266148e+003, 3.849616e+003
1.266630e+003, 3.852800e+003
1.267112e+003, 3.854036e+003
1.267594e+003, 3.857687e+003
1.268076e+003, 3.864286e+003
1.268559e+003, 3.864223e+003
1.269041e+003, 3.856961e+003
1.269523e+003, 3.850927e+003
1.270005e+003, 3.854190e+003
1.270487e+003, 3.857852e+003
1.270969e+003, 3.855138e+003
1.271451e+003, 3.850614e+003
1.271933e+003, 3.851049e+003
1.272416e+003, 3.855938e+003
1.272898e+003, 3.858266e+003
1.273380e+003, 3.857901e+003
1.273862e+003, 3.859176e+003
1.274344e+003, 3.869092e+003
1.274826e+003, 3.875121e+003
1.275308e+003, 3.871195e+003
1.275790e+003, 3.863675e+003
1.276272e+003, 3.859754e+003
1.276755e+003, 3.859068e+003
1.277237e+003, 3.861836e+003
1.277719e+003, 3.867155e+003
1.278201e+003, 3.869245e+003
1.278683e+003, 3.859731e+003
1.279165e+003, 3.855518e+003
1.279647e+003, 3.861398e+003
1.280129e+003, 3.869870e+003
1.280611e+003, 3.873300e+003
1.281094e+003, 3.872861e+003
1.281576e+003, 3.869870e+003
1.282058e+003, 3.865104e+003
1.282540e+003, 3.861788e+003
1.283022e+003, 3.859926e+003
1.283504e+003, 3.861852e+003
1.283986e+003, 3.869053e+003
1.284468e+003, 3.875635e+003
1.284950e+003, 3.875286e+003
1.285433e+003, 3.871100e+003
1.285915e+003, 3.864832e+003
1.286397e+003, 3.858209e+003
1.286879e+003, 3.857509e+003
1.287361e+003, 3.864880e+003
1.287843e+003, 3.870731e+003
1.288325e+003, 3.874269e+003
1.288807e+003, 3.875873e+003
1.289290e+003, 3.874977e+003
1.289772e+003, 3.873134e+003
1.290254e+003, 3.871757e+003
1.290736e+003, 3.870410e+003
1.291218e+003, 3.867090e+003
1.291700e+003, 3.861215e+003
1.292182e+003, 3.861612e+003
1.292664e+003, 3.868817e+003
1.293146e+003, 3.878300e+003
1.293629e+003, 3.892516e+003
1.294111e+003, 3.901858e+003
1.294593e+003, 3.895868e+003
1.295075e+003, 3.884903e+003
1.295557e+003, 3.881058e+003
1.296039e+003, 3.883733e+003
1.296521e+003, 3.889325e+003
1.297003e+003, 3.897052e+003
1.297486e+003, 3.902954e+003
1.297968e+003, 3.906892e+003
1.298450e+003, 3.906252e+003
1.298932e+003, 3.900196e+003
1.299414e+003, 3.891011e+003
1.299896e+003, 3.879499e+003
1.300378e+003, 3.867408e+003
1.300860e+003, 3.858627e+003
1.301343e+003, 3.853901e+003
1.301825e+003, 3.854450e+003
##END=



