##NAMES=Wiserite
##RRUFFID=R130122
##IDEAL CHEMISTRY=Mn^2+^_14_(B_2_O_5_)_4_(OH)_8_&#183;(Si,Mg)(O,OH)_4_Cl
##LOCALITY=Kombat mine, Namibia
##OWNER=RRUFF
##SOURCE=Rock Currier
##DESCRIPTION=Light brown prismatic to needles, associated with black hausmannite and white barite
##STATUS=The identification of this mineral has been confirmed by single-crystal X-ray diffraction.
##URL=rruff.info/R130122
8.975323e+001, 0.000000e+000
9.023535e+001, 3.615610e+002
9.071747e+001, 3.627962e+002
9.119958e+001, 3.618567e+002
9.168170e+001, 3.644379e+002
9.216382e+001, 3.639026e+002
9.264594e+001, 3.594915e+002
9.312805e+001, 3.526448e+002
9.361017e+001, 3.448255e+002
9.409229e+001, 3.361236e+002
9.457440e+001, 3.255525e+002
9.505651e+001, 3.157637e+002
9.553863e+001, 3.069107e+002
9.602074e+001, 2.989012e+002
9.650286e+001, 2.916273e+002
9.698498e+001, 2.848261e+002
9.746709e+001, 2.780259e+002
9.794921e+001, 2.722814e+002
9.843133e+001, 2.679569e+002
9.891344e+001, 2.639519e+002
9.939556e+001, 2.599171e+002
9.987768e+001, 2.558827e+002
1.003598e+002, 2.520219e+002
1.008419e+002, 2.482701e+002
1.013240e+002, 2.448429e+002
1.018061e+002, 2.422344e+002
1.022883e+002, 2.407856e+002
1.027704e+002, 2.398592e+002
1.032525e+002, 2.389456e+002
1.037346e+002, 2.380347e+002
1.042167e+002, 2.371013e+002
1.046988e+002, 2.362450e+002
1.051810e+002, 2.352919e+002
1.056631e+002, 2.339187e+002
1.061452e+002, 2.317768e+002
1.066273e+002, 2.290588e+002
1.071094e+002, 2.265486e+002
1.075915e+002, 2.242440e+002
1.080737e+002, 2.221707e+002
1.085558e+002, 2.203641e+002
1.090379e+002, 2.187697e+002
1.095200e+002, 2.172790e+002
1.100021e+002, 2.157083e+002
1.104842e+002, 2.139286e+002
1.109664e+002, 2.128057e+002
1.114485e+002, 2.129519e+002
1.119306e+002, 2.131977e+002
1.124127e+002, 2.129497e+002
1.128948e+002, 2.121540e+002
1.133769e+002, 2.111833e+002
1.138591e+002, 2.105942e+002
1.143412e+002, 2.107840e+002
1.148233e+002, 2.106318e+002
1.153054e+002, 2.099458e+002
1.157875e+002, 2.090216e+002
1.162696e+002, 2.081133e+002
1.167517e+002, 2.073033e+002
1.172339e+002, 2.065807e+002
1.177160e+002, 2.059341e+002
1.181981e+002, 2.053133e+002
1.186802e+002, 2.048208e+002
1.191623e+002, 2.045333e+002
1.196444e+002, 2.044029e+002
1.201266e+002, 2.042916e+002
1.206087e+002, 2.041143e+002
1.210908e+002, 2.039472e+002
1.215729e+002, 2.039575e+002
1.220550e+002, 2.042916e+002
1.225371e+002, 2.045509e+002
1.230193e+002, 2.043137e+002
1.235014e+002, 2.035211e+002
1.239835e+002, 2.027308e+002
1.244656e+002, 2.022412e+002
1.249477e+002, 2.018830e+002
1.254298e+002, 2.014904e+002
1.259120e+002, 2.009586e+002
1.263941e+002, 2.004292e+002
1.268762e+002, 2.002849e+002
1.273583e+002, 2.008830e+002
1.278404e+002, 2.012666e+002
1.283225e+002, 2.012064e+002
1.288047e+002, 2.007908e+002
1.292868e+002, 2.001470e+002
1.297689e+002, 1.993659e+002
1.302510e+002, 1.984350e+002
1.307331e+002, 1.971515e+002
1.312152e+002, 1.949232e+002
1.316974e+002, 1.928851e+002
1.321795e+002, 1.911793e+002
1.326616e+002, 1.898843e+002
1.331437e+002, 1.891344e+002
1.336258e+002, 1.891135e+002
1.341079e+002, 1.900053e+002
1.345901e+002, 1.903999e+002
1.350722e+002, 1.900703e+002
1.355543e+002, 1.895361e+002
1.360364e+002, 1.890251e+002
1.365185e+002, 1.885854e+002
1.370006e+002, 1.882208e+002
1.374828e+002, 1.879419e+002
1.379649e+002, 1.877568e+002
1.384470e+002, 1.876635e+002
1.389291e+002, 1.880436e+002
1.394112e+002, 1.883692e+002
1.398933e+002, 1.878872e+002
1.403755e+002, 1.863144e+002
1.408576e+002, 1.844028e+002
1.413397e+002, 1.830984e+002
1.418218e+002, 1.823333e+002
1.423039e+002, 1.817492e+002
1.427860e+002, 1.812307e+002
1.432681e+002, 1.807844e+002
1.437503e+002, 1.804527e+002
1.442324e+002, 1.803524e+002
1.447145e+002, 1.802433e+002
1.451966e+002, 1.799189e+002
1.456787e+002, 1.793770e+002
1.461608e+002, 1.787400e+002
1.466430e+002, 1.781460e+002
1.471251e+002, 1.776166e+002
1.476072e+002, 1.769006e+002
1.480893e+002, 1.755393e+002
1.485714e+002, 1.742271e+002
1.490535e+002, 1.734171e+002
1.495357e+002, 1.731916e+002
1.500178e+002, 1.732014e+002
1.504999e+002, 1.729074e+002
1.509820e+002, 1.720749e+002
1.514641e+002, 1.714484e+002
1.519462e+002, 1.712032e+002
1.524284e+002, 1.710882e+002
1.529105e+002, 1.709035e+002
1.533926e+002, 1.705757e+002
1.538747e+002, 1.701712e+002
1.543568e+002, 1.698587e+002
1.548389e+002, 1.698152e+002
1.553211e+002, 1.696518e+002
1.558032e+002, 1.692530e+002
1.562853e+002, 1.687537e+002
1.567674e+002, 1.683017e+002
1.572495e+002, 1.679670e+002
1.577316e+002, 1.677454e+002
1.582138e+002, 1.676345e+002
1.586959e+002, 1.677253e+002
1.591780e+002, 1.678061e+002
1.596601e+002, 1.678051e+002
1.601422e+002, 1.677545e+002
1.606243e+002, 1.677314e+002
1.611065e+002, 1.677836e+002
1.615886e+002, 1.678972e+002
1.620707e+002, 1.679983e+002
1.625528e+002, 1.681263e+002
1.630349e+002, 1.682085e+002
1.635170e+002, 1.680831e+002
1.639991e+002, 1.677882e+002
1.644813e+002, 1.677236e+002
1.649634e+002, 1.682771e+002
1.654455e+002, 1.692174e+002
1.659276e+002, 1.699915e+002
1.664097e+002, 1.705714e+002
1.668918e+002, 1.709429e+002
1.673740e+002, 1.709883e+002
1.678561e+002, 1.706199e+002
1.683382e+002, 1.703419e+002
1.688203e+002, 1.705470e+002
1.693024e+002, 1.709950e+002
1.697845e+002, 1.714268e+002
1.702667e+002, 1.717871e+002
1.707488e+002, 1.720468e+002
1.712309e+002, 1.721064e+002
1.717130e+002, 1.718342e+002
1.721951e+002, 1.716003e+002
1.726772e+002, 1.715669e+002
1.731594e+002, 1.716524e+002
1.736415e+002, 1.717572e+002
1.741236e+002, 1.718538e+002
1.746057e+002, 1.719194e+002
1.750878e+002, 1.718000e+002
1.755699e+002, 1.713313e+002
1.760521e+002, 1.708460e+002
1.765342e+002, 1.702837e+002
1.770163e+002, 1.697754e+002
1.774984e+002, 1.695694e+002
1.779805e+002, 1.699046e+002
1.784626e+002, 1.707889e+002
1.789448e+002, 1.712644e+002
1.794269e+002, 1.709743e+002
1.799090e+002, 1.706313e+002
1.803911e+002, 1.703601e+002
1.808732e+002, 1.702015e+002
1.813553e+002, 1.701835e+002
1.818375e+002, 1.703342e+002
1.823196e+002, 1.706643e+002
1.828017e+002, 1.710816e+002
1.832838e+002, 1.716794e+002
1.837659e+002, 1.722595e+002
1.842480e+002, 1.728033e+002
1.847301e+002, 1.732669e+002
1.852123e+002, 1.734999e+002
1.856944e+002, 1.733005e+002
1.861765e+002, 1.725818e+002
1.866586e+002, 1.722116e+002
1.871407e+002, 1.723869e+002
1.876228e+002, 1.727545e+002
1.881050e+002, 1.730561e+002
1.885871e+002, 1.732642e+002
1.890692e+002, 1.735279e+002
1.895513e+002, 1.740974e+002
1.900334e+002, 1.749462e+002
1.905155e+002, 1.754124e+002
1.909977e+002, 1.751267e+002
1.914798e+002, 1.745596e+002
1.919619e+002, 1.742893e+002
1.924440e+002, 1.744359e+002
1.929261e+002, 1.745878e+002
1.934082e+002, 1.742301e+002
1.938904e+002, 1.735213e+002
1.943725e+002, 1.729355e+002
1.948546e+002, 1.726579e+002
1.953367e+002, 1.725921e+002
1.958188e+002, 1.725308e+002
1.963009e+002, 1.724108e+002
1.967831e+002, 1.724096e+002
1.972652e+002, 1.729694e+002
1.977473e+002, 1.738023e+002
1.982294e+002, 1.740980e+002
1.987115e+002, 1.729544e+002
1.991936e+002, 1.708050e+002
1.996758e+002, 1.695894e+002
2.001579e+002, 1.698887e+002
2.006400e+002, 1.704254e+002
2.011221e+002, 1.705396e+002
2.016042e+002, 1.703218e+002
2.020863e+002, 1.700246e+002
2.025685e+002, 1.699371e+002
2.030506e+002, 1.700184e+002
2.035327e+002, 1.695142e+002
2.040148e+002, 1.676336e+002
2.044969e+002, 1.659727e+002
2.049790e+002, 1.652950e+002
2.054612e+002, 1.653500e+002
2.059433e+002, 1.654587e+002
2.064254e+002, 1.650279e+002
2.069075e+002, 1.640150e+002
2.073896e+002, 1.632858e+002
2.078717e+002, 1.633844e+002
2.083539e+002, 1.632795e+002
2.088360e+002, 1.625248e+002
2.093181e+002, 1.612556e+002
2.098002e+002, 1.598747e+002
2.102823e+002, 1.586940e+002
2.107644e+002, 1.576973e+002
2.112466e+002, 1.571316e+002
2.117287e+002, 1.574420e+002
2.122108e+002, 1.577277e+002
2.126929e+002, 1.576819e+002
2.131750e+002, 1.572932e+002
2.136571e+002, 1.566458e+002
2.141393e+002, 1.557581e+002
2.146214e+002, 1.545258e+002
2.151035e+002, 1.538466e+002
2.155856e+002, 1.542100e+002
2.160677e+002, 1.545618e+002
2.165498e+002, 1.543029e+002
2.170320e+002, 1.534921e+002
2.175141e+002, 1.526212e+002
2.179962e+002, 1.521610e+002
2.184783e+002, 1.521847e+002
2.189604e+002, 1.519438e+002
2.194425e+002, 1.511147e+002
2.199247e+002, 1.503130e+002
2.204068e+002, 1.499604e+002
2.208889e+002, 1.500436e+002
2.213710e+002, 1.502270e+002
2.218531e+002, 1.502325e+002
2.223352e+002, 1.500430e+002
2.228174e+002, 1.498854e+002
2.232995e+002, 1.498720e+002
2.237816e+002, 1.498093e+002
2.242637e+002, 1.494806e+002
2.247458e+002, 1.488914e+002
2.252279e+002, 1.483440e+002
2.257100e+002, 1.481183e+002
2.261922e+002, 1.481777e+002
2.266743e+002, 1.481434e+002
2.271564e+002, 1.480018e+002
2.276385e+002, 1.477522e+002
2.281206e+002, 1.473187e+002
2.286027e+002, 1.466904e+002
2.290849e+002, 1.461444e+002
2.295670e+002, 1.459383e+002
2.300491e+002, 1.459792e+002
2.305312e+002, 1.460027e+002
2.310133e+002, 1.460095e+002
2.314954e+002, 1.459577e+002
2.319776e+002, 1.457621e+002
2.324597e+002, 1.453991e+002
2.329418e+002, 1.450605e+002
2.334239e+002, 1.449891e+002
2.339060e+002, 1.449975e+002
2.343881e+002, 1.447668e+002
2.348703e+002, 1.440493e+002
2.353524e+002, 1.432002e+002
2.358345e+002, 1.427209e+002
2.363166e+002, 1.426779e+002
2.367987e+002, 1.427196e+002
2.372808e+002, 1.427382e+002
2.377630e+002, 1.427169e+002
2.382451e+002, 1.426314e+002
2.387272e+002, 1.424780e+002
2.392093e+002, 1.422505e+002
2.396914e+002, 1.419009e+002
2.401735e+002, 1.413604e+002
2.406557e+002, 1.409167e+002
2.411378e+002, 1.406934e+002
2.416199e+002, 1.406104e+002
2.421020e+002, 1.406390e+002
2.425841e+002, 1.407982e+002
2.430662e+002, 1.409757e+002
2.435484e+002, 1.409250e+002
2.440305e+002, 1.404941e+002
2.445126e+002, 1.402597e+002
2.449947e+002, 1.406687e+002
2.454768e+002, 1.411807e+002
2.459589e+002, 1.412589e+002
2.464410e+002, 1.407014e+002
2.469232e+002, 1.399110e+002
2.474053e+002, 1.396411e+002
2.478874e+002, 1.402236e+002
2.483695e+002, 1.405295e+002
2.488516e+002, 1.401967e+002
2.493337e+002, 1.396449e+002
2.498159e+002, 1.391461e+002
2.502980e+002, 1.387890e+002
2.507801e+002, 1.385639e+002
2.512622e+002, 1.384801e+002
2.517443e+002, 1.386459e+002
2.522264e+002, 1.387061e+002
2.527086e+002, 1.386301e+002
2.531907e+002, 1.384566e+002
2.536728e+002, 1.381483e+002
2.541549e+002, 1.377202e+002
2.546370e+002, 1.373085e+002
2.551191e+002, 1.371603e+002
2.556013e+002, 1.375188e+002
2.560834e+002, 1.376079e+002
2.565655e+002, 1.372015e+002
2.570476e+002, 1.367275e+002
2.575297e+002, 1.364377e+002
2.580118e+002, 1.363903e+002
2.584940e+002, 1.365115e+002
2.589761e+002, 1.367281e+002
2.594582e+002, 1.371447e+002
2.599403e+002, 1.373814e+002
2.604224e+002, 1.372656e+002
2.609045e+002, 1.371436e+002
2.613867e+002, 1.372831e+002
2.618688e+002, 1.376788e+002
2.623509e+002, 1.380979e+002
2.628330e+002, 1.382861e+002
2.633151e+002, 1.382300e+002
2.637972e+002, 1.379496e+002
2.642794e+002, 1.369147e+002
2.647615e+002, 1.361352e+002
2.652436e+002, 1.364182e+002
2.657257e+002, 1.376196e+002
2.662078e+002, 1.388658e+002
2.666899e+002, 1.392717e+002
2.671721e+002, 1.386568e+002
2.676542e+002, 1.383247e+002
2.681363e+002, 1.385264e+002
2.686184e+002, 1.387218e+002
2.691005e+002, 1.385662e+002
2.695826e+002, 1.381354e+002
2.700648e+002, 1.377777e+002
2.705469e+002, 1.377965e+002
2.710290e+002, 1.382093e+002
2.715111e+002, 1.384750e+002
2.719932e+002, 1.386319e+002
2.724753e+002, 1.386416e+002
2.729575e+002, 1.383261e+002
2.734396e+002, 1.378255e+002
2.739217e+002, 1.375279e+002
2.744038e+002, 1.377368e+002
2.748859e+002, 1.383898e+002
2.753680e+002, 1.386979e+002
2.758501e+002, 1.383494e+002
2.763322e+002, 1.380811e+002
2.768144e+002, 1.382512e+002
2.772965e+002, 1.386916e+002
2.777786e+002, 1.390158e+002
2.782607e+002, 1.390094e+002
2.787428e+002, 1.387356e+002
2.792249e+002, 1.384492e+002
2.797071e+002, 1.381684e+002
2.801892e+002, 1.378570e+002
2.806713e+002, 1.374041e+002
2.811534e+002, 1.369264e+002
2.816355e+002, 1.366917e+002
2.821176e+002, 1.368573e+002
2.825998e+002, 1.371953e+002
2.830819e+002, 1.370714e+002
2.835640e+002, 1.361501e+002
2.840461e+002, 1.354721e+002
2.845282e+002, 1.353647e+002
2.850103e+002, 1.355967e+002
2.854925e+002, 1.358585e+002
2.859746e+002, 1.360576e+002
2.864567e+002, 1.362104e+002
2.869388e+002, 1.363737e+002
2.874209e+002, 1.366334e+002
2.879030e+002, 1.366258e+002
2.883852e+002, 1.360897e+002
2.888673e+002, 1.353357e+002
2.893494e+002, 1.347151e+002
2.898315e+002, 1.343052e+002
2.903136e+002, 1.340475e+002
2.907957e+002, 1.338509e+002
2.912779e+002, 1.336947e+002
2.917600e+002, 1.338149e+002
2.922421e+002, 1.346334e+002
2.927242e+002, 1.355143e+002
2.932063e+002, 1.357991e+002
2.936884e+002, 1.354089e+002
2.941706e+002, 1.347431e+002
2.946527e+002, 1.340911e+002
2.951348e+002, 1.334640e+002
2.956169e+002, 1.330029e+002
2.960990e+002, 1.327534e+002
2.965811e+002, 1.326426e+002
2.970633e+002, 1.326651e+002
2.975454e+002, 1.328048e+002
2.980275e+002, 1.329470e+002
2.985096e+002, 1.330367e+002
2.989917e+002, 1.330534e+002
2.994738e+002, 1.329509e+002
2.999560e+002, 1.326944e+002
3.004381e+002, 1.323555e+002
3.009202e+002, 1.318528e+002
3.014023e+002, 1.312563e+002
3.018844e+002, 1.309175e+002
3.023665e+002, 1.311433e+002
3.028487e+002, 1.316588e+002
3.033308e+002, 1.316177e+002
3.038129e+002, 1.306252e+002
3.042950e+002, 1.297699e+002
3.047771e+002, 1.296915e+002
3.052592e+002, 1.301309e+002
3.057414e+002, 1.304089e+002
3.062235e+002, 1.302459e+002
3.067056e+002, 1.298485e+002
3.071877e+002, 1.296352e+002
3.076698e+002, 1.296715e+002
3.081519e+002, 1.296054e+002
3.086341e+002, 1.291741e+002
3.091162e+002, 1.285979e+002
3.095983e+002, 1.283244e+002
3.100804e+002, 1.285223e+002
3.105625e+002, 1.288045e+002
3.110446e+002, 1.286043e+002
3.115268e+002, 1.279134e+002
3.120089e+002, 1.272798e+002
3.124910e+002, 1.267856e+002
3.129731e+002, 1.264150e+002
3.134552e+002, 1.261358e+002
3.139373e+002, 1.259425e+002
3.144195e+002, 1.258917e+002
3.149016e+002, 1.261455e+002
3.153837e+002, 1.266632e+002
3.158658e+002, 1.268644e+002
3.163479e+002, 1.265296e+002
3.168300e+002, 1.259829e+002
3.173121e+002, 1.254365e+002
3.177943e+002, 1.249056e+002
3.182764e+002, 1.244208e+002
3.187585e+002, 1.239848e+002
3.192406e+002, 1.236234e+002
3.197227e+002, 1.233887e+002
3.202048e+002, 1.233700e+002
3.206870e+002, 1.233840e+002
3.211691e+002, 1.232939e+002
3.216512e+002, 1.231438e+002
3.221333e+002, 1.231309e+002
3.226154e+002, 1.234261e+002
3.230975e+002, 1.238179e+002
3.235797e+002, 1.237134e+002
3.240618e+002, 1.228222e+002
3.245439e+002, 1.221479e+002
3.250260e+002, 1.222680e+002
3.255081e+002, 1.228143e+002
3.259902e+002, 1.230517e+002
3.264724e+002, 1.227088e+002
3.269545e+002, 1.221483e+002
3.274366e+002, 1.219440e+002
3.279187e+002, 1.221379e+002
3.284008e+002, 1.223383e+002
3.288829e+002, 1.226320e+002
3.293651e+002, 1.228217e+002
3.298472e+002, 1.225657e+002
3.303293e+002, 1.218045e+002
3.308114e+002, 1.210120e+002
3.312935e+002, 1.206685e+002
3.317756e+002, 1.208199e+002
3.322578e+002, 1.209554e+002
3.327399e+002, 1.211399e+002
3.332220e+002, 1.212416e+002
3.337041e+002, 1.210973e+002
3.341862e+002, 1.207389e+002
3.346683e+002, 1.204095e+002
3.351505e+002, 1.202889e+002
3.356326e+002, 1.203464e+002
3.361147e+002, 1.203331e+002
3.365968e+002, 1.202260e+002
3.370789e+002, 1.200831e+002
3.375610e+002, 1.199300e+002
3.380432e+002, 1.197599e+002
3.385253e+002, 1.195556e+002
3.390074e+002, 1.193082e+002
3.394895e+002, 1.190261e+002
3.399716e+002, 1.187287e+002
3.404537e+002, 1.184125e+002
3.409359e+002, 1.180927e+002
3.414180e+002, 1.176983e+002
3.419001e+002, 1.173282e+002
3.423822e+002, 1.171710e+002
3.428643e+002, 1.172819e+002
3.433464e+002, 1.174297e+002
3.438286e+002, 1.172710e+002
3.443107e+002, 1.166243e+002
3.447928e+002, 1.161995e+002
3.452749e+002, 1.161366e+002
3.457570e+002, 1.162052e+002
3.462391e+002, 1.162240e+002
3.467213e+002, 1.161839e+002
3.472034e+002, 1.162068e+002
3.476855e+002, 1.164358e+002
3.481676e+002, 1.168911e+002
3.486497e+002, 1.170537e+002
3.491318e+002, 1.168062e+002
3.496140e+002, 1.164415e+002
3.500961e+002, 1.159361e+002
3.505782e+002, 1.154099e+002
3.510603e+002, 1.151508e+002
3.515424e+002, 1.153666e+002
3.520245e+002, 1.158943e+002
3.525067e+002, 1.160252e+002
3.529888e+002, 1.152170e+002
3.534709e+002, 1.146852e+002
3.539530e+002, 1.147448e+002
3.544351e+002, 1.150901e+002
3.549172e+002, 1.154169e+002
3.553994e+002, 1.156107e+002
3.558815e+002, 1.156443e+002
3.563636e+002, 1.154444e+002
3.568457e+002, 1.147262e+002
3.573278e+002, 1.143724e+002
3.578099e+002, 1.146224e+002
3.582920e+002, 1.150198e+002
3.587741e+002, 1.152983e+002
3.592563e+002, 1.154127e+002
3.597384e+002, 1.154065e+002
3.602205e+002, 1.152914e+002
3.607026e+002, 1.150299e+002
3.611847e+002, 1.150312e+002
3.616668e+002, 1.157300e+002
3.621490e+002, 1.162249e+002
3.626311e+002, 1.161180e+002
3.631132e+002, 1.155912e+002
3.635953e+002, 1.149944e+002
3.640774e+002, 1.145274e+002
3.645595e+002, 1.141885e+002
3.650417e+002, 1.139729e+002
3.655238e+002, 1.139445e+002
3.660059e+002, 1.139653e+002
3.664880e+002, 1.140642e+002
3.669701e+002, 1.141784e+002
3.674522e+002, 1.142454e+002
3.679344e+002, 1.142461e+002
3.684165e+002, 1.142123e+002
3.688986e+002, 1.142139e+002
3.693807e+002, 1.143236e+002
3.698628e+002, 1.142625e+002
3.703449e+002, 1.138383e+002
3.708271e+002, 1.134068e+002
3.713092e+002, 1.132248e+002
3.717913e+002, 1.132428e+002
3.722734e+002, 1.131701e+002
3.727555e+002, 1.126843e+002
3.732376e+002, 1.118073e+002
3.737198e+002, 1.112313e+002
3.742019e+002, 1.111413e+002
3.746840e+002, 1.111511e+002
3.751661e+002, 1.112177e+002
3.756482e+002, 1.112743e+002
3.761303e+002, 1.112077e+002
3.766125e+002, 1.109353e+002
3.770946e+002, 1.105739e+002
3.775767e+002, 1.103893e+002
3.780588e+002, 1.104314e+002
3.785409e+002, 1.105111e+002
3.790230e+002, 1.107213e+002
3.795052e+002, 1.108604e+002
3.799873e+002, 1.106841e+002
3.804694e+002, 1.101499e+002
3.809515e+002, 1.096182e+002
3.814336e+002, 1.095261e+002
3.819157e+002, 1.098615e+002
3.823979e+002, 1.100378e+002
3.828800e+002, 1.099816e+002
3.833621e+002, 1.097268e+002
3.838442e+002, 1.091701e+002
3.843263e+002, 1.084242e+002
3.848084e+002, 1.078746e+002
3.852906e+002, 1.078057e+002
3.857727e+002, 1.080677e+002
3.862548e+002, 1.083887e+002
3.867369e+002, 1.088339e+002
3.872190e+002, 1.090976e+002
3.877011e+002, 1.089151e+002
3.881833e+002, 1.084587e+002
3.886654e+002, 1.079065e+002
3.891475e+002, 1.071607e+002
3.896296e+002, 1.065664e+002
3.901117e+002, 1.065412e+002
3.905938e+002, 1.070113e+002
3.910760e+002, 1.074089e+002
3.915581e+002, 1.075774e+002
3.920402e+002, 1.075535e+002
3.925223e+002, 1.074093e+002
3.930044e+002, 1.071558e+002
3.934865e+002, 1.067530e+002
3.939687e+002, 1.059521e+002
3.944508e+002, 1.050670e+002
3.949329e+002, 1.046777e+002
3.954150e+002, 1.048985e+002
3.958971e+002, 1.052388e+002
3.963792e+002, 1.052866e+002
3.968614e+002, 1.050541e+002
3.973435e+002, 1.048218e+002
3.978256e+002, 1.044449e+002
3.983077e+002, 1.042052e+002
3.987898e+002, 1.044068e+002
3.992719e+002, 1.049314e+002
3.997540e+002, 1.053723e+002
4.002361e+002, 1.055462e+002
4.007183e+002, 1.054721e+002
4.012004e+002, 1.051468e+002
4.016825e+002, 1.042234e+002
4.021646e+002, 1.036864e+002
4.026467e+002, 1.039791e+002
4.031288e+002, 1.046218e+002
4.036110e+002, 1.050995e+002
4.040931e+002, 1.052861e+002
4.045752e+002, 1.053047e+002
4.050573e+002, 1.052871e+002
4.055394e+002, 1.052280e+002
4.060215e+002, 1.051572e+002
4.065037e+002, 1.049560e+002
4.069858e+002, 1.048563e+002
4.074679e+002, 1.051536e+002
4.079500e+002, 1.056555e+002
4.084321e+002, 1.058285e+002
4.089142e+002, 1.052902e+002
4.093964e+002, 1.042804e+002
4.098785e+002, 1.039112e+002
4.103606e+002, 1.050132e+002
4.108427e+002, 1.056962e+002
4.113248e+002, 1.055575e+002
4.118069e+002, 1.050748e+002
4.122891e+002, 1.046970e+002
4.127712e+002, 1.045437e+002
4.132533e+002, 1.044461e+002
4.137354e+002, 1.041032e+002
4.142175e+002, 1.033257e+002
4.146996e+002, 1.030647e+002
4.151818e+002, 1.039684e+002
4.156639e+002, 1.047977e+002
4.161460e+002, 1.050432e+002
4.166281e+002, 1.048203e+002
4.171102e+002, 1.044822e+002
4.175923e+002, 1.042338e+002
4.180745e+002, 1.040544e+002
4.185566e+002, 1.038429e+002
4.190387e+002, 1.035025e+002
4.195208e+002, 1.033557e+002
4.200029e+002, 1.036432e+002
4.204850e+002, 1.040798e+002
4.209672e+002, 1.044081e+002
4.214493e+002, 1.045654e+002
4.219314e+002, 1.046666e+002
4.224135e+002, 1.049145e+002
4.228956e+002, 1.052865e+002
4.233777e+002, 1.052776e+002
4.238599e+002, 1.045195e+002
4.243420e+002, 1.037716e+002
4.248241e+002, 1.037122e+002
4.253062e+002, 1.041666e+002
4.257883e+002, 1.045011e+002
4.262704e+002, 1.043153e+002
4.267526e+002, 1.039194e+002
4.272347e+002, 1.037883e+002
4.277168e+002, 1.039372e+002
4.281989e+002, 1.041160e+002
4.286810e+002, 1.041977e+002
4.291631e+002, 1.042229e+002
4.296453e+002, 1.043011e+002
4.301274e+002, 1.044919e+002
4.306095e+002, 1.046004e+002
4.310916e+002, 1.044014e+002
4.315737e+002, 1.040703e+002
4.320558e+002, 1.040097e+002
4.325380e+002, 1.043475e+002
4.330201e+002, 1.047626e+002
4.335022e+002, 1.048778e+002
4.339843e+002, 1.046455e+002
4.344664e+002, 1.044315e+002
4.349485e+002, 1.041921e+002
4.354307e+002, 1.040205e+002
4.359128e+002, 1.039943e+002
4.363949e+002, 1.040940e+002
4.368770e+002, 1.042713e+002
4.373591e+002, 1.045188e+002
4.378412e+002, 1.047814e+002
4.383234e+002, 1.048415e+002
4.388055e+002, 1.044237e+002
4.392876e+002, 1.041556e+002
4.397697e+002, 1.041286e+002
4.402518e+002, 1.042421e+002
4.407339e+002, 1.044317e+002
4.412160e+002, 1.046694e+002
4.416982e+002, 1.049297e+002
4.421803e+002, 1.052030e+002
4.426624e+002, 1.055200e+002
4.431445e+002, 1.056325e+002
4.436266e+002, 1.053876e+002
4.441087e+002, 1.050936e+002
4.445909e+002, 1.047229e+002
4.450730e+002, 1.043906e+002
4.455551e+002, 1.042944e+002
4.460372e+002, 1.045581e+002
4.465193e+002, 1.050047e+002
4.470014e+002, 1.052196e+002
4.474836e+002, 1.050962e+002
4.479657e+002, 1.050589e+002
4.484478e+002, 1.053315e+002
4.489299e+002, 1.056077e+002
4.494120e+002, 1.056544e+002
4.498941e+002, 1.054804e+002
4.503763e+002, 1.053139e+002
4.508584e+002, 1.053491e+002
4.513405e+002, 1.055401e+002
4.518226e+002, 1.056963e+002
4.523047e+002, 1.058123e+002
4.527868e+002, 1.058958e+002
4.532690e+002, 1.059148e+002
4.537511e+002, 1.059120e+002
4.542332e+002, 1.059386e+002
4.547153e+002, 1.059724e+002
4.551974e+002, 1.061010e+002
4.556795e+002, 1.065354e+002
4.561617e+002, 1.071662e+002
4.566438e+002, 1.074547e+002
4.571259e+002, 1.071218e+002
4.576080e+002, 1.066673e+002
4.580901e+002, 1.068453e+002
4.585722e+002, 1.076508e+002
4.590544e+002, 1.082439e+002
4.595365e+002, 1.083942e+002
4.600186e+002, 1.083302e+002
4.605007e+002, 1.081816e+002
4.609828e+002, 1.079839e+002
4.614649e+002, 1.078276e+002
4.619471e+002, 1.077714e+002
4.624292e+002, 1.077954e+002
4.629113e+002, 1.078162e+002
4.633934e+002, 1.078175e+002
4.638755e+002, 1.078369e+002
4.643576e+002, 1.078783e+002
4.648398e+002, 1.079398e+002
4.653219e+002, 1.080567e+002
4.658040e+002, 1.082171e+002
4.662861e+002, 1.083039e+002
4.667682e+002, 1.081505e+002
4.672503e+002, 1.076987e+002
4.677325e+002, 1.075570e+002
4.682146e+002, 1.081036e+002
4.686967e+002, 1.085586e+002
4.691788e+002, 1.086229e+002
4.696609e+002, 1.084872e+002
4.701430e+002, 1.084642e+002
4.706252e+002, 1.086961e+002
4.711073e+002, 1.090212e+002
4.715894e+002, 1.091407e+002
4.720715e+002, 1.090044e+002
4.725536e+002, 1.088835e+002
4.730357e+002, 1.087319e+002
4.735179e+002, 1.086862e+002
4.740000e+002, 1.088732e+002
4.744821e+002, 1.092511e+002
4.749642e+002, 1.096491e+002
4.754463e+002, 1.100394e+002
4.759284e+002, 1.103542e+002
4.764106e+002, 1.104057e+002
4.768927e+002, 1.101542e+002
4.773748e+002, 1.098813e+002
4.778569e+002, 1.096456e+002
4.783390e+002, 1.095116e+002
4.788211e+002, 1.095657e+002
4.793033e+002, 1.098290e+002
4.797854e+002, 1.102137e+002
4.802675e+002, 1.108405e+002
4.807496e+002, 1.115176e+002
4.812317e+002, 1.118550e+002
4.817138e+002, 1.117746e+002
4.821959e+002, 1.115782e+002
4.826780e+002, 1.115531e+002
4.831602e+002, 1.116878e+002
4.836423e+002, 1.115936e+002
4.841244e+002, 1.108000e+002
4.846065e+002, 1.102990e+002
4.850886e+002, 1.107112e+002
4.855707e+002, 1.116440e+002
4.860529e+002, 1.124205e+002
4.865350e+002, 1.127892e+002
4.870171e+002, 1.129210e+002
4.874992e+002, 1.131053e+002
4.879813e+002, 1.134564e+002
4.884634e+002, 1.135359e+002
4.889456e+002, 1.131165e+002
4.894277e+002, 1.126906e+002
4.899098e+002, 1.125353e+002
4.903919e+002, 1.125676e+002
4.908740e+002, 1.125391e+002
4.913561e+002, 1.122824e+002
4.918383e+002, 1.119212e+002
4.923204e+002, 1.118352e+002
4.928025e+002, 1.121767e+002
4.932846e+002, 1.123729e+002
4.937667e+002, 1.120712e+002
4.942488e+002, 1.117526e+002
4.947310e+002, 1.118029e+002
4.952131e+002, 1.122074e+002
4.956952e+002, 1.125783e+002
4.961773e+002, 1.125771e+002
4.966594e+002, 1.123430e+002
4.971415e+002, 1.123129e+002
4.976237e+002, 1.125696e+002
4.981058e+002, 1.126651e+002
4.985879e+002, 1.121951e+002
4.990700e+002, 1.114619e+002
4.995521e+002, 1.110480e+002
5.000342e+002, 1.110473e+002
5.005164e+002, 1.112029e+002
5.009985e+002, 1.115118e+002
5.014806e+002, 1.118584e+002
5.019627e+002, 1.119944e+002
5.024448e+002, 1.118661e+002
5.029269e+002, 1.117231e+002
5.034091e+002, 1.118137e+002
5.038912e+002, 1.121498e+002
5.043733e+002, 1.124023e+002
5.048554e+002, 1.124799e+002
5.053375e+002, 1.125858e+002
5.058196e+002, 1.128342e+002
5.063018e+002, 1.131452e+002
5.067839e+002, 1.133966e+002
5.072660e+002, 1.135442e+002
5.077481e+002, 1.136247e+002
5.082302e+002, 1.136708e+002
5.087123e+002, 1.136258e+002
5.091945e+002, 1.137522e+002
5.096766e+002, 1.141460e+002
5.101587e+002, 1.146156e+002
5.106408e+002, 1.152251e+002
5.111229e+002, 1.158406e+002
5.116050e+002, 1.161943e+002
5.120872e+002, 1.161058e+002
5.125693e+002, 1.158502e+002
5.130514e+002, 1.159780e+002
5.135335e+002, 1.165602e+002
5.140156e+002, 1.169813e+002
5.144977e+002, 1.170459e+002
5.149799e+002, 1.169629e+002
5.154620e+002, 1.167625e+002
5.159441e+002, 1.165116e+002
5.164262e+002, 1.166228e+002
5.169083e+002, 1.175615e+002
5.173904e+002, 1.187892e+002
5.178726e+002, 1.196655e+002
5.183547e+002, 1.201880e+002
5.188368e+002, 1.204833e+002
5.193189e+002, 1.205751e+002
5.198010e+002, 1.205175e+002
5.202831e+002, 1.203943e+002
5.207653e+002, 1.201286e+002
5.212474e+002, 1.200242e+002
5.217295e+002, 1.203843e+002
5.222116e+002, 1.207504e+002
5.226937e+002, 1.205975e+002
5.231758e+002, 1.199989e+002
5.236580e+002, 1.195099e+002
5.241401e+002, 1.195553e+002
5.246222e+002, 1.200094e+002
5.251043e+002, 1.202248e+002
5.255864e+002, 1.200845e+002
5.260685e+002, 1.198503e+002
5.265507e+002, 1.194692e+002
5.270328e+002, 1.190621e+002
5.275149e+002, 1.187432e+002
5.279970e+002, 1.185140e+002
5.284791e+002, 1.182732e+002
5.289612e+002, 1.178784e+002
5.294434e+002, 1.173864e+002
5.299255e+002, 1.171686e+002
5.304076e+002, 1.173329e+002
5.308897e+002, 1.175241e+002
5.313718e+002, 1.175674e+002
5.318539e+002, 1.175717e+002
5.323361e+002, 1.176560e+002
5.328182e+002, 1.178468e+002
5.333003e+002, 1.180556e+002
5.337824e+002, 1.182913e+002
5.342645e+002, 1.184919e+002
5.347466e+002, 1.184571e+002
5.352288e+002, 1.181392e+002
5.357109e+002, 1.178935e+002
5.361930e+002, 1.180212e+002
5.366751e+002, 1.184577e+002
5.371572e+002, 1.187651e+002
5.376393e+002, 1.188578e+002
5.381215e+002, 1.189397e+002
5.386036e+002, 1.191742e+002
5.390857e+002, 1.193816e+002
5.395678e+002, 1.192228e+002
5.400499e+002, 1.186831e+002
5.405320e+002, 1.182072e+002
5.410142e+002, 1.182897e+002
5.414963e+002, 1.189497e+002
5.419784e+002, 1.195041e+002
5.424604e+002, 1.199043e+002
5.429426e+002, 1.202433e+002
5.434247e+002, 1.205413e+002
5.439068e+002, 1.207856e+002
5.443889e+002, 1.209225e+002
5.448710e+002, 1.209469e+002
5.453531e+002, 1.209935e+002
5.458353e+002, 1.212570e+002
5.463174e+002, 1.217114e+002
5.467995e+002, 1.220056e+002
5.472816e+002, 1.220136e+002
5.477637e+002, 1.220876e+002
5.482458e+002, 1.226716e+002
5.487280e+002, 1.234188e+002
5.492101e+002, 1.237112e+002
5.496922e+002, 1.232372e+002
5.501743e+002, 1.227459e+002
5.506564e+002, 1.226915e+002
5.511385e+002, 1.229608e+002
5.516207e+002, 1.233862e+002
5.521028e+002, 1.239396e+002
5.525849e+002, 1.244084e+002
5.530670e+002, 1.245365e+002
5.535491e+002, 1.243235e+002
5.540313e+002, 1.244717e+002
5.545134e+002, 1.253079e+002
5.549955e+002, 1.260580e+002
5.554776e+002, 1.265346e+002
5.559597e+002, 1.268010e+002
5.564418e+002, 1.268732e+002
5.569240e+002, 1.267869e+002
5.574061e+002, 1.267091e+002
5.578882e+002, 1.268723e+002
5.583703e+002, 1.272913e+002
5.588524e+002, 1.274843e+002
5.593345e+002, 1.272669e+002
5.598167e+002, 1.270788e+002
5.602988e+002, 1.269665e+002
5.607809e+002, 1.270040e+002
5.612630e+002, 1.273568e+002
5.617451e+002, 1.280966e+002
5.622272e+002, 1.288059e+002
5.627094e+002, 1.290028e+002
5.631915e+002, 1.288672e+002
5.636736e+002, 1.291107e+002
5.641557e+002, 1.299254e+002
5.646378e+002, 1.305306e+002
5.651199e+002, 1.301685e+002
5.656021e+002, 1.291339e+002
5.660842e+002, 1.287673e+002
5.665663e+002, 1.295641e+002
5.670484e+002, 1.303175e+002
5.675305e+002, 1.305858e+002
5.680126e+002, 1.305999e+002
5.684948e+002, 1.306424e+002
5.689769e+002, 1.307648e+002
5.694590e+002, 1.308498e+002
5.699411e+002, 1.307517e+002
5.704232e+002, 1.304969e+002
5.709053e+002, 1.305967e+002
5.713875e+002, 1.313900e+002
5.718696e+002, 1.320949e+002
5.723517e+002, 1.327443e+002
5.728338e+002, 1.331646e+002
5.733159e+002, 1.330126e+002
5.737980e+002, 1.323314e+002
5.742802e+002, 1.317892e+002
5.747623e+002, 1.322153e+002
5.752444e+002, 1.332953e+002
5.757265e+002, 1.335752e+002
5.762086e+002, 1.328080e+002
5.766907e+002, 1.322926e+002
5.771729e+002, 1.328707e+002
5.776550e+002, 1.339377e+002
5.781371e+002, 1.344557e+002
5.786192e+002, 1.342622e+002
5.791013e+002, 1.341805e+002
5.795834e+002, 1.347519e+002
5.800656e+002, 1.354604e+002
5.805477e+002, 1.356271e+002
5.810298e+002, 1.352803e+002
5.815119e+002, 1.349754e+002
5.819940e+002, 1.350664e+002
5.824761e+002, 1.354522e+002
5.829583e+002, 1.357949e+002
5.834404e+002, 1.361928e+002
5.839225e+002, 1.363829e+002
5.844046e+002, 1.361041e+002
5.848867e+002, 1.358433e+002
5.853688e+002, 1.359034e+002
5.858510e+002, 1.362737e+002
5.863331e+002, 1.368434e+002
5.868152e+002, 1.376188e+002
5.872973e+002, 1.384055e+002
5.877794e+002, 1.386966e+002
5.882615e+002, 1.384188e+002
5.887437e+002, 1.381241e+002
5.892258e+002, 1.378136e+002
5.897079e+002, 1.376805e+002
5.901900e+002, 1.379562e+002
5.906721e+002, 1.385831e+002
5.911542e+002, 1.391925e+002
5.916364e+002, 1.396992e+002
5.921185e+002, 1.401224e+002
5.926006e+002, 1.404070e+002
5.930827e+002, 1.406128e+002
5.935648e+002, 1.409749e+002
5.940469e+002, 1.415972e+002
5.945291e+002, 1.421884e+002
5.950112e+002, 1.423021e+002
5.954933e+002, 1.417699e+002
5.959754e+002, 1.415332e+002
5.964575e+002, 1.415813e+002
5.969396e+002, 1.418885e+002
5.974218e+002, 1.426889e+002
5.979039e+002, 1.436561e+002
5.983860e+002, 1.442998e+002
5.988681e+002, 1.444632e+002
5.993502e+002, 1.444981e+002
5.998323e+002, 1.448529e+002
6.003145e+002, 1.455147e+002
6.007966e+002, 1.460964e+002
6.012787e+002, 1.465454e+002
6.017608e+002, 1.469847e+002
6.022429e+002, 1.475129e+002
6.027250e+002, 1.480641e+002
6.032072e+002, 1.484996e+002
6.036893e+002, 1.487337e+002
6.041714e+002, 1.490623e+002
6.046535e+002, 1.498651e+002
6.051356e+002, 1.507552e+002
6.056177e+002, 1.510454e+002
6.060999e+002, 1.507164e+002
6.065820e+002, 1.503959e+002
6.070641e+002, 1.505194e+002
6.075462e+002, 1.510286e+002
6.080283e+002, 1.516706e+002
6.085104e+002, 1.526458e+002
6.089926e+002, 1.534641e+002
6.094747e+002, 1.540534e+002
6.099568e+002, 1.545306e+002
6.104389e+002, 1.549920e+002
6.109210e+002, 1.554218e+002
6.114031e+002, 1.557261e+002
6.118853e+002, 1.558209e+002
6.123674e+002, 1.557958e+002
6.128495e+002, 1.557199e+002
6.133316e+002, 1.555468e+002
6.138137e+002, 1.559628e+002
6.142958e+002, 1.575456e+002
6.147780e+002, 1.592336e+002
6.152601e+002, 1.598040e+002
6.157422e+002, 1.594592e+002
6.162243e+002, 1.593862e+002
6.167064e+002, 1.603475e+002
6.171885e+002, 1.611348e+002
6.176707e+002, 1.605973e+002
6.181528e+002, 1.593915e+002
6.186349e+002, 1.589229e+002
6.191170e+002, 1.595954e+002
6.195991e+002, 1.606847e+002
6.200812e+002, 1.613508e+002
6.205634e+002, 1.615662e+002
6.210455e+002, 1.618019e+002
6.215276e+002, 1.620012e+002
6.220097e+002, 1.622967e+002
6.224918e+002, 1.629606e+002
6.229739e+002, 1.635932e+002
6.234561e+002, 1.636482e+002
6.239382e+002, 1.630746e+002
6.244203e+002, 1.625561e+002
6.249023e+002, 1.627389e+002
6.253845e+002, 1.633874e+002
6.258666e+002, 1.639214e+002
6.263487e+002, 1.643365e+002
6.268308e+002, 1.645026e+002
6.273129e+002, 1.641717e+002
6.277950e+002, 1.637385e+002
6.282772e+002, 1.641100e+002
6.287593e+002, 1.655296e+002
6.292414e+002, 1.664444e+002
6.297235e+002, 1.662676e+002
6.302056e+002, 1.658394e+002
6.306877e+002, 1.656050e+002
6.311699e+002, 1.656087e+002
6.316520e+002, 1.658986e+002
6.321341e+002, 1.664964e+002
6.326162e+002, 1.671383e+002
6.330983e+002, 1.673096e+002
6.335804e+002, 1.668696e+002
6.340626e+002, 1.666914e+002
6.345447e+002, 1.669158e+002
6.350268e+002, 1.672459e+002
6.355089e+002, 1.675547e+002
6.359910e+002, 1.678736e+002
6.364731e+002, 1.682749e+002
6.369553e+002, 1.688037e+002
6.374374e+002, 1.692805e+002
6.379195e+002, 1.695566e+002
6.384016e+002, 1.696960e+002
6.388837e+002, 1.697889e+002
6.393658e+002, 1.698504e+002
6.398480e+002, 1.699496e+002
6.403301e+002, 1.701101e+002
6.408122e+002, 1.703637e+002
6.412943e+002, 1.708265e+002
6.417764e+002, 1.717510e+002
6.422585e+002, 1.725104e+002
6.427407e+002, 1.730566e+002
6.432228e+002, 1.734792e+002
6.437049e+002, 1.738452e+002
6.441870e+002, 1.741371e+002
6.446691e+002, 1.742730e+002
6.451512e+002, 1.741871e+002
6.456334e+002, 1.740341e+002
6.461155e+002, 1.740417e+002
6.465976e+002, 1.742103e+002
6.470797e+002, 1.745375e+002
6.475618e+002, 1.750899e+002
6.480439e+002, 1.756634e+002
6.485261e+002, 1.761702e+002
6.490082e+002, 1.765732e+002
6.494903e+002, 1.767374e+002
6.499724e+002, 1.766059e+002
6.504545e+002, 1.763077e+002
6.509366e+002, 1.756703e+002
6.514188e+002, 1.750147e+002
6.519009e+002, 1.748843e+002
6.523830e+002, 1.752242e+002
6.528651e+002, 1.753350e+002
6.533472e+002, 1.746393e+002
6.538293e+002, 1.734423e+002
6.543115e+002, 1.729665e+002
6.547936e+002, 1.737075e+002
6.552757e+002, 1.739657e+002
6.557578e+002, 1.732220e+002
6.562399e+002, 1.721665e+002
6.567220e+002, 1.710278e+002
6.572042e+002, 1.698716e+002
6.576863e+002, 1.688560e+002
6.581684e+002, 1.681918e+002
6.586505e+002, 1.674389e+002
6.591326e+002, 1.660901e+002
6.596147e+002, 1.643252e+002
6.600969e+002, 1.626496e+002
6.605790e+002, 1.611796e+002
6.610611e+002, 1.596557e+002
6.615432e+002, 1.578043e+002
6.620253e+002, 1.556726e+002
6.625074e+002, 1.538069e+002
6.629896e+002, 1.522112e+002
6.634717e+002, 1.508914e+002
6.639538e+002, 1.502509e+002
6.644359e+002, 1.495745e+002
6.649180e+002, 1.482115e+002
6.654001e+002, 1.462489e+002
6.658823e+002, 1.442530e+002
6.663644e+002, 1.425521e+002
6.668465e+002, 1.410320e+002
6.673286e+002, 1.395186e+002
6.678107e+002, 1.380077e+002
6.682928e+002, 1.362904e+002
6.687750e+002, 1.342077e+002
6.692571e+002, 1.322043e+002
6.697392e+002, 1.308293e+002
6.702213e+002, 1.299950e+002
6.707034e+002, 1.288265e+002
6.711855e+002, 1.268522e+002
6.716677e+002, 1.251062e+002
6.721498e+002, 1.240587e+002
6.726319e+002, 1.233331e+002
6.731140e+002, 1.225951e+002
6.735961e+002, 1.217539e+002
6.740782e+002, 1.207451e+002
6.745604e+002, 1.194580e+002
6.750425e+002, 1.180603e+002
6.755246e+002, 1.171907e+002
6.760067e+002, 1.170406e+002
6.764888e+002, 1.165436e+002
6.769709e+002, 1.151629e+002
6.774531e+002, 1.137445e+002
6.779352e+002, 1.130494e+002
6.784173e+002, 1.128865e+002
6.788994e+002, 1.125824e+002
6.793815e+002, 1.119787e+002
6.798636e+002, 1.112066e+002
6.803458e+002, 1.100854e+002
6.808279e+002, 1.089452e+002
6.813100e+002, 1.084301e+002
6.817921e+002, 1.085783e+002
6.822742e+002, 1.087271e+002
6.827563e+002, 1.083161e+002
6.832385e+002, 1.074770e+002
6.837206e+002, 1.068510e+002
6.842027e+002, 1.064778e+002
6.846848e+002, 1.062315e+002
6.851669e+002, 1.061946e+002
6.856490e+002, 1.061955e+002
6.861312e+002, 1.061303e+002
6.866133e+002, 1.060204e+002
6.870954e+002, 1.059593e+002
6.875775e+002, 1.060592e+002
6.880596e+002, 1.060815e+002
6.885417e+002, 1.057220e+002
6.890239e+002, 1.051391e+002
6.895060e+002, 1.046776e+002
6.899881e+002, 1.044007e+002
6.904702e+002, 1.043023e+002
6.909523e+002, 1.044131e+002
6.914344e+002, 1.046698e+002
6.919166e+002, 1.047575e+002
6.923987e+002, 1.046688e+002
6.928808e+002, 1.044088e+002
6.933629e+002, 1.039240e+002
6.938450e+002, 1.033328e+002
6.943271e+002, 1.026021e+002
6.948093e+002, 1.018272e+002
6.952914e+002, 1.012703e+002
6.957735e+002, 1.011453e+002
6.962556e+002, 1.009627e+002
6.967377e+002, 1.000654e+002
6.972198e+002, 9.864645e+001
6.977020e+002, 9.735586e+001
6.981841e+002, 9.629830e+001
6.986662e+002, 9.536131e+001
6.991483e+002, 9.447427e+001
6.996304e+002, 9.364400e+001
7.001125e+002, 9.291051e+001
7.005947e+002, 9.236344e+001
7.010768e+002, 9.178362e+001
7.015589e+002, 9.104684e+001
7.020410e+002, 9.039060e+001
7.025231e+002, 9.007931e+001
7.030052e+002, 8.994596e+001
7.034874e+002, 8.960294e+001
7.039695e+002, 8.887315e+001
7.044516e+002, 8.801932e+001
7.049337e+002, 8.735887e+001
7.054158e+002, 8.686198e+001
7.058979e+002, 8.635743e+001
7.063801e+002, 8.581498e+001
7.068622e+002, 8.538301e+001
7.073442e+002, 8.517884e+001
7.078264e+002, 8.511730e+001
7.083085e+002, 8.498055e+001
7.087906e+002, 8.472977e+001
7.092727e+002, 8.450477e+001
7.097548e+002, 8.437411e+001
7.102369e+002, 8.421078e+001
7.107191e+002, 8.389576e+001
7.112012e+002, 8.350643e+001
7.116833e+002, 8.321499e+001
7.121654e+002, 8.307800e+001
7.126475e+002, 8.292341e+001
7.131296e+002, 8.248573e+001
7.136118e+002, 8.183730e+001
7.140939e+002, 8.135310e+001
7.145760e+002, 8.104272e+001
7.150581e+002, 8.095246e+001
7.155402e+002, 8.126521e+001
7.160223e+002, 8.164832e+001
7.165045e+002, 8.142616e+001
7.169866e+002, 8.043902e+001
7.174687e+002, 7.987332e+001
7.179508e+002, 8.029530e+001
7.184329e+002, 8.066259e+001
7.189150e+002, 8.027155e+001
7.193972e+002, 7.957531e+001
7.198793e+002, 7.932498e+001
7.203614e+002, 7.967226e+001
7.208435e+002, 8.005579e+001
7.213256e+002, 7.987402e+001
7.218077e+002, 7.929507e+001
7.222899e+002, 7.900661e+001
7.227720e+002, 7.904240e+001
7.232541e+002, 7.906535e+001
7.237362e+002, 7.894077e+001
7.242183e+002, 7.880458e+001
7.247004e+002, 7.885234e+001
7.251826e+002, 7.907898e+001
7.256647e+002, 7.918298e+001
7.261468e+002, 7.907413e+001
7.266289e+002, 7.893079e+001
7.271110e+002, 7.874770e+001
7.275931e+002, 7.860533e+001
7.280753e+002, 7.866763e+001
7.285574e+002, 7.889474e+001
7.290395e+002, 7.900521e+001
7.295216e+002, 7.875410e+001
7.300037e+002, 7.832430e+001
7.304858e+002, 7.814140e+001
7.309680e+002, 7.821346e+001
7.314501e+002, 7.833919e+001
7.319322e+002, 7.853625e+001
7.324143e+002, 7.864918e+001
7.328964e+002, 7.854324e+001
7.333785e+002, 7.823695e+001
7.338607e+002, 7.786198e+001
7.343428e+002, 7.724438e+001
7.348249e+002, 7.682936e+001
7.353070e+002, 7.676820e+001
7.357891e+002, 7.689310e+001
7.362712e+002, 7.716776e+001
7.367534e+002, 7.750056e+001
7.372355e+002, 7.773158e+001
7.377176e+002, 7.778761e+001
7.381997e+002, 7.766585e+001
7.386818e+002, 7.722161e+001
7.391639e+002, 7.652232e+001
7.396461e+002, 7.629365e+001
7.401282e+002, 7.670152e+001
7.406103e+002, 7.708589e+001
7.410924e+002, 7.707845e+001
7.415745e+002, 7.681550e+001
7.420566e+002, 7.656912e+001
7.425388e+002, 7.630142e+001
7.430209e+002, 7.617330e+001
7.435030e+002, 7.636258e+001
7.439851e+002, 7.652351e+001
7.444672e+002, 7.646616e+001
7.449493e+002, 7.626307e+001
7.454315e+002, 7.601706e+001
7.459136e+002, 7.576728e+001
7.463957e+002, 7.554379e+001
7.468778e+002, 7.531046e+001
7.473599e+002, 7.513792e+001
7.478420e+002, 7.532372e+001
7.483242e+002, 7.587911e+001
7.488063e+002, 7.634669e+001
7.492884e+002, 7.658855e+001
7.497705e+002, 7.664737e+001
7.502526e+002, 7.654050e+001
7.507347e+002, 7.625648e+001
7.512169e+002, 7.601732e+001
7.516990e+002, 7.588527e+001
7.521811e+002, 7.571385e+001
7.526632e+002, 7.535103e+001
7.531453e+002, 7.502122e+001
7.536274e+002, 7.502537e+001
7.541096e+002, 7.528203e+001
7.545917e+002, 7.538074e+001
7.550738e+002, 7.504368e+001
7.555559e+002, 7.453682e+001
7.560380e+002, 7.416279e+001
7.565201e+002, 7.393211e+001
7.570023e+002, 7.394842e+001
7.574844e+002, 7.424339e+001
7.579665e+002, 7.454960e+001
7.584486e+002, 7.468504e+001
7.589307e+002, 7.468273e+001
7.594128e+002, 7.464918e+001
7.598950e+002, 7.450304e+001
7.603771e+002, 7.447623e+001
7.608592e+002, 7.466550e+001
7.613413e+002, 7.486306e+001
7.618234e+002, 7.501692e+001
7.623055e+002, 7.509720e+001
7.627877e+002, 7.505748e+001
7.632698e+002, 7.488197e+001
7.637519e+002, 7.465357e+001
7.642340e+002, 7.433837e+001
7.647161e+002, 7.405874e+001
7.651982e+002, 7.408647e+001
7.656804e+002, 7.436295e+001
7.661625e+002, 7.454482e+001
7.666446e+002, 7.450323e+001
7.671267e+002, 7.427659e+001
7.676088e+002, 7.386970e+001
7.680909e+002, 7.326081e+001
7.685731e+002, 7.298405e+001
7.690552e+002, 7.330103e+001
7.695373e+002, 7.352185e+001
7.700194e+002, 7.325518e+001
7.705015e+002, 7.302949e+001
7.709836e+002, 7.349454e+001
7.714658e+002, 7.445756e+001
7.719479e+002, 7.485527e+001
7.724300e+002, 7.382858e+001
7.729121e+002, 7.278825e+001
7.733942e+002, 7.295076e+001
7.738763e+002, 7.363318e+001
7.743585e+002, 7.370232e+001
7.748406e+002, 7.309159e+001
7.753227e+002, 7.248640e+001
7.758048e+002, 7.232795e+001
7.762869e+002, 7.250551e+001
7.767690e+002, 7.282458e+001
7.772512e+002, 7.334566e+001
7.777333e+002, 7.358472e+001
7.782154e+002, 7.335457e+001
7.786975e+002, 7.313345e+001
7.791796e+002, 7.330720e+001
7.796617e+002, 7.359538e+001
7.801439e+002, 7.346004e+001
7.806260e+002, 7.274915e+001
7.811081e+002, 7.229500e+001
7.815902e+002, 7.246165e+001
7.820723e+002, 7.278156e+001
7.825544e+002, 7.302891e+001
7.830366e+002, 7.319414e+001
7.835187e+002, 7.328806e+001
7.840008e+002, 7.331752e+001
7.844829e+002, 7.329667e+001
7.849650e+002, 7.320744e+001
7.854471e+002, 7.309682e+001
7.859293e+002, 7.318221e+001
7.864114e+002, 7.346966e+001
7.868935e+002, 7.343568e+001
7.873756e+002, 7.281723e+001
7.878577e+002, 7.226061e+001
7.883398e+002, 7.244576e+001
7.888220e+002, 7.325645e+001
7.893040e+002, 7.369589e+001
7.897861e+002, 7.346652e+001
7.902682e+002, 7.331532e+001
7.907504e+002, 7.339751e+001
7.912325e+002, 7.348118e+001
7.917146e+002, 7.333488e+001
7.921967e+002, 7.308781e+001
7.926788e+002, 7.304807e+001
7.931609e+002, 7.334414e+001
7.936431e+002, 7.370302e+001
7.941252e+002, 7.386951e+001
7.946073e+002, 7.394226e+001
7.950894e+002, 7.412535e+001
7.955715e+002, 7.440805e+001
7.960536e+002, 7.465483e+001
7.965358e+002, 7.481767e+001
7.970179e+002, 7.484067e+001
7.975000e+002, 7.461451e+001
7.979821e+002, 7.412095e+001
7.984642e+002, 7.377881e+001
7.989464e+002, 7.353901e+001
7.994285e+002, 7.353695e+001
7.999106e+002, 7.393983e+001
8.003927e+002, 7.449203e+001
8.008748e+002, 7.511223e+001
8.013569e+002, 7.574157e+001
8.018391e+002, 7.612746e+001
8.023212e+002, 7.600521e+001
8.028033e+002, 7.591891e+001
8.032854e+002, 7.622739e+001
8.037675e+002, 7.667728e+001
8.042496e+002, 7.690122e+001
8.047318e+002, 7.695998e+001
8.052139e+002, 7.723622e+001
8.056960e+002, 7.794608e+001
8.061781e+002, 7.881780e+001
8.066602e+002, 7.937157e+001
8.071423e+002, 7.964262e+001
8.076245e+002, 8.012796e+001
8.081066e+002, 8.088741e+001
8.085887e+002, 8.166714e+001
8.090708e+002, 8.234500e+001
8.095529e+002, 8.299490e+001
8.100350e+002, 8.373200e+001
8.105172e+002, 8.457495e+001
8.109993e+002, 8.538443e+001
8.114814e+002, 8.609757e+001
8.119635e+002, 8.685350e+001
8.124456e+002, 8.756174e+001
8.129277e+002, 8.841924e+001
8.134099e+002, 8.976531e+001
8.138920e+002, 9.146543e+001
8.143741e+002, 9.287983e+001
8.148562e+002, 9.351074e+001
8.153383e+002, 9.411305e+001
8.158204e+002, 9.563638e+001
8.163026e+002, 9.767211e+001
8.167847e+002, 9.924604e+001
8.172668e+002, 1.002977e+002
8.177489e+002, 1.014295e+002
8.182310e+002, 1.029836e+002
8.187131e+002, 1.048218e+002
8.191953e+002, 1.067114e+002
8.196774e+002, 1.086848e+002
8.201595e+002, 1.104932e+002
8.206416e+002, 1.119998e+002
8.211237e+002, 1.136283e+002
8.216058e+002, 1.156305e+002
8.220880e+002, 1.177626e+002
8.225701e+002, 1.197325e+002
8.230522e+002, 1.215461e+002
8.235343e+002, 1.233982e+002
8.240164e+002, 1.253992e+002
8.244985e+002, 1.273482e+002
8.249807e+002, 1.291956e+002
8.254628e+002, 1.309320e+002
8.259449e+002, 1.324686e+002
8.264270e+002, 1.338691e+002
8.269091e+002, 1.353522e+002
8.273912e+002, 1.370547e+002
8.278734e+002, 1.388617e+002
8.283555e+002, 1.407607e+002
8.288376e+002, 1.426422e+002
8.293197e+002, 1.439289e+002
8.298018e+002, 1.445610e+002
8.302839e+002, 1.452665e+002
8.307661e+002, 1.464098e+002
8.312482e+002, 1.477958e+002
8.317303e+002, 1.491370e+002
8.322124e+002, 1.504377e+002
8.326945e+002, 1.516043e+002
8.331766e+002, 1.523599e+002
8.336588e+002, 1.533750e+002
8.341409e+002, 1.552118e+002
8.346230e+002, 1.570124e+002
8.351051e+002, 1.581029e+002
8.355872e+002, 1.585131e+002
8.360693e+002, 1.586382e+002
8.365515e+002, 1.585698e+002
8.370336e+002, 1.582833e+002
8.375157e+002, 1.580003e+002
8.379978e+002, 1.573349e+002
8.384799e+002, 1.557895e+002
8.389620e+002, 1.534299e+002
8.394442e+002, 1.506616e+002
8.399263e+002, 1.476834e+002
8.404084e+002, 1.442148e+002
8.408905e+002, 1.396762e+002
8.413726e+002, 1.342808e+002
8.418547e+002, 1.292584e+002
8.423369e+002, 1.246582e+002
8.428190e+002, 1.204040e+002
8.433011e+002, 1.165969e+002
8.437832e+002, 1.128536e+002
8.442653e+002, 1.086381e+002
8.447474e+002, 1.039727e+002
8.452296e+002, 1.001994e+002
8.457117e+002, 9.791517e+001
8.461938e+002, 9.569071e+001
8.466759e+002, 9.335793e+001
8.471580e+002, 9.107911e+001
8.476401e+002, 8.880212e+001
8.481223e+002, 8.667601e+001
8.486044e+002, 8.504935e+001
8.490865e+002, 8.410526e+001
8.495686e+002, 8.323849e+001
8.500507e+002, 8.206791e+001
8.505328e+002, 8.085371e+001
8.510150e+002, 7.979158e+001
8.514971e+002, 7.891044e+001
8.519792e+002, 7.828081e+001
8.524613e+002, 7.790267e+001
8.529434e+002, 7.757034e+001
8.534255e+002, 7.709396e+001
8.539077e+002, 7.650678e+001
8.543898e+002, 7.587852e+001
8.548719e+002, 7.520798e+001
8.553540e+002, 7.469579e+001
8.558361e+002, 7.440643e+001
8.563182e+002, 7.417912e+001
8.568004e+002, 7.389279e+001
8.572825e+002, 7.358144e+001
8.577646e+002, 7.336507e+001
8.582467e+002, 7.338223e+001
8.587288e+002, 7.319105e+001
8.592109e+002, 7.258431e+001
8.596931e+002, 7.201733e+001
8.601752e+002, 7.164799e+001
8.606573e+002, 7.140482e+001
8.611394e+002, 7.119337e+001
8.616215e+002, 7.100437e+001
8.621036e+002, 7.089519e+001
8.625858e+002, 7.113006e+001
8.630679e+002, 7.119214e+001
8.635500e+002, 7.042041e+001
8.640321e+002, 6.942078e+001
8.645142e+002, 6.916598e+001
8.649963e+002, 6.961288e+001
8.654785e+002, 6.997976e+001
8.659606e+002, 6.981007e+001
8.664427e+002, 6.936009e+001
8.669248e+002, 6.895741e+001
8.674069e+002, 6.861201e+001
8.678890e+002, 6.837932e+001
8.683712e+002, 6.826406e+001
8.688533e+002, 6.823917e+001
8.693354e+002, 6.831034e+001
8.698175e+002, 6.841177e+001
8.702996e+002, 6.846944e+001
8.707817e+002, 6.848414e+001
8.712639e+002, 6.836347e+001
8.717459e+002, 6.797475e+001
8.722280e+002, 6.768431e+001
8.727101e+002, 6.767312e+001
8.731923e+002, 6.766637e+001
8.736744e+002, 6.747739e+001
8.741565e+002, 6.716983e+001
8.746386e+002, 6.690419e+001
8.751207e+002, 6.671918e+001
8.756028e+002, 6.654163e+001
8.760850e+002, 6.629904e+001
8.765671e+002, 6.610149e+001
8.770492e+002, 6.603839e+001
8.775313e+002, 6.607565e+001
8.780134e+002, 6.621568e+001
8.784955e+002, 6.641851e+001
8.789777e+002, 6.645457e+001
8.794598e+002, 6.603516e+001
8.799419e+002, 6.547590e+001
8.804240e+002, 6.531786e+001
8.809061e+002, 6.546976e+001
8.813882e+002, 6.564346e+001
8.818704e+002, 6.578228e+001
8.823525e+002, 6.577732e+001
8.828346e+002, 6.553864e+001
8.833167e+002, 6.520330e+001
8.837988e+002, 6.506655e+001
8.842809e+002, 6.515633e+001
8.847631e+002, 6.524823e+001
8.852452e+002, 6.539689e+001
8.857273e+002, 6.540467e+001
8.862094e+002, 6.512997e+001
8.866915e+002, 6.475978e+001
8.871736e+002, 6.447356e+001
8.876558e+002, 6.427232e+001
8.881379e+002, 6.415475e+001
8.886200e+002, 6.427525e+001
8.891021e+002, 6.426137e+001
8.895842e+002, 6.383180e+001
8.900663e+002, 6.345213e+001
8.905485e+002, 6.353089e+001
8.910306e+002, 6.387941e+001
8.915127e+002, 6.412596e+001
8.919948e+002, 6.417410e+001
8.924769e+002, 6.402829e+001
8.929590e+002, 6.347316e+001
8.934412e+002, 6.290869e+001
8.939233e+002, 6.285046e+001
8.944054e+002, 6.309261e+001
8.948875e+002, 6.319255e+001
8.953696e+002, 6.306182e+001
8.958517e+002, 6.285824e+001
8.963339e+002, 6.268376e+001
8.968160e+002, 6.256262e+001
8.972981e+002, 6.261341e+001
8.977802e+002, 6.280041e+001
8.982623e+002, 6.270540e+001
8.987444e+002, 6.226095e+001
8.992266e+002, 6.192059e+001
8.997087e+002, 6.192113e+001
9.001908e+002, 6.206641e+001
9.006729e+002, 6.207050e+001
9.011550e+002, 6.192760e+001
9.016371e+002, 6.176801e+001
9.021193e+002, 6.158948e+001
9.026014e+002, 6.139423e+001
9.030835e+002, 6.106726e+001
9.035656e+002, 6.083867e+001
9.040477e+002, 6.100631e+001
9.045298e+002, 6.137547e+001
9.050120e+002, 6.141589e+001
9.054941e+002, 6.093075e+001
9.059762e+002, 6.052353e+001
9.064583e+002, 6.032518e+001
9.069404e+002, 6.026324e+001
9.074225e+002, 6.047025e+001
9.079047e+002, 6.069781e+001
9.083868e+002, 6.051184e+001
9.088689e+002, 5.992926e+001
9.093510e+002, 5.952913e+001
9.098331e+002, 5.979406e+001
9.103152e+002, 6.015989e+001
9.107974e+002, 5.996116e+001
9.112795e+002, 5.948934e+001
9.117616e+002, 5.926371e+001
9.122437e+002, 5.931903e+001
9.127258e+002, 5.951034e+001
9.132079e+002, 5.976945e+001
9.136901e+002, 5.998938e+001
9.141722e+002, 5.999655e+001
9.146543e+002, 5.983506e+001
9.151364e+002, 5.976340e+001
9.156185e+002, 5.978362e+001
9.161006e+002, 5.984773e+001
9.165828e+002, 5.996807e+001
9.170649e+002, 6.001172e+001
9.175470e+002, 5.984825e+001
9.180291e+002, 5.953948e+001
9.185112e+002, 5.930628e+001
9.189933e+002, 5.914746e+001
9.194755e+002, 5.907374e+001
9.199576e+002, 5.923053e+001
9.204397e+002, 5.926317e+001
9.209218e+002, 5.887721e+001
9.214039e+002, 5.839819e+001
9.218860e+002, 5.820704e+001
9.223682e+002, 5.829603e+001
9.228503e+002, 5.833207e+001
9.233324e+002, 5.817891e+001
9.238145e+002, 5.809034e+001
9.242966e+002, 5.826144e+001
9.247787e+002, 5.841264e+001
9.252609e+002, 5.823771e+001
9.257430e+002, 5.789079e+001
9.262251e+002, 5.774547e+001
9.267072e+002, 5.791678e+001
9.271893e+002, 5.807177e+001
9.276714e+002, 5.793871e+001
9.281536e+002, 5.772956e+001
9.286357e+002, 5.766455e+001
9.291178e+002, 5.768276e+001
9.295999e+002, 5.762133e+001
9.300820e+002, 5.748408e+001
9.305641e+002, 5.748319e+001
9.310463e+002, 5.778275e+001
9.315284e+002, 5.811787e+001
9.320105e+002, 5.798981e+001
9.324926e+002, 5.753179e+001
9.329747e+002, 5.733447e+001
9.334568e+002, 5.741146e+001
9.339390e+002, 5.737462e+001
9.344211e+002, 5.706208e+001
9.349032e+002, 5.680591e+001
9.353853e+002, 5.700841e+001
9.358674e+002, 5.755976e+001
9.363495e+002, 5.779271e+001
9.368317e+002, 5.763008e+001
9.373138e+002, 5.748223e+001
9.377959e+002, 5.738770e+001
9.382780e+002, 5.732609e+001
9.387601e+002, 5.727191e+001
9.392422e+002, 5.725564e+001
9.397244e+002, 5.736205e+001
9.402065e+002, 5.764228e+001
9.406886e+002, 5.773899e+001
9.411707e+002, 5.754099e+001
9.416528e+002, 5.731804e+001
9.421349e+002, 5.703659e+001
9.426171e+002, 5.682196e+001
9.430992e+002, 5.684733e+001
9.435813e+002, 5.700196e+001
9.440634e+002, 5.697864e+001
9.445455e+002, 5.665534e+001
9.450276e+002, 5.639607e+001
9.455098e+002, 5.631430e+001
9.459919e+002, 5.635374e+001
9.464740e+002, 5.664988e+001
9.469561e+002, 5.694918e+001
9.474382e+002, 5.680127e+001
9.479203e+002, 5.626408e+001
9.484025e+002, 5.593565e+001
9.488846e+002, 5.620682e+001
9.493667e+002, 5.661005e+001
9.498488e+002, 5.678859e+001
9.503309e+002, 5.675931e+001
9.508130e+002, 5.642081e+001
9.512952e+002, 5.590009e+001
9.517773e+002, 5.560022e+001
9.522594e+002, 5.564513e+001
9.527415e+002, 5.577338e+001
9.532236e+002, 5.572909e+001
9.537057e+002, 5.559643e+001
9.541878e+002, 5.559985e+001
9.546699e+002, 5.571296e+001
9.551520e+002, 5.576687e+001
9.556342e+002, 5.573776e+001
9.561163e+002, 5.563157e+001
9.565984e+002, 5.543736e+001
9.570805e+002, 5.524860e+001
9.575626e+002, 5.523687e+001
9.580447e+002, 5.539701e+001
9.585269e+002, 5.540980e+001
9.590090e+002, 5.522660e+001
9.594911e+002, 5.510316e+001
9.599732e+002, 5.508932e+001
9.604553e+002, 5.516255e+001
9.609374e+002, 5.533380e+001
9.614196e+002, 5.556432e+001
9.619017e+002, 5.576099e+001
9.623838e+002, 5.598873e+001
9.628659e+002, 5.597326e+001
9.633480e+002, 5.530953e+001
9.638301e+002, 5.495360e+001
9.643123e+002, 5.550206e+001
9.647944e+002, 5.617287e+001
9.652765e+002, 5.627205e+001
9.657586e+002, 5.589219e+001
9.662407e+002, 5.553390e+001
9.667228e+002, 5.524025e+001
9.672050e+002, 5.500685e+001
9.676871e+002, 5.475223e+001
9.681692e+002, 5.464499e+001
9.686513e+002, 5.497954e+001
9.691334e+002, 5.540918e+001
9.696155e+002, 5.541761e+001
9.700977e+002, 5.499849e+001
9.705798e+002, 5.464503e+001
9.710619e+002, 5.453056e+001
9.715440e+002, 5.460796e+001
9.720261e+002, 5.507035e+001
9.725082e+002, 5.553580e+001
9.729904e+002, 5.552375e+001
9.734725e+002, 5.518432e+001
9.739546e+002, 5.490265e+001
9.744367e+002, 5.480195e+001
9.749188e+002, 5.480917e+001
9.754009e+002, 5.496966e+001
9.758831e+002, 5.509268e+001
9.763652e+002, 5.479261e+001
9.768473e+002, 5.430245e+001
9.773294e+002, 5.417091e+001
9.778115e+002, 5.439262e+001
9.782936e+002, 5.459193e+001
9.787758e+002, 5.459040e+001
9.792579e+002, 5.444562e+001
9.797400e+002, 5.415201e+001
9.802221e+002, 5.380024e+001
9.807042e+002, 5.374342e+001
9.811863e+002, 5.394485e+001
9.816685e+002, 5.411774e+001
9.821506e+002, 5.420508e+001
9.826327e+002, 5.423301e+001
9.831148e+002, 5.421608e+001
9.835969e+002, 5.415963e+001
9.840790e+002, 5.405621e+001
9.845612e+002, 5.390525e+001
9.850433e+002, 5.384278e+001
9.855254e+002, 5.387948e+001
9.860075e+002, 5.396165e+001
9.864896e+002, 5.411128e+001
9.869717e+002, 5.417371e+001
9.874539e+002, 5.396985e+001
9.879360e+002, 5.363202e+001
9.884181e+002, 5.360736e+001
9.889002e+002, 5.405236e+001
9.893823e+002, 5.424137e+001
9.898644e+002, 5.402688e+001
9.903466e+002, 5.384389e+001
9.908287e+002, 5.389014e+001
9.913108e+002, 5.395103e+001
9.917929e+002, 5.379513e+001
9.922750e+002, 5.346517e+001
9.927571e+002, 5.321347e+001
9.932393e+002, 5.302196e+001
9.937214e+002, 5.294255e+001
9.942035e+002, 5.305994e+001
9.946856e+002, 5.318935e+001
9.951677e+002, 5.323693e+001
9.956498e+002, 5.327718e+001
9.961320e+002, 5.345734e+001
9.966141e+002, 5.373708e+001
9.970962e+002, 5.379346e+001
9.975783e+002, 5.335059e+001
9.980604e+002, 5.303895e+001
9.985425e+002, 5.310617e+001
9.990247e+002, 5.325836e+001
9.995068e+002, 5.333547e+001
9.999889e+002, 5.336823e+001
1.000471e+003, 5.345446e+001
1.000953e+003, 5.358474e+001
1.001435e+003, 5.356953e+001
1.001917e+003, 5.322581e+001
1.002399e+003, 5.287821e+001
1.002882e+003, 5.269907e+001
1.003364e+003, 5.260059e+001
1.003846e+003, 5.249236e+001
1.004328e+003, 5.240187e+001
1.004810e+003, 5.241056e+001
1.005292e+003, 5.252923e+001
1.005774e+003, 5.265830e+001
1.006256e+003, 5.275916e+001
1.006739e+003, 5.281337e+001
1.007221e+003, 5.280181e+001
1.007703e+003, 5.273455e+001
1.008185e+003, 5.256584e+001
1.008667e+003, 5.236003e+001
1.009149e+003, 5.235218e+001
1.009631e+003, 5.259669e+001
1.010113e+003, 5.270457e+001
1.010595e+003, 5.214460e+001
1.011078e+003, 5.145942e+001
1.011560e+003, 5.157647e+001
1.012042e+003, 5.217907e+001
1.012524e+003, 5.258266e+001
1.013006e+003, 5.270644e+001
1.013488e+003, 5.265154e+001
1.013970e+003, 5.246617e+001
1.014452e+003, 5.223655e+001
1.014935e+003, 5.200729e+001
1.015417e+003, 5.184579e+001
1.015899e+003, 5.202290e+001
1.016381e+003, 5.243752e+001
1.016863e+003, 5.257875e+001
1.017345e+003, 5.239237e+001
1.017827e+003, 5.221776e+001
1.018309e+003, 5.223614e+001
1.018791e+003, 5.221317e+001
1.019274e+003, 5.173180e+001
1.019756e+003, 5.095777e+001
1.020238e+003, 5.076334e+001
1.020720e+003, 5.112554e+001
1.021202e+003, 5.141411e+001
1.021684e+003, 5.151988e+001
1.022166e+003, 5.155941e+001
1.022648e+003, 5.159760e+001
1.023130e+003, 5.161649e+001
1.023613e+003, 5.157856e+001
1.024095e+003, 5.148906e+001
1.024577e+003, 5.145160e+001
1.025059e+003, 5.147807e+001
1.025541e+003, 5.145058e+001
1.026023e+003, 5.134002e+001
1.026505e+003, 5.119168e+001
1.026987e+003, 5.100738e+001
1.027469e+003, 5.086039e+001
1.027952e+003, 5.090253e+001
1.028434e+003, 5.114401e+001
1.028916e+003, 5.133570e+001
1.029398e+003, 5.149549e+001
1.029880e+003, 5.153160e+001
1.030362e+003, 5.137740e+001
1.030844e+003, 5.121777e+001
1.031326e+003, 5.119085e+001
1.031809e+003, 5.121789e+001
1.032291e+003, 5.113213e+001
1.032773e+003, 5.091638e+001
1.033255e+003, 5.072775e+001
1.033737e+003, 5.049023e+001
1.034219e+003, 5.046197e+001
1.034701e+003, 5.082812e+001
1.035183e+003, 5.121099e+001
1.035666e+003, 5.139328e+001
1.036148e+003, 5.140218e+001
1.036630e+003, 5.126648e+001
1.037112e+003, 5.094257e+001
1.037594e+003, 5.072176e+001
1.038076e+003, 5.074475e+001
1.038558e+003, 5.064040e+001
1.039040e+003, 5.009652e+001
1.039522e+003, 4.967931e+001
1.040005e+003, 4.992673e+001
1.040487e+003, 5.050279e+001
1.040969e+003, 5.066648e+001
1.041451e+003, 5.031385e+001
1.041933e+003, 5.010370e+001
1.042415e+003, 5.012090e+001
1.042897e+003, 5.017904e+001
1.043379e+003, 5.030672e+001
1.043861e+003, 5.040327e+001
1.044344e+003, 5.037822e+001
1.044826e+003, 5.028554e+001
1.045308e+003, 5.021956e+001
1.045790e+003, 5.018115e+001
1.046272e+003, 5.021201e+001
1.046754e+003, 5.045814e+001
1.047236e+003, 5.057942e+001
1.047718e+003, 5.032478e+001
1.048201e+003, 5.008313e+001
1.048683e+003, 5.023903e+001
1.049165e+003, 5.055647e+001
1.049647e+003, 5.053719e+001
1.050129e+003, 5.008965e+001
1.050611e+003, 4.975331e+001
1.051093e+003, 4.963276e+001
1.051575e+003, 4.963564e+001
1.052057e+003, 4.984748e+001
1.052540e+003, 5.006374e+001
1.053022e+003, 5.008369e+001
1.053504e+003, 5.002266e+001
1.053986e+003, 5.020024e+001
1.054468e+003, 5.067559e+001
1.054950e+003, 5.073672e+001
1.055432e+003, 4.968658e+001
1.055914e+003, 4.888380e+001
1.056396e+003, 4.891519e+001
1.056879e+003, 4.924301e+001
1.057361e+003, 4.964119e+001
1.057843e+003, 4.996998e+001
1.058325e+003, 5.002717e+001
1.058807e+003, 4.978806e+001
1.059289e+003, 4.952850e+001
1.059771e+003, 4.926650e+001
1.060253e+003, 4.909641e+001
1.060736e+003, 4.907856e+001
1.061218e+003, 4.914088e+001
1.061700e+003, 4.930556e+001
1.062182e+003, 4.947603e+001
1.062664e+003, 4.948634e+001
1.063146e+003, 4.932215e+001
1.063628e+003, 4.916295e+001
1.064110e+003, 4.902845e+001
1.064593e+003, 4.897421e+001
1.065075e+003, 4.911654e+001
1.065557e+003, 4.925528e+001
1.066039e+003, 4.919981e+001
1.066521e+003, 4.905602e+001
1.067003e+003, 4.900896e+001
1.067485e+003, 4.907530e+001
1.067967e+003, 4.912325e+001
1.068449e+003, 4.912933e+001
1.068932e+003, 4.906365e+001
1.069414e+003, 4.872701e+001
1.069896e+003, 4.850190e+001
1.070378e+003, 4.890860e+001
1.070860e+003, 4.947863e+001
1.071342e+003, 4.937516e+001
1.071824e+003, 4.865423e+001
1.072306e+003, 4.835909e+001
1.072788e+003, 4.909660e+001
1.073271e+003, 4.979193e+001
1.073753e+003, 4.995068e+001
1.074235e+003, 4.988066e+001
1.074717e+003, 4.977930e+001
1.075199e+003, 4.960318e+001
1.075681e+003, 4.914453e+001
1.076163e+003, 4.850905e+001
1.076645e+003, 4.823320e+001
1.077127e+003, 4.863242e+001
1.077610e+003, 4.897382e+001
1.078092e+003, 4.878423e+001
1.078574e+003, 4.856779e+001
1.079056e+003, 4.877200e+001
1.079538e+003, 4.907051e+001
1.080020e+003, 4.895387e+001
1.080502e+003, 4.854351e+001
1.080984e+003, 4.846085e+001
1.081467e+003, 4.899460e+001
1.081949e+003, 4.936485e+001
1.082431e+003, 4.903383e+001
1.082913e+003, 4.865267e+001
1.083395e+003, 4.860468e+001
1.083877e+003, 4.872484e+001
1.084359e+003, 4.886208e+001
1.084841e+003, 4.898918e+001
1.085323e+003, 4.911551e+001
1.085806e+003, 4.925026e+001
1.086288e+003, 4.930898e+001
1.086770e+003, 4.914064e+001
1.087252e+003, 4.903033e+001
1.087734e+003, 4.925443e+001
1.088216e+003, 4.949295e+001
1.088698e+003, 4.938012e+001
1.089180e+003, 4.906119e+001
1.089662e+003, 4.891682e+001
1.090145e+003, 4.902529e+001
1.090627e+003, 4.903376e+001
1.091109e+003, 4.856968e+001
1.091591e+003, 4.829826e+001
1.092073e+003, 4.878447e+001
1.092555e+003, 4.930225e+001
1.093037e+003, 4.921349e+001
1.093519e+003, 4.877787e+001
1.094002e+003, 4.848773e+001
1.094484e+003, 4.840690e+001
1.094966e+003, 4.827913e+001
1.095448e+003, 4.787311e+001
1.095930e+003, 4.763343e+001
1.096412e+003, 4.784060e+001
1.096894e+003, 4.811362e+001
1.097376e+003, 4.827373e+001
1.097859e+003, 4.831336e+001
1.098341e+003, 4.820249e+001
1.098823e+003, 4.796935e+001
1.099305e+003, 4.777061e+001
1.099787e+003, 4.758252e+001
1.100269e+003, 4.755657e+001
1.100751e+003, 4.791582e+001
1.101233e+003, 4.822746e+001
1.101715e+003, 4.822969e+001
1.102198e+003, 4.811555e+001
1.102680e+003, 4.807656e+001
1.103162e+003, 4.811151e+001
1.103644e+003, 4.818091e+001
1.104126e+003, 4.837171e+001
1.104608e+003, 4.829961e+001
1.105090e+003, 4.757128e+001
1.105572e+003, 4.699446e+001
1.106054e+003, 4.691958e+001
1.106537e+003, 4.703892e+001
1.107019e+003, 4.707266e+001
1.107501e+003, 4.710852e+001
1.107983e+003, 4.745103e+001
1.108465e+003, 4.823257e+001
1.108947e+003, 4.868000e+001
1.109429e+003, 4.847887e+001
1.109911e+003, 4.828994e+001
1.110394e+003, 4.826717e+001
1.110876e+003, 4.826809e+001
1.111358e+003, 4.823457e+001
1.111840e+003, 4.815522e+001
1.112322e+003, 4.800221e+001
1.112804e+003, 4.777171e+001
1.113286e+003, 4.754878e+001
1.113768e+003, 4.724602e+001
1.114250e+003, 4.709973e+001
1.114733e+003, 4.722497e+001
1.115215e+003, 4.737663e+001
1.115697e+003, 4.748649e+001
1.116179e+003, 4.753890e+001
1.116661e+003, 4.749519e+001
1.117143e+003, 4.737212e+001
1.117625e+003, 4.729443e+001
1.118107e+003, 4.729362e+001
1.118589e+003, 4.725934e+001
1.119072e+003, 4.713855e+001
1.119554e+003, 4.708867e+001
1.120036e+003, 4.715061e+001
1.120518e+003, 4.732254e+001
1.121000e+003, 4.765973e+001
1.121482e+003, 4.806719e+001
1.121964e+003, 4.826012e+001
1.122446e+003, 4.821397e+001
1.122929e+003, 4.808714e+001
1.123411e+003, 4.784464e+001
1.123893e+003, 4.763182e+001
1.124375e+003, 4.746665e+001
1.124857e+003, 4.738089e+001
1.125339e+003, 4.741282e+001
1.125821e+003, 4.749574e+001
1.126303e+003, 4.750743e+001
1.126786e+003, 4.745541e+001
1.127268e+003, 4.750889e+001
1.127750e+003, 4.769509e+001
1.128232e+003, 4.768757e+001
1.128714e+003, 4.739697e+001
1.129196e+003, 4.733945e+001
1.129678e+003, 4.781300e+001
1.130160e+003, 4.820701e+001
1.130642e+003, 4.774035e+001
1.131125e+003, 4.676323e+001
1.131607e+003, 4.661423e+001
1.132089e+003, 4.723034e+001
1.132571e+003, 4.745934e+001
1.133053e+003, 4.724452e+001
1.133535e+003, 4.701117e+001
1.134017e+003, 4.688976e+001
1.134499e+003, 4.684863e+001
1.134981e+003, 4.686449e+001
1.135464e+003, 4.693900e+001
1.135946e+003, 4.711362e+001
1.136428e+003, 4.734496e+001
1.136910e+003, 4.748771e+001
1.137392e+003, 4.753217e+001
1.137874e+003, 4.738851e+001
1.138356e+003, 4.707931e+001
1.138838e+003, 4.687455e+001
1.139321e+003, 4.691193e+001
1.139803e+003, 4.704458e+001
1.140285e+003, 4.713002e+001
1.140767e+003, 4.718030e+001
1.141249e+003, 4.727209e+001
1.141731e+003, 4.732573e+001
1.142213e+003, 4.708008e+001
1.142695e+003, 4.662554e+001
1.143177e+003, 4.632207e+001
1.143660e+003, 4.627917e+001
1.144142e+003, 4.635104e+001
1.144624e+003, 4.643745e+001
1.145106e+003, 4.659009e+001
1.145588e+003, 4.698915e+001
1.146070e+003, 4.738430e+001
1.146552e+003, 4.734027e+001
1.147034e+003, 4.710460e+001
1.147516e+003, 4.724091e+001
1.147999e+003, 4.771631e+001
1.148481e+003, 4.794928e+001
1.148963e+003, 4.766249e+001
1.149445e+003, 4.731400e+001
1.149927e+003, 4.708503e+001
1.150409e+003, 4.701918e+001
1.150891e+003, 4.735009e+001
1.151373e+003, 4.769593e+001
1.151856e+003, 4.753975e+001
1.152338e+003, 4.708488e+001
1.152820e+003, 4.689337e+001
1.153302e+003, 4.708181e+001
1.153784e+003, 4.723438e+001
1.154266e+003, 4.712670e+001
1.154748e+003, 4.708228e+001
1.155230e+003, 4.731154e+001
1.155713e+003, 4.752245e+001
1.156195e+003, 4.753315e+001
1.156677e+003, 4.741921e+001
1.157159e+003, 4.726631e+001
1.157641e+003, 4.708826e+001
1.158123e+003, 4.691690e+001
1.158605e+003, 4.668871e+001
1.159087e+003, 4.660819e+001
1.159569e+003, 4.679206e+001
1.160052e+003, 4.698236e+001
1.160534e+003, 4.708300e+001
1.161016e+003, 4.720441e+001
1.161498e+003, 4.751556e+001
1.161980e+003, 4.785375e+001
1.162462e+003, 4.783430e+001
1.162944e+003, 4.741338e+001
1.163426e+003, 4.709809e+001
1.163908e+003, 4.687718e+001
1.164391e+003, 4.681182e+001
1.164873e+003, 4.695882e+001
1.165355e+003, 4.711977e+001
1.165837e+003, 4.720228e+001
1.166319e+003, 4.725724e+001
1.166801e+003, 4.735030e+001
1.167283e+003, 4.746093e+001
1.167765e+003, 4.749120e+001
1.168247e+003, 4.743653e+001
1.168730e+003, 4.744612e+001
1.169212e+003, 4.752749e+001
1.169694e+003, 4.764606e+001
1.170176e+003, 4.779485e+001
1.170658e+003, 4.785528e+001
1.171140e+003, 4.773865e+001
1.171622e+003, 4.753555e+001
1.172104e+003, 4.736536e+001
1.172587e+003, 4.723718e+001
1.173069e+003, 4.720113e+001
1.173551e+003, 4.723283e+001
1.174033e+003, 4.712558e+001
1.174515e+003, 4.695806e+001
1.174997e+003, 4.731756e+001
1.175479e+003, 4.838178e+001
1.175961e+003, 4.946519e+001
1.176443e+003, 5.013113e+001
1.176926e+003, 5.025536e+001
1.177408e+003, 4.919947e+001
1.177890e+003, 4.786006e+001
1.178372e+003, 4.764637e+001
1.178854e+003, 4.814189e+001
1.179336e+003, 4.844874e+001
1.179818e+003, 4.841356e+001
1.180300e+003, 4.819898e+001
1.180782e+003, 4.783191e+001
1.181265e+003, 4.763021e+001
1.181747e+003, 4.804314e+001
1.182229e+003, 4.837775e+001
1.182711e+003, 4.802144e+001
1.183193e+003, 4.751416e+001
1.183675e+003, 4.736340e+001
1.184157e+003, 4.746729e+001
1.184639e+003, 4.757939e+001
1.185122e+003, 4.765945e+001
1.185604e+003, 4.771013e+001
1.186086e+003, 4.765896e+001
1.186568e+003, 4.769713e+001
1.187050e+003, 4.797350e+001
1.187532e+003, 4.819931e+001
1.188014e+003, 4.825216e+001
1.188496e+003, 4.819699e+001
1.188979e+003, 4.798155e+001
1.189461e+003, 4.774028e+001
1.189943e+003, 4.794543e+001
1.190425e+003, 4.878265e+001
1.190907e+003, 4.891844e+001
1.191389e+003, 4.801567e+001
1.191871e+003, 4.735947e+001
1.192353e+003, 4.718616e+001
1.192835e+003, 4.719115e+001
1.193318e+003, 4.724889e+001
1.193800e+003, 4.733517e+001
1.194282e+003, 4.741363e+001
1.194764e+003, 4.750403e+001
1.195246e+003, 4.776997e+001
1.195728e+003, 4.819032e+001
1.196210e+003, 4.806719e+001
1.196692e+003, 4.740284e+001
1.197174e+003, 4.685534e+001
1.197657e+003, 4.659884e+001
1.198139e+003, 4.664679e+001
1.198621e+003, 4.702499e+001
1.199103e+003, 4.746796e+001
1.199585e+003, 4.764350e+001
1.200067e+003, 4.761913e+001
1.200549e+003, 4.742900e+001
1.201031e+003, 4.718829e+001
1.201514e+003, 4.718402e+001
1.201996e+003, 4.736644e+001
1.202478e+003, 4.753152e+001
1.202960e+003, 4.760773e+001
1.203442e+003, 4.754931e+001
1.203924e+003, 4.725927e+001
1.204406e+003, 4.704383e+001
1.204888e+003, 4.724681e+001
1.205370e+003, 4.750119e+001
1.205853e+003, 4.747443e+001
1.206335e+003, 4.734168e+001
1.206817e+003, 4.731995e+001
1.207299e+003, 4.739384e+001
1.207781e+003, 4.746581e+001
1.208263e+003, 4.751905e+001
1.208745e+003, 4.753016e+001
1.209227e+003, 4.748346e+001
1.209709e+003, 4.740882e+001
1.210192e+003, 4.722766e+001
1.210674e+003, 4.711946e+001
1.211156e+003, 4.724249e+001
1.211638e+003, 4.742035e+001
1.212120e+003, 4.745549e+001
1.212602e+003, 4.740350e+001
1.213084e+003, 4.749929e+001
1.213566e+003, 4.782086e+001
1.214049e+003, 4.785214e+001
1.214531e+003, 4.746064e+001
1.215013e+003, 4.735234e+001
1.215495e+003, 4.774054e+001
1.215977e+003, 4.800470e+001
1.216459e+003, 4.778872e+001
1.216941e+003, 4.743644e+001
1.217423e+003, 4.735034e+001
1.217906e+003, 4.749265e+001
1.218388e+003, 4.784218e+001
1.218870e+003, 4.831882e+001
1.219352e+003, 4.847296e+001
1.219834e+003, 4.834512e+001
1.220316e+003, 4.831545e+001
1.220798e+003, 4.843048e+001
1.221280e+003, 4.829779e+001
1.221762e+003, 4.768806e+001
1.222245e+003, 4.720797e+001
1.222727e+003, 4.768180e+001
1.223209e+003, 4.838985e+001
1.223691e+003, 4.854430e+001
1.224173e+003, 4.840372e+001
1.224655e+003, 4.821419e+001
1.225137e+003, 4.804362e+001
1.225619e+003, 4.796863e+001
1.226101e+003, 4.798113e+001
1.226584e+003, 4.796240e+001
1.227066e+003, 4.788367e+001
1.227548e+003, 4.773668e+001
1.228030e+003, 4.732160e+001
1.228512e+003, 4.709834e+001
1.228994e+003, 4.729087e+001
1.229476e+003, 4.772063e+001
1.229958e+003, 4.851199e+001
1.230441e+003, 4.930708e+001
1.230923e+003, 4.942113e+001
1.231405e+003, 4.887960e+001
1.231887e+003, 4.856498e+001
1.232369e+003, 4.853724e+001
1.232851e+003, 4.855180e+001
1.233333e+003, 4.859070e+001
1.233815e+003, 4.872455e+001
1.234297e+003, 4.901714e+001
1.234780e+003, 4.920348e+001
1.235262e+003, 4.907137e+001
1.235744e+003, 4.880780e+001
1.236226e+003, 4.875104e+001
1.236708e+003, 4.882896e+001
1.237190e+003, 4.866619e+001
1.237672e+003, 4.835901e+001
1.238154e+003, 4.840782e+001
1.238636e+003, 4.876717e+001
1.239119e+003, 4.893250e+001
1.239601e+003, 4.879329e+001
1.240083e+003, 4.872656e+001
1.240565e+003, 4.897403e+001
1.241047e+003, 4.935877e+001
1.241529e+003, 4.983629e+001
1.242011e+003, 5.023785e+001
1.242493e+003, 5.034890e+001
1.242975e+003, 5.032999e+001
1.243458e+003, 5.039872e+001
1.243940e+003, 5.049813e+001
1.244422e+003, 5.039541e+001
1.244904e+003, 5.008646e+001
1.245386e+003, 5.002588e+001
1.245868e+003, 5.061194e+001
1.246350e+003, 5.093393e+001
1.246832e+003, 5.061546e+001
1.247315e+003, 5.030954e+001
1.247797e+003, 5.011674e+001
1.248279e+003, 5.015969e+001
1.248761e+003, 5.062269e+001
1.249243e+003, 5.128346e+001
1.249725e+003, 5.175151e+001
1.250207e+003, 5.203283e+001
1.250689e+003, 5.224501e+001
1.251172e+003, 5.237779e+001
1.251654e+003, 5.253807e+001
1.252136e+003, 5.273312e+001
1.252618e+003, 5.299733e+001
1.253100e+003, 5.334054e+001
1.253582e+003, 5.367014e+001
1.254064e+003, 5.391438e+001
1.254546e+003, 5.418029e+001
1.255028e+003, 5.465661e+001
1.255510e+003, 5.522150e+001
1.255993e+003, 5.570600e+001
1.256475e+003, 5.607144e+001
1.256957e+003, 5.609352e+001
1.257439e+003, 5.596820e+001
1.257921e+003, 5.626033e+001
1.258403e+003, 5.698610e+001
1.258885e+003, 5.747807e+001
1.259367e+003, 5.734565e+001
1.259850e+003, 5.736316e+001
1.260332e+003, 5.796953e+001
1.260814e+003, 5.870518e+001
1.261296e+003, 5.970408e+001
1.261778e+003, 6.039408e+001
1.262260e+003, 5.994209e+001
1.262742e+003, 5.913367e+001
1.263224e+003, 5.936639e+001
1.263707e+003, 6.047587e+001
1.264189e+003, 6.098867e+001
1.264671e+003, 6.064770e+001
1.265153e+003, 6.063804e+001
1.265635e+003, 6.111115e+001
1.266117e+003, 6.119851e+001
1.266599e+003, 6.063755e+001
1.267081e+003, 6.016068e+001
1.267563e+003, 6.018337e+001
1.268046e+003, 6.042427e+001
1.268528e+003, 6.061390e+001
1.269010e+003, 6.065226e+001
1.269492e+003, 6.013179e+001
1.269974e+003, 5.935353e+001
1.270456e+003, 5.916050e+001
1.270938e+003, 5.936132e+001
1.271420e+003, 5.930867e+001
1.271902e+003, 5.896381e+001
1.272385e+003, 5.872630e+001
1.272867e+003, 5.874937e+001
1.273349e+003, 5.866039e+001
1.273831e+003, 5.798231e+001
1.274313e+003, 5.749002e+001
1.274795e+003, 5.781718e+001
1.275277e+003, 5.817725e+001
1.275759e+003, 5.800171e+001
1.276242e+003, 5.760941e+001
1.276724e+003, 5.739170e+001
1.277206e+003, 5.728438e+001
1.277688e+003, 5.699246e+001
1.278170e+003, 5.646149e+001
1.278652e+003, 5.627218e+001
1.279134e+003, 5.655223e+001
1.279616e+003, 5.671339e+001
1.280099e+003, 5.668733e+001
1.280581e+003, 5.654951e+001
1.281063e+003, 5.630670e+001
1.281545e+003, 5.614907e+001
1.282027e+003, 5.623878e+001
1.282509e+003, 5.642835e+001
1.282991e+003, 5.646296e+001
1.283473e+003, 5.641011e+001
1.283955e+003, 5.642600e+001
##END=



