##NAMES=Witherite
##RRUFFID=R050267
##IDEAL CHEMISTRY=BaCO_3_
##LOCALITY=Fallowfields mine, Alston Moor, England
##OWNER=RRUFF
##SOURCE=Marcus Origlieri
##DESCRIPTION=Colorless granular aggregate
##STATUS=The identification of this mineral has been confirmed by X-ray diffraction and chemical analysis
##URL=rruff.info/R050267
##MEASURED CHEMISTRY=(Ba_0.96_Sr_0.04_)CO_3_
92.54132, 0.0000000E+00
93.02344, 91.52625
93.50555, 86.00683
93.98767, 83.99708
94.46979, 86.59316
94.95190, 92.63585
95.43402, 99.62215
95.91614, 107.5017
96.39825, 116.2414
96.88037, 126.0688
97.36249, 136.9550
97.84460, 147.5407
98.32672, 156.0721
98.80884, 162.7829
99.29095, 172.9821
99.77307, 187.1510
100.2552, 204.3494
100.7373, 222.3160
101.2194, 240.6562
101.7015, 260.6132
102.1837, 283.3356
102.6658, 309.1415
103.1479, 335.4084
103.6300, 361.7346
104.1121, 388.1847
104.5942, 415.0740
105.0763, 442.9112
105.5585, 470.8206
106.0406, 498.7021
106.5227, 527.0477
107.0048, 554.0790
107.4869, 579.2614
107.9690, 602.5233
108.4512, 624.7015
108.9333, 644.0922
109.4154, 663.4490
109.8975, 685.5605
110.3796, 711.1598
110.8617, 739.1105
111.3439, 769.2433
111.8260, 801.5454
112.3081, 836.0684
112.7902, 871.4987
113.2723, 909.5369
113.7544, 951.9996
114.2366, 1001.805
114.7187, 1054.052
115.2008, 1106.721
115.6829, 1160.099
116.1650, 1212.761
116.6471, 1264.581
117.1293, 1315.960
117.6114, 1368.322
118.0935, 1423.876
118.5756, 1479.344
119.0577, 1533.147
119.5398, 1584.061
120.0220, 1633.859
120.5041, 1685.017
120.9862, 1736.677
121.4683, 1785.368
121.9504, 1826.444
122.4325, 1864.313
122.9147, 1904.404
123.3968, 1950.783
123.8789, 1997.672
124.3610, 2037.675
124.8431, 2071.639
125.3252, 2107.043
125.8074, 2149.436
126.2895, 2197.332
126.7716, 2247.883
127.2537, 2298.378
127.7358, 2351.679
128.2179, 2411.272
128.7001, 2476.846
129.1822, 2548.841
129.6643, 2628.188
130.1464, 2714.404
130.6285, 2805.476
131.1106, 2898.606
131.5928, 2995.652
132.0749, 3104.710
132.5570, 3225.129
133.0391, 3352.917
133.5212, 3484.448
134.0033, 3613.829
134.4855, 3722.019
134.9676, 3811.499
135.4497, 3894.636
135.9318, 3959.473
136.4139, 4007.536
136.8960, 4035.960
137.3782, 4037.333
137.8603, 4009.655
138.3424, 3969.626
138.8245, 3922.042
139.3066, 3863.738
139.7887, 3819.400
140.2709, 3790.504
140.7530, 3776.887
141.2351, 3779.689
141.7172, 3800.768
142.1993, 3833.190
142.6814, 3873.219
143.1636, 3923.687
143.6457, 3974.113
144.1278, 4022.492
144.6099, 4069.346
145.0920, 4122.720
145.5741, 4185.272
146.0563, 4250.876
146.5384, 4313.263
147.0205, 4366.728
147.5026, 4426.735
147.9847, 4494.905
148.4668, 4570.722
148.9490, 4657.407
149.4311, 4752.016
149.9132, 4859.110
150.3953, 4981.870
150.8774, 5131.458
151.3595, 5284.463
151.8417, 5438.236
152.3238, 5594.400
152.8059, 5743.561
153.2880, 5895.793
153.7701, 6037.027
154.2522, 6153.927
154.7344, 6232.085
155.2165, 6297.299
155.6986, 6348.812
156.1807, 6377.395
156.6628, 6430.579
157.1449, 6531.754
157.6271, 6656.934
158.1092, 6774.884
158.5913, 6918.351
159.0734, 7020.571
159.5555, 7061.846
160.0376, 7049.544
160.5198, 6948.997
161.0019, 6728.710
161.4840, 6416.265
161.9661, 6063.659
162.4482, 5640.280
162.9303, 5214.965
163.4125, 4822.464
163.8946, 4463.228
164.3767, 4148.395
164.8588, 3886.017
165.3409, 3672.954
165.8230, 3495.277
166.3052, 3359.447
166.7873, 3249.707
167.2694, 3154.830
167.7515, 3074.137
168.2336, 3004.607
168.7157, 2944.933
169.1978, 2895.279
169.6800, 2854.344
170.1621, 2825.932
170.6442, 2804.209
171.1263, 2782.756
171.6084, 2759.354
172.0905, 2736.779
172.5727, 2716.531
173.0548, 2698.846
173.5369, 2684.444
174.0190, 2674.738
174.5011, 2668.218
174.9832, 2662.915
175.4654, 2658.776
175.9475, 2655.107
176.4296, 2650.416
176.9117, 2644.967
177.3938, 2641.112
177.8759, 2640.814
178.3581, 2643.322
178.8402, 2647.591
179.3223, 2655.554
179.8044, 2663.304
180.2865, 2664.667
180.7686, 2659.770
181.2508, 2652.463
181.7329, 2646.289
182.2150, 2640.331
182.6971, 2631.825
183.1792, 2617.323
183.6613, 2601.045
184.1435, 2592.639
184.6256, 2592.216
185.1077, 2593.483
185.5898, 2589.371
186.0719, 2581.346
186.5540, 2575.650
187.0362, 2576.085
187.5183, 2579.943
188.0004, 2579.156
188.4825, 2573.259
188.9646, 2566.862
189.4467, 2564.152
189.9289, 2565.068
190.4110, 2569.302
190.8931, 2579.189
191.3752, 2592.458
191.8573, 2599.165
192.3394, 2598.509
192.8216, 2595.644
193.3037, 2596.763
193.7858, 2601.762
194.2679, 2606.629
194.7500, 2609.643
195.2321, 2611.187
195.7143, 2613.465
196.1964, 2616.188
196.6785, 2620.475
197.1606, 2628.263
197.6427, 2639.846
198.1248, 2651.867
198.6070, 2663.417
199.0891, 2674.495
199.5712, 2685.303
200.0533, 2696.004
200.5354, 2705.980
201.0175, 2713.252
201.4997, 2717.169
201.9818, 2723.148
202.4639, 2733.537
202.9460, 2748.351
203.4281, 2763.829
203.9102, 2780.218
204.3924, 2796.879
204.8745, 2812.361
205.3566, 2826.055
205.8387, 2841.616
206.3208, 2860.710
206.8029, 2883.640
207.2851, 2905.438
207.7672, 2924.887
208.2493, 2944.967
208.7314, 2970.864
209.2135, 3004.078
209.6956, 3038.072
210.1778, 3069.400
210.6599, 3097.376
211.1420, 3130.642
211.6241, 3170.171
212.1062, 3213.284
212.5883, 3255.293
213.0705, 3295.007
213.5526, 3337.126
214.0347, 3381.883
214.5168, 3429.284
214.9989, 3482.762
215.4810, 3545.460
215.9632, 3611.369
216.4453, 3670.505
216.9274, 3723.337
217.4095, 3769.383
217.8916, 3808.499
218.3737, 3840.921
218.8559, 3864.923
219.3380, 3881.675
219.8201, 3888.795
220.3022, 3879.959
220.7843, 3847.346
221.2664, 3815.743
221.7486, 3793.084
222.2307, 3781.101
222.7128, 3771.065
223.1949, 3763.394
223.6770, 3757.486
224.1591, 3753.756
224.6413, 3756.704
225.1234, 3753.231
225.6055, 3739.409
226.0876, 3714.795
226.5697, 3682.071
227.0518, 3640.334
227.5340, 3591.169
228.0161, 3537.101
228.4982, 3474.462
228.9803, 3412.293
229.4624, 3352.492
229.9445, 3293.442
230.4267, 3241.639
230.9088, 3198.039
231.3909, 3159.941
231.8730, 3123.704
232.3551, 3089.723
232.8372, 3056.054
233.3194, 3020.952
233.8015, 2982.244
234.2836, 2952.484
234.7657, 2934.773
235.2478, 2923.338
235.7299, 2910.686
236.2121, 2896.576
236.6942, 2881.759
237.1763, 2865.682
237.6584, 2847.710
238.1405, 2833.432
238.6226, 2824.319
239.1048, 2817.976
239.5869, 2811.969
240.0690, 2807.617
240.5511, 2801.162
241.0332, 2790.486
241.5153, 2774.675
241.9975, 2763.193
242.4796, 2757.254
242.9617, 2754.682
243.4438, 2753.641
243.9259, 2756.397
244.4080, 2756.443
244.8902, 2751.184
245.3723, 2740.051
245.8544, 2732.915
246.3365, 2731.964
246.8186, 2732.923
247.3007, 2731.409
247.7829, 2725.868
248.2650, 2720.743
248.7471, 2716.410
249.2292, 2712.819
249.7113, 2712.220
250.1934, 2716.941
250.6756, 2722.071
251.1577, 2722.679
251.6398, 2715.450
252.1219, 2710.585
252.6040, 2710.653
253.0861, 2715.354
253.5683, 2717.901
254.0504, 2717.198
254.5325, 2715.673
255.0146, 2715.534
255.4967, 2718.075
255.9788, 2718.904
256.4609, 2716.688
256.9431, 2711.952
257.4252, 2708.962
257.9073, 2708.085
258.3894, 2708.448
258.8715, 2709.714
259.3536, 2712.696
259.8358, 2714.579
260.3179, 2715.285
260.8000, 2714.696
261.2821, 2711.738
261.7642, 2704.851
262.2463, 2698.218
262.7285, 2694.247
263.2106, 2692.922
263.6927, 2694.705
264.1748, 2701.308
264.6569, 2710.723
265.1390, 2715.476
265.6212, 2713.711
266.1033, 2711.079
266.5854, 2710.797
267.0675, 2713.548
267.5496, 2716.147
268.0317, 2718.884
268.5139, 2721.081
268.9960, 2720.085
269.4781, 2714.158
269.9602, 2709.711
270.4423, 2710.800
270.9244, 2718.897
271.4066, 2724.848
271.8887, 2728.099
272.3708, 2729.478
272.8529, 2730.233
273.3350, 2730.020
273.8171, 2730.376
274.2993, 2732.111
274.7814, 2735.334
275.2635, 2738.741
275.7456, 2742.516
276.2277, 2746.141
276.7098, 2748.778
277.1920, 2750.384
277.6741, 2751.114
278.1562, 2751.106
278.6383, 2750.336
279.1204, 2747.347
279.6025, 2740.820
280.0847, 2735.160
280.5668, 2737.685
281.0489, 2749.306
281.5310, 2759.210
282.0131, 2764.113
282.4952, 2764.334
282.9774, 2760.924
283.4595, 2752.825
283.9416, 2745.384
284.4237, 2746.101
284.9058, 2754.935
285.3879, 2760.646
285.8701, 2758.669
286.3522, 2751.807
286.8343, 2751.116
287.3164, 2757.215
287.7985, 2764.455
288.2806, 2767.716
288.7628, 2767.325
289.2449, 2766.832
289.7270, 2767.169
290.2091, 2767.675
290.6912, 2766.120
291.1733, 2762.493
291.6555, 2759.505
292.1376, 2759.417
292.6197, 2761.800
293.1018, 2764.903
293.5839, 2768.828
294.0660, 2772.667
294.5482, 2774.313
295.0303, 2773.987
295.5124, 2774.046
295.9945, 2777.767
296.4766, 2783.142
296.9587, 2783.432
297.4409, 2776.710
297.9230, 2768.834
298.4051, 2768.179
298.8872, 2773.476
299.3693, 2779.271
299.8514, 2782.549
300.3336, 2784.297
300.8157, 2786.420
301.2978, 2789.107
301.7799, 2791.339
302.2620, 2790.889
302.7441, 2788.926
303.2263, 2788.552
303.7084, 2791.575
304.1905, 2796.687
304.6726, 2803.733
305.1547, 2812.703
305.6368, 2819.085
306.1190, 2816.808
306.6011, 2809.532
307.0832, 2803.760
307.5653, 2803.046
308.0474, 2804.006
308.5295, 2802.898
309.0117, 2800.147
309.4938, 2799.296
309.9759, 2805.137
310.4580, 2813.447
310.9401, 2819.061
311.4222, 2820.267
311.9044, 2818.941
312.3865, 2814.080
312.8686, 2807.078
313.3507, 2802.922
313.8328, 2806.801
314.3149, 2813.314
314.7971, 2817.758
315.2792, 2818.336
315.7613, 2818.700
316.2434, 2820.807
316.7255, 2824.005
317.2076, 2826.912
317.6898, 2829.656
318.1719, 2831.457
318.6540, 2831.264
319.1361, 2828.096
319.6182, 2826.339
320.1003, 2829.366
320.5825, 2834.255
321.0646, 2836.991
321.5467, 2835.170
322.0288, 2832.217
322.5109, 2828.262
322.9930, 2822.927
323.4752, 2821.035
323.9573, 2827.600
324.4394, 2836.143
324.9215, 2840.824
325.4036, 2833.932
325.8857, 2830.331
326.3679, 2835.212
326.8500, 2848.085
327.3321, 2856.922
327.8142, 2858.271
328.2963, 2857.141
328.7784, 2856.495
329.2606, 2857.625
329.7427, 2857.747
330.2248, 2856.116
330.7069, 2853.291
331.1890, 2851.395
331.6711, 2849.680
332.1533, 2849.703
332.6354, 2852.596
333.1175, 2861.239
333.5996, 2866.116
334.0817, 2864.625
334.5638, 2860.475
335.0460, 2861.229
335.5281, 2870.540
336.0102, 2877.948
336.4923, 2879.689
336.9744, 2874.914
337.4565, 2870.309
337.9387, 2864.915
338.4208, 2860.846
338.9029, 2861.604
339.3850, 2868.951
339.8671, 2874.207
340.3492, 2874.429
340.8313, 2870.581
341.3134, 2871.058
341.7956, 2877.328
342.2777, 2883.455
342.7598, 2883.299
343.2419, 2876.548
343.7240, 2872.954
344.2061, 2874.875
344.6883, 2880.098
345.1704, 2882.928
345.6525, 2883.272
346.1346, 2883.508
346.6167, 2885.843
347.0988, 2889.690
347.5810, 2890.947
348.0631, 2888.742
348.5452, 2885.476
349.0273, 2883.665
349.5094, 2883.424
349.9915, 2885.824
350.4737, 2893.724
350.9558, 2904.241
351.4379, 2910.375
351.9200, 2911.873
352.4021, 2911.747
352.8842, 2912.468
353.3664, 2913.737
353.8485, 2914.950
354.3306, 2916.649
354.8127, 2917.638
355.2948, 2915.581
355.7769, 2911.009
356.2591, 2907.348
356.7412, 2906.799
357.2233, 2908.551
357.7054, 2912.127
358.1875, 2918.918
358.6696, 2924.718
359.1518, 2925.590
359.6339, 2923.057
360.1160, 2920.801
360.5981, 2919.981
361.0802, 2920.393
361.5623, 2922.458
362.0445, 2926.813
362.5266, 2929.903
363.0087, 2928.567
363.4908, 2925.510
363.9729, 2924.186
364.4550, 2927.287
364.9372, 2930.639
365.4193, 2932.789
365.9014, 2933.654
366.3835, 2934.412
366.8656, 2934.692
367.3477, 2935.307
367.8299, 2936.848
368.3120, 2942.486
368.7941, 2945.474
369.2762, 2942.329
369.7583, 2935.142
370.2404, 2933.412
370.7226, 2944.033
371.2047, 2953.470
371.6868, 2955.815
372.1689, 2946.448
372.6510, 2940.746
373.1331, 2940.200
373.6153, 2942.473
374.0974, 2943.579
374.5795, 2942.340
375.0616, 2942.453
375.5437, 2945.913
376.0258, 2952.846
376.5080, 2955.171
376.9901, 2950.445
377.4722, 2945.648
377.9543, 2949.543
378.4364, 2964.198
378.9185, 2972.157
379.4007, 2967.920
379.8828, 2956.231
380.3649, 2951.708
380.8470, 2954.874
381.3291, 2960.626
381.8112, 2967.319
382.2934, 2974.409
382.7755, 2976.647
383.2576, 2972.610
383.7397, 2966.686
384.2218, 2964.590
384.7039, 2966.006
385.1861, 2969.267
385.6682, 2975.994
386.1503, 2983.437
386.6324, 2985.349
387.1145, 2981.566
387.5966, 2977.600
388.0788, 2978.649
388.5609, 2982.657
389.0430, 2986.005
389.5251, 2987.692
390.0072, 2988.242
390.4893, 2987.719
390.9715, 2986.351
391.4536, 2984.964
391.9357, 2983.330
392.4178, 2982.304
392.8999, 2982.905
393.3820, 2985.918
393.8642, 2988.637
394.3463, 2990.648
394.8284, 2991.424
395.3105, 2990.132
395.7926, 2982.813
396.2747, 2976.843
396.7569, 2975.923
397.2390, 2980.417
397.7211, 2984.361
398.2032, 2984.849
398.6853, 2985.343
399.1674, 2988.364
399.6496, 2999.154
400.1317, 3006.418
400.6138, 3007.625
401.0959, 3004.438
401.5780, 3002.675
402.0602, 3003.065
402.5423, 3003.926
403.0244, 3004.597
403.5065, 3004.959
403.9886, 3005.526
404.4707, 3006.518
404.9529, 3007.499
405.4350, 3007.413
405.9171, 3005.282
406.3992, 3005.504
406.8813, 3010.236
407.3634, 3018.490
407.8456, 3023.193
408.3277, 3023.710
408.8098, 3023.405
409.2919, 3025.708
409.7740, 3030.354
410.2561, 3032.379
410.7383, 3030.813
411.2204, 3026.965
411.7025, 3021.119
412.1846, 3013.872
412.6667, 3010.222
413.1488, 3016.162
413.6310, 3026.931
414.1131, 3032.090
414.5952, 3031.050
415.0773, 3028.816
415.5594, 3031.016
416.0415, 3035.020
416.5237, 3035.867
417.0058, 3028.774
417.4879, 3021.390
417.9700, 3021.113
418.4521, 3026.483
418.9342, 3031.564
419.4164, 3032.834
419.8985, 3032.772
420.3806, 3033.052
420.8627, 3033.800
421.3448, 3035.243
421.8269, 3038.897
422.3091, 3042.906
422.7912, 3044.718
423.2733, 3040.926
423.7554, 3037.609
424.2375, 3035.998
424.7196, 3036.184
425.2018, 3038.990
425.6839, 3050.288
426.1660, 3060.196
426.6481, 3062.725
427.1302, 3050.588
427.6123, 3042.927
428.0945, 3041.407
428.5766, 3044.272
429.0587, 3047.712
429.5408, 3052.384
430.0229, 3056.247
430.5050, 3058.391
430.9872, 3058.726
431.4693, 3058.836
431.9514, 3058.525
432.4335, 3058.346
432.9156, 3058.639
433.3977, 3059.353
433.8799, 3061.554
434.3620, 3066.324
434.8441, 3071.655
435.3262, 3072.123
435.8083, 3067.959
436.2904, 3064.094
436.7726, 3064.566
437.2547, 3067.506
437.7368, 3068.433
438.2189, 3066.907
438.7010, 3064.467
439.1831, 3061.513
439.6652, 3058.847
440.1473, 3058.024
440.6295, 3061.182
441.1116, 3065.182
441.5937, 3067.802
442.0758, 3069.156
442.5579, 3069.662
443.0400, 3067.377
443.5222, 3065.710
444.0043, 3067.931
444.4864, 3076.969
444.9685, 3083.576
445.4506, 3082.501
445.9327, 3077.779
446.4149, 3075.204
446.8970, 3078.579
447.3791, 3081.432
447.8612, 3081.527
448.3433, 3078.737
448.8254, 3077.583
449.3076, 3078.412
449.7897, 3080.537
450.2718, 3083.878
450.7539, 3089.880
451.2360, 3093.773
451.7181, 3095.074
452.2003, 3094.490
452.6824, 3093.029
453.1645, 3090.230
453.6466, 3088.292
454.1287, 3087.833
454.6108, 3088.863
455.0930, 3092.312
455.5751, 3098.688
456.0572, 3104.325
456.5393, 3104.481
457.0214, 3100.379
457.5035, 3098.761
457.9857, 3101.386
458.4678, 3105.686
458.9499, 3108.976
459.4320, 3111.033
459.9141, 3111.033
460.3962, 3106.105
460.8784, 3100.209
461.3605, 3098.817
461.8426, 3102.159
462.3247, 3105.034
462.8068, 3101.847
463.2889, 3097.413
463.7711, 3097.148
464.2532, 3106.859
464.7353, 3114.902
465.2174, 3114.093
465.6995, 3108.078
466.1816, 3105.512
466.6638, 3114.394
467.1459, 3121.849
467.6280, 3121.648
468.1101, 3110.732
468.5922, 3105.429
469.0743, 3109.528
469.5565, 3116.786
470.0386, 3122.355
470.5207, 3126.546
471.0028, 3128.033
471.4849, 3125.030
471.9670, 3119.937
472.4492, 3120.785
472.9313, 3130.016
473.4134, 3136.810
473.8955, 3134.562
474.3776, 3123.895
474.8597, 3118.763
475.3419, 3119.592
475.8240, 3123.388
476.3061, 3128.263
476.7882, 3133.765
477.2703, 3137.644
477.7524, 3138.766
478.2346, 3139.065
478.7167, 3141.608
479.1988, 3145.792
479.6809, 3149.367
480.1630, 3151.543
480.6451, 3152.224
481.1273, 3151.151
481.6094, 3148.280
482.0915, 3144.371
482.5736, 3137.256
483.0557, 3130.502
483.5378, 3127.530
484.0200, 3131.052
484.5021, 3136.190
484.9842, 3143.557
485.4663, 3151.666
485.9484, 3156.463
486.4305, 3153.921
486.9127, 3151.223
487.3948, 3150.815
487.8769, 3153.187
488.3590, 3154.298
488.8411, 3153.387
489.3232, 3152.092
489.8054, 3151.598
490.2875, 3151.708
490.7696, 3153.960
491.2517, 3159.762
491.7338, 3166.699
492.2159, 3168.250
492.6981, 3164.053
493.1802, 3160.450
493.6623, 3161.528
494.1444, 3165.632
494.6265, 3164.981
495.1086, 3159.411
495.5908, 3154.818
496.0729, 3157.518
496.5550, 3164.649
497.0371, 3170.566
497.5192, 3174.170
498.0013, 3175.825
498.4835, 3174.126
498.9656, 3170.716
499.4477, 3169.079
499.9298, 3172.463
500.4119, 3176.564
500.8940, 3179.587
501.3762, 3181.442
501.8583, 3181.310
502.3404, 3175.937
502.8225, 3170.683
503.3046, 3169.039
503.7867, 3174.305
504.2689, 3178.461
504.7510, 3181.052
505.2331, 3182.573
505.7152, 3183.784
506.1973, 3184.869
506.6794, 3185.224
507.1616, 3184.572
507.6437, 3183.019
508.1258, 3181.189
508.6079, 3178.808
509.0900, 3177.167
509.5721, 3177.140
510.0543, 3178.656
510.5364, 3181.424
511.0185, 3185.751
511.5006, 3189.895
511.9827, 3191.246
512.4648, 3190.608
512.9470, 3190.508
513.4291, 3192.246
513.9112, 3194.419
514.3933, 3194.630
514.8754, 3193.707
515.3575, 3194.697
515.8397, 3202.291
516.3218, 3210.276
516.8039, 3214.133
517.2860, 3213.069
517.7681, 3209.846
518.2502, 3201.174
518.7324, 3192.866
519.2145, 3190.123
519.6966, 3200.464
520.1787, 3208.109
520.6608, 3210.948
521.1429, 3210.281
521.6251, 3209.186
522.1072, 3207.132
522.5893, 3205.585
523.0714, 3204.544
523.5535, 3204.076
524.0356, 3207.970
524.5178, 3217.725
524.9999, 3226.967
525.4820, 3229.192
525.9641, 3225.202
526.4462, 3223.491
526.9283, 3225.707
527.4105, 3228.668
527.8926, 3226.941
528.3747, 3222.123
528.8568, 3219.541
529.3389, 3224.624
529.8210, 3230.666
530.3032, 3228.740
530.7853, 3220.611
531.2674, 3215.210
531.7495, 3219.234
532.2316, 3226.556
532.7137, 3233.352
533.1959, 3239.625
533.6780, 3243.331
534.1601, 3241.469
534.6422, 3237.966
535.1243, 3236.886
535.6064, 3241.396
536.0886, 3244.652
536.5707, 3245.863
537.0528, 3245.500
537.5349, 3244.625
538.0170, 3242.537
538.4991, 3241.914
538.9813, 3244.881
539.4634, 3251.129
539.9455, 3252.406
540.4276, 3247.854
540.9097, 3243.333
541.3918, 3245.434
541.8740, 3252.313
542.3561, 3256.439
542.8382, 3256.154
543.3203, 3254.415
543.8024, 3255.010
544.2845, 3256.767
544.7667, 3257.051
545.2488, 3251.715
545.7309, 3246.923
546.2130, 3248.390
546.6951, 3254.697
547.1772, 3259.193
547.6594, 3256.066
548.1415, 3252.858
548.6236, 3254.050
549.1057, 3261.487
549.5878, 3268.184
550.0699, 3273.958
550.5521, 3278.663
551.0342, 3282.357
551.5163, 3285.936
551.9984, 3286.403
552.4805, 3282.495
552.9626, 3276.036
553.4448, 3270.701
553.9269, 3266.287
554.4090, 3264.458
554.8911, 3267.145
555.3732, 3272.684
555.8553, 3274.500
556.3375, 3272.628
556.8196, 3270.897
557.3017, 3273.023
557.7838, 3277.003
558.2659, 3279.464
558.7480, 3279.792
559.2302, 3279.588
559.7123, 3279.562
560.1944, 3279.867
560.6765, 3280.701
561.1586, 3281.923
561.6407, 3283.897
562.1229, 3288.178
562.6050, 3293.431
563.0871, 3295.889
563.5692, 3290.778
564.0513, 3287.304
564.5334, 3289.593
565.0156, 3298.083
565.4977, 3299.379
565.9798, 3289.568
566.4619, 3279.800
566.9440, 3279.557
567.4261, 3289.824
567.9083, 3294.534
568.3904, 3291.520
568.8725, 3286.118
569.3546, 3284.949
569.8367, 3287.501
570.3188, 3291.794
570.8010, 3298.764
571.2831, 3305.089
571.7652, 3305.174
572.2473, 3300.673
572.7294, 3297.232
573.2115, 3298.874
573.6937, 3301.686
574.1758, 3303.283
574.6579, 3303.477
575.1400, 3302.821
575.6221, 3299.007
576.1042, 3296.104
576.5864, 3297.060
577.0685, 3305.107
577.5506, 3311.471
578.0327, 3315.946
578.5148, 3318.950
578.9969, 3320.935
579.4791, 3321.715
579.9612, 3321.844
580.4433, 3320.635
580.9254, 3319.423
581.4075, 3323.334
581.8896, 3332.234
582.3718, 3338.726
582.8539, 3336.155
583.3360, 3329.062
583.8181, 3327.869
584.3002, 3332.399
584.7823, 3336.839
585.2645, 3336.599
585.7466, 3334.327
586.2286, 3332.876
586.7108, 3333.205
587.1929, 3333.123
587.6750, 3330.234
588.1571, 3327.124
588.6392, 3326.719
589.1213, 3333.053
589.6035, 3337.973
590.0856, 3340.047
590.5677, 3340.175
591.0498, 3340.919
591.5319, 3343.046
592.0140, 3343.832
592.4962, 3341.407
592.9783, 3336.443
593.4604, 3335.122
593.9425, 3337.651
594.4246, 3341.407
594.9067, 3343.995
595.3889, 3346.175
595.8710, 3351.098
596.3531, 3359.382
596.8352, 3366.861
597.3173, 3369.999
597.7994, 3369.867
598.2816, 3367.918
598.7637, 3363.919
599.2458, 3359.342
599.7279, 3352.159
600.2100, 3345.362
600.6921, 3344.538
601.1743, 3360.036
601.6564, 3371.834
602.1385, 3372.605
602.6206, 3364.253
603.1027, 3362.075
603.5848, 3369.603
604.0670, 3376.651
604.5491, 3377.822
605.0312, 3372.964
605.5133, 3368.977
605.9954, 3365.685
606.4775, 3364.076
606.9597, 3366.096
607.4418, 3370.659
607.9239, 3374.164
608.4060, 3375.800
608.8881, 3376.895
609.3702, 3378.487
609.8524, 3380.491
610.3345, 3382.736
610.8166, 3387.047
611.2987, 3389.765
611.7808, 3387.785
612.2629, 3382.793
612.7451, 3379.849
613.2272, 3381.110
613.7093, 3383.434
614.1914, 3386.340
614.6735, 3389.833
615.1556, 3392.050
615.6378, 3392.715
616.1199, 3392.616
616.6020, 3392.173
617.0841, 3391.354
617.5662, 3389.742
618.0483, 3386.998
618.5305, 3384.930
619.0126, 3385.833
619.4947, 3388.991
619.9768, 3392.931
620.4589, 3398.337
620.9410, 3401.832
621.4232, 3397.356
621.9053, 3389.279
622.3874, 3385.585
622.8695, 3395.340
623.3516, 3404.098
623.8337, 3405.511
624.3159, 3400.969
624.7980, 3397.108
625.2801, 3393.218
625.7622, 3391.624
626.2443, 3393.618
626.7264, 3399.327
627.2086, 3404.217
627.6907, 3408.502
628.1728, 3411.286
628.6549, 3411.302
629.1370, 3408.799
629.6191, 3406.591
630.1013, 3404.714
630.5834, 3403.714
631.0655, 3404.686
631.5476, 3406.857
632.0297, 3408.626
632.5118, 3409.128
632.9940, 3410.217
633.4761, 3414.938
633.9582, 3420.861
634.4403, 3423.796
634.9224, 3419.375
635.4045, 3415.260
635.8867, 3413.222
636.3688, 3413.177
636.8509, 3414.489
637.3330, 3417.480
637.8151, 3421.377
638.2972, 3426.936
638.7794, 3433.767
639.2615, 3435.114
639.7436, 3430.324
640.2257, 3424.081
640.7078, 3418.295
641.1899, 3413.708
641.6721, 3413.956
642.1542, 3419.670
642.6363, 3425.185
643.1184, 3423.571
643.6005, 3419.600
644.0826, 3420.000
644.5648, 3429.454
645.0469, 3436.813
645.5290, 3436.014
646.0111, 3430.914
646.4932, 3427.072
646.9753, 3423.783
647.4575, 3424.035
647.9396, 3430.867
648.4217, 3440.881
648.9038, 3442.799
649.3859, 3433.800
649.8680, 3427.605
650.3502, 3430.894
650.8323, 3440.230
651.3144, 3442.093
651.7965, 3436.844
652.2786, 3432.219
652.7607, 3434.343
653.2429, 3439.820
653.7250, 3443.957
654.2071, 3446.445
654.6892, 3448.969
655.1713, 3453.419
655.6534, 3457.807
656.1356, 3460.341
656.6177, 3459.587
657.0998, 3459.981
657.5819, 3464.470
658.0640, 3468.945
658.5461, 3468.427
659.0283, 3458.460
659.5104, 3457.188
659.9925, 3469.553
660.4746, 3487.068
660.9567, 3493.413
661.4388, 3489.173
661.9210, 3486.335
662.4031, 3489.611
662.8852, 3495.128
663.3673, 3496.973
663.8494, 3496.051
664.3315, 3495.448
664.8137, 3498.567
665.2958, 3501.023
665.7779, 3498.753
666.2600, 3492.458
666.7421, 3488.382
667.2242, 3489.823
667.7064, 3492.416
668.1885, 3494.698
668.6706, 3496.897
669.1527, 3497.303
669.6348, 3494.706
670.1169, 3492.923
670.5991, 3495.332
671.0812, 3501.748
671.5633, 3507.525
672.0454, 3512.318
672.5275, 3516.839
673.0096, 3520.415
673.4918, 3524.425
673.9739, 3530.966
674.4560, 3539.052
674.9381, 3553.566
675.4202, 3583.635
675.9023, 3620.606
676.3845, 3651.723
676.8666, 3669.618
677.3487, 3686.548
677.8308, 3704.210
678.3129, 3722.395
678.7950, 3740.558
679.2772, 3758.960
679.7593, 3776.089
680.2414, 3790.747
680.7235, 3804.052
681.2056, 3818.277
681.6877, 3833.376
682.1699, 3858.015
682.6520, 3897.952
683.1341, 3950.096
683.6162, 4010.294
684.0983, 4078.523
684.5804, 4150.751
685.0626, 4224.208
685.5447, 4300.832
686.0268, 4381.417
686.5089, 4464.536
686.9910, 4558.332
687.4731, 4660.987
687.9553, 4778.741
688.4374, 4919.438
688.9195, 5100.340
689.4016, 5265.036
689.8837, 5428.922
690.3658, 5543.872
690.8480, 5551.492
691.3301, 5457.303
691.8122, 5282.505
692.2943, 5014.005
692.7764, 4721.796
693.2585, 4455.893
693.7407, 4223.433
694.2228, 4043.474
694.7049, 3942.266
695.1870, 3869.309
695.6691, 3808.728
696.1512, 3759.975
696.6334, 3721.125
697.1155, 3696.132
697.5976, 3676.811
698.0797, 3661.169
698.5618, 3650.246
699.0439, 3651.193
699.5261, 3667.308
700.0082, 3677.175
700.4903, 3669.002
700.9724, 3649.035
701.4545, 3633.800
701.9366, 3623.041
702.4188, 3614.603
702.9009, 3607.726
703.3830, 3602.126
703.8651, 3598.867
704.3472, 3597.812
704.8293, 3593.549
705.3115, 3576.689
705.7936, 3561.777
706.2757, 3559.301
706.7578, 3573.664
707.2399, 3581.699
707.7220, 3581.088
708.2042, 3577.879
708.6863, 3576.757
709.1684, 3577.732
709.6505, 3578.638
710.1326, 3579.288
710.6147, 3580.161
711.0969, 3583.077
711.5790, 3586.398
712.0611, 3586.198
712.5432, 3580.282
713.0253, 3574.817
713.5074, 3573.880
713.9896, 3575.807
714.4717, 3578.548
714.9538, 3582.255
715.4359, 3586.044
715.9180, 3591.491
716.4001, 3596.169
716.8823, 3594.784
717.3644, 3584.723
717.8465, 3579.329
718.3286, 3583.064
718.8107, 3591.324
719.2928, 3593.609
719.7750, 3590.844
720.2571, 3588.513
720.7392, 3589.245
721.2213, 3591.343
721.7034, 3592.739
722.1855, 3593.980
722.6677, 3596.844
723.1498, 3604.831
723.6319, 3611.817
724.1140, 3615.243
724.5961, 3615.178
725.0782, 3614.133
725.5604, 3611.435
726.0425, 3608.940
726.5246, 3607.303
727.0067, 3606.504
727.4888, 3606.292
727.9709, 3606.640
728.4531, 3607.895
728.9352, 3610.701
729.4173, 3614.420
729.8994, 3618.876
730.3815, 3623.973
730.8636, 3626.561
731.3458, 3621.646
731.8279, 3615.708
732.3100, 3613.673
732.7921, 3617.132
733.2742, 3620.530
733.7563, 3624.802
734.2385, 3627.540
734.7206, 3626.212
735.2027, 3619.529
735.6848, 3616.858
736.1669, 3618.849
736.6490, 3623.188
737.1312, 3629.552
737.6133, 3636.243
738.0954, 3637.393
738.5775, 3630.724
739.0596, 3624.492
739.5417, 3625.836
740.0239, 3630.941
740.5060, 3635.405
740.9881, 3638.081
741.4702, 3640.100
741.9523, 3641.134
742.4344, 3641.807
742.9166, 3643.061
743.3987, 3645.542
743.8808, 3645.854
744.3629, 3642.578
744.8450, 3638.675
745.3271, 3639.700
745.8093, 3644.861
746.2914, 3650.085
746.7735, 3654.862
747.2556, 3657.915
747.7377, 3655.630
748.2198, 3651.002
748.7020, 3649.729
749.1841, 3658.422
749.6662, 3665.695
750.1483, 3667.585
750.6304, 3665.617
751.1125, 3663.719
751.5947, 3661.732
752.0768, 3660.148
752.5589, 3659.149
753.0410, 3658.597
753.5231, 3657.866
754.0052, 3657.055
754.4874, 3657.346
754.9695, 3661.440
755.4516, 3665.295
755.9337, 3662.187
756.4158, 3654.244
756.8979, 3648.808
757.3801, 3649.303
757.8622, 3652.755
758.3443, 3659.212
758.8264, 3668.138
759.3085, 3675.187
759.7906, 3680.400
760.2728, 3683.669
760.7549, 3684.613
761.2370, 3683.520
761.7191, 3681.086
762.2012, 3677.337
762.6833, 3676.577
763.1655, 3684.802
763.6476, 3695.838
764.1297, 3700.917
764.6118, 3700.348
765.0939, 3698.837
765.5760, 3699.838
766.0582, 3699.531
766.5403, 3693.542
767.0224, 3680.828
767.5045, 3677.850
767.9866, 3689.740
768.4688, 3702.785
768.9509, 3710.173
769.4330, 3712.111
769.9151, 3710.952
770.3972, 3706.604
770.8793, 3702.406
771.3615, 3701.365
771.8436, 3701.795
772.3257, 3701.073
772.8078, 3698.998
773.2899, 3697.466
773.7720, 3696.388
774.2542, 3696.968
774.7363, 3701.164
775.2184, 3710.918
775.7005, 3714.917
776.1826, 3711.033
776.6647, 3705.046
777.1469, 3700.383
777.6290, 3697.111
778.1111, 3696.096
778.5932, 3697.522
779.0753, 3698.968
779.5574, 3696.780
780.0396, 3693.968
780.5217, 3695.426
781.0038, 3702.292
781.4859, 3708.470
781.9680, 3711.449
782.4501, 3712.612
782.9323, 3712.430
783.4144, 3709.691
783.8964, 3710.135
784.3785, 3714.878
784.8607, 3720.754
785.3428, 3725.519
785.8249, 3729.105
786.3070, 3729.416
786.7891, 3725.904
787.2712, 3723.569
787.7534, 3729.505
788.2355, 3738.307
788.7176, 3742.650
789.1997, 3740.382
789.6818, 3737.978
790.1639, 3738.199
790.6461, 3738.836
791.1282, 3737.810
791.6103, 3733.284
792.0924, 3732.656
792.5745, 3737.339
793.0566, 3742.764
793.5388, 3743.198
794.0209, 3740.032
794.5030, 3741.203
794.9851, 3748.009
795.4672, 3755.152
795.9493, 3760.008
796.4315, 3761.607
796.9136, 3757.445
797.3957, 3743.495
797.8778, 3735.121
798.3599, 3740.428
798.8420, 3749.817
799.3242, 3756.486
799.8063, 3760.385
800.2884, 3761.273
800.7705, 3758.383
801.2526, 3755.011
801.7347, 3754.531
802.2169, 3756.388
802.6990, 3759.505
803.1811, 3763.961
803.6632, 3767.518
804.1453, 3766.798
804.6274, 3765.210
805.1096, 3766.394
805.5917, 3773.159
806.0738, 3776.784
806.5559, 3774.344
807.0380, 3770.863
807.5201, 3770.462
808.0023, 3773.459
808.4844, 3776.592
808.9665, 3779.783
809.4486, 3782.748
809.9307, 3787.239
810.4128, 3790.759
810.8950, 3787.397
811.3771, 3775.246
811.8592, 3763.752
812.3413, 3756.031
812.8234, 3752.477
813.3055, 3754.218
813.7877, 3764.450
814.2698, 3771.298
814.7519, 3773.542
815.2340, 3774.413
815.7161, 3777.014
816.1982, 3781.052
816.6804, 3782.452
817.1625, 3780.799
817.6446, 3779.017
818.1267, 3779.502
818.6088, 3781.519
819.0909, 3784.707
819.5731, 3789.385
820.0552, 3792.328
820.5373, 3789.934
821.0194, 3787.324
821.5015, 3787.820
821.9836, 3792.012
822.4658, 3796.780
822.9479, 3802.855
823.4300, 3807.120
823.9121, 3805.251
824.3942, 3799.548
824.8763, 3798.096
825.3585, 3801.296
825.8406, 3803.868
826.3227, 3800.520
826.8048, 3796.023
827.2869, 3794.612
827.7690, 3797.313
828.2512, 3798.858
828.7333, 3797.792
829.2154, 3796.929
829.6975, 3797.994
830.1796, 3800.998
830.6617, 3803.132
831.1439, 3804.355
831.6260, 3805.213
832.1081, 3805.880
832.5902, 3806.539
833.0723, 3807.787
833.5544, 3809.508
834.0366, 3810.331
834.5187, 3807.516
835.0008, 3805.417
835.4829, 3806.954
835.9650, 3811.947
836.4471, 3815.903
836.9293, 3818.791
837.4114, 3820.588
837.8935, 3821.455
838.3756, 3821.173
838.8577, 3817.498
839.3398, 3811.175
839.8220, 3807.676
840.3041, 3812.282
840.7862, 3819.390
841.2683, 3825.499
841.7504, 3830.460
842.2325, 3834.179
842.7147, 3837.215
843.1968, 3838.240
843.6789, 3836.130
844.1610, 3831.829
844.6431, 3829.042
845.1252, 3827.740
845.6074, 3829.460
846.0895, 3837.064
846.5716, 3845.877
847.0537, 3848.887
847.5358, 3847.537
848.0179, 3845.808
848.5001, 3845.788
848.9822, 3845.312
849.4643, 3842.718
849.9464, 3839.265
850.4285, 3837.980
850.9106, 3839.502
851.3928, 3840.774
851.8749, 3840.380
852.3570, 3840.427
852.8391, 3846.837
853.3212, 3857.385
853.8033, 3864.925
854.2855, 3866.913
854.7676, 3865.096
855.2497, 3855.555
855.7318, 3844.487
856.2139, 3841.575
856.6960, 3857.757
857.1782, 3868.121
857.6603, 3870.030
858.1424, 3867.056
858.6245, 3862.889
859.1066, 3857.781
859.5887, 3856.154
860.0709, 3859.606
860.5530, 3862.611
861.0351, 3857.297
861.5172, 3848.902
861.9993, 3844.458
862.4814, 3846.815
862.9636, 3849.514
863.4457, 3851.577
863.9278, 3852.939
864.4099, 3852.904
864.8920, 3850.628
865.3741, 3852.135
865.8563, 3858.003
866.3384, 3865.055
866.8205, 3870.864
867.3026, 3875.572
867.7847, 3879.802
868.2668, 3883.672
868.7490, 3884.812
869.2311, 3877.980
869.7132, 3871.261
870.1953, 3870.992
870.6774, 3877.787
871.1595, 3881.685
871.6417, 3882.508
872.1238, 3880.797
872.6059, 3874.624
873.0880, 3866.377
873.5701, 3865.978
874.0522, 3872.501
874.5344, 3879.083
875.0165, 3881.846
875.4986, 3883.081
875.9807, 3882.678
876.4628, 3881.517
876.9449, 3885.393
877.4271, 3899.950
877.9092, 3909.966
878.3913, 3910.489
878.8734, 3903.830
879.3555, 3895.219
879.8376, 3885.119
880.3198, 3878.416
880.8019, 3877.591
881.2840, 3880.188
881.7661, 3886.501
882.2482, 3894.099
882.7303, 3898.301
883.2125, 3893.608
883.6946, 3891.079
884.1767, 3893.725
884.6588, 3897.906
885.1409, 3896.977
885.6230, 3890.658
886.1052, 3888.256
886.5873, 3891.987
887.0694, 3897.437
887.5515, 3899.587
888.0336, 3900.014
888.5157, 3900.796
888.9979, 3902.024
889.4800, 3904.657
889.9621, 3909.975
890.4442, 3916.076
890.9263, 3922.404
891.4084, 3930.003
891.8906, 3930.682
892.3727, 3923.363
892.8548, 3915.517
893.3369, 3913.789
893.8190, 3915.972
894.3011, 3919.438
894.7833, 3923.794
895.2654, 3925.716
895.7475, 3919.535
896.2296, 3914.257
896.7117, 3917.148
897.1938, 3927.086
897.6760, 3927.425
898.1581, 3915.121
898.6402, 3905.676
899.1223, 3907.767
899.6044, 3916.695
900.0865, 3923.521
900.5687, 3928.220
901.0508, 3930.428
901.5329, 3926.691
902.0150, 3923.903
902.4971, 3927.146
902.9792, 3933.603
903.4614, 3935.805
903.9435, 3931.634
904.4256, 3928.677
904.9077, 3928.279
905.3898, 3929.395
905.8719, 3930.607
906.3541, 3931.841
906.8362, 3932.900
907.3183, 3933.705
907.8004, 3934.385
908.2825, 3935.841
908.7646, 3936.825
909.2468, 3935.544
909.7289, 3928.900
910.2110, 3928.193
910.6931, 3935.865
911.1752, 3944.284
911.6573, 3945.885
912.1395, 3942.481
912.6216, 3940.874
913.1037, 3941.447
913.5858, 3944.260
914.0679, 3954.190
914.5500, 3962.403
915.0322, 3959.522
915.5143, 3945.021
915.9964, 3940.377
916.4785, 3951.498
916.9606, 3961.442
917.4427, 3963.075
917.9249, 3958.899
918.4070, 3956.730
918.8891, 3956.341
919.3712, 3956.518
919.8533, 3956.176
920.3354, 3956.716
920.8176, 3960.520
921.2997, 3965.747
921.7818, 3968.320
922.2639, 3966.299
922.7460, 3964.117
923.2281, 3961.276
923.7103, 3959.935
924.1924, 3965.562
924.6745, 3976.323
925.1566, 3981.789
925.6387, 3979.557
926.1208, 3975.322
926.6030, 3970.708
927.0851, 3968.012
927.5672, 3970.453
928.0493, 3981.843
928.5314, 3986.215
929.0135, 3979.909
929.4957, 3973.048
929.9778, 3973.108
930.4599, 3978.751
930.9420, 3982.068
931.4241, 3983.212
931.9063, 3984.194
932.3884, 3988.250
932.8705, 3990.964
933.3526, 3987.232
933.8347, 3978.697
934.3168, 3975.250
934.7990, 3980.648
935.2811, 3984.766
935.7632, 3985.120
936.2453, 3982.840
936.7274, 3979.227
937.2095, 3974.947
937.6917, 3973.022
938.1738, 3974.422
938.6559, 3978.349
939.1380, 3988.873
939.6201, 3999.551
940.1022, 4001.262
940.5844, 3983.962
941.0665, 3978.033
941.5486, 3988.159
942.0307, 3999.747
942.5128, 3996.363
942.9949, 3982.762
943.4771, 3977.747
943.9592, 3982.332
944.4413, 3988.168
944.9234, 3991.555
945.4055, 3992.780
945.8876, 3990.706
946.3698, 3985.596
946.8519, 3984.240
947.3340, 3988.003
947.8161, 3991.868
948.2982, 3993.376
948.7803, 3994.468
949.2625, 4002.220
949.7446, 4013.792
950.2267, 4019.745
950.7088, 4010.660
951.1909, 4002.196
951.6730, 4002.066
952.1552, 4007.087
952.6373, 4012.687
953.1194, 4020.072
953.6015, 4023.235
954.0836, 4020.666
954.5657, 4017.255
955.0479, 4019.769
955.5300, 4025.058
956.0121, 4026.171
956.4942, 4022.137
956.9763, 4018.335
957.4584, 4016.039
957.9406, 4016.109
958.4227, 4020.171
958.9048, 4027.712
959.3869, 4031.954
959.8690, 4032.687
960.3511, 4031.608
960.8333, 4027.645
961.3154, 4024.211
961.7975, 4029.717
962.2796, 4040.202
962.7617, 4045.501
963.2438, 4036.049
963.7260, 4028.042
964.2081, 4025.443
964.6902, 4026.092
965.1723, 4027.585
965.6544, 4029.962
966.1365, 4032.644
966.6187, 4035.587
967.1008, 4038.650
967.5829, 4042.447
968.0650, 4045.895
968.5471, 4046.700
969.0292, 4043.934
969.5114, 4045.244
969.9935, 4057.496
970.4756, 4067.313
970.9577, 4067.873
971.4398, 4061.203
971.9219, 4060.237
972.4041, 4064.390
972.8862, 4066.640
973.3683, 4060.643
973.8504, 4053.956
974.3325, 4052.076
974.8146, 4054.102
975.2968, 4058.380
975.7789, 4068.579
976.2610, 4073.661
976.7431, 4071.066
977.2252, 4066.095
977.7073, 4065.779
978.1895, 4069.067
978.6716, 4072.413
979.1537, 4075.482
979.6358, 4077.577
980.1179, 4077.516
980.6000, 4076.973
981.0822, 4077.072
981.5642, 4077.908
982.0463, 4079.457
982.5284, 4082.048
983.0106, 4084.063
983.4927, 4084.642
983.9748, 4084.223
984.4569, 4083.506
984.9390, 4082.521
985.4211, 4081.393
985.9033, 4079.234
986.3854, 4077.990
986.8675, 4076.941
987.3496, 4077.909
987.8317, 4084.721
988.3138, 4098.792
988.7960, 4105.636
989.2781, 4103.374
989.7602, 4098.474
990.2423, 4096.416
990.7244, 4095.788
991.2065, 4094.835
991.6887, 4093.400
992.1708, 4092.656
992.6529, 4092.994
993.1350, 4094.045
993.6171, 4096.019
994.0992, 4098.549
994.5814, 4099.384
995.0635, 4099.005
995.5456, 4101.341
996.0277, 4111.431
996.5098, 4119.049
996.9919, 4111.254
997.4741, 4098.187
997.9562, 4094.988
998.4383, 4111.530
998.9204, 4118.847
999.4025, 4113.479
999.8846, 4106.749
1000.367, 4112.132
1000.849, 4123.899
1001.331, 4125.374
1001.813, 4116.649
1002.295, 4109.927
1002.777, 4115.009
1003.259, 4120.208
1003.742, 4118.568
1004.224, 4112.515
1004.706, 4110.669
1005.188, 4113.468
1005.670, 4115.905
1006.152, 4116.272
1006.634, 4116.492
1007.116, 4118.649
1007.599, 4122.430
1008.081, 4127.956
1008.563, 4137.767
1009.045, 4142.334
1009.527, 4137.319
1010.009, 4131.581
1010.491, 4132.272
1010.973, 4138.447
1011.455, 4137.624
1011.938, 4130.802
1012.420, 4128.044
1012.902, 4141.786
1013.384, 4155.974
1013.866, 4157.754
1014.348, 4151.333
1014.830, 4150.715
1015.312, 4158.909
1015.794, 4165.220
1016.277, 4168.346
1016.759, 4168.162
1017.241, 4162.104
1017.723, 4153.244
1018.205, 4146.883
1018.687, 4143.691
1019.169, 4145.761
1019.651, 4162.006
1020.134, 4175.706
1020.616, 4177.651
1021.098, 4169.267
1021.580, 4162.214
1022.062, 4156.548
1022.544, 4154.357
1023.026, 4157.655
1023.508, 4163.499
1023.990, 4171.716
1024.473, 4179.620
1024.955, 4182.350
1025.437, 4173.702
1025.919, 4168.905
1026.401, 4169.161
1026.883, 4171.651
1027.365, 4173.705
1027.847, 4175.702
1028.330, 4179.282
1028.812, 4184.384
1029.294, 4188.749
1029.776, 4189.086
1030.258, 4190.534
1030.740, 4198.270
1031.222, 4208.894
1031.704, 4209.236
1032.187, 4197.998
1032.669, 4192.589
1033.151, 4199.052
1033.633, 4208.480
1034.115, 4209.074
1034.597, 4206.754
1035.079, 4209.272
1035.561, 4219.138
1036.043, 4230.835
1036.526, 4245.022
1037.008, 4258.872
1037.490, 4271.291
1037.972, 4281.909
1038.454, 4289.534
1038.936, 4294.146
1039.418, 4295.951
1039.900, 4295.812
1040.382, 4291.991
1040.865, 4280.827
1041.347, 4266.608
1041.829, 4255.935
1042.311, 4248.819
1042.793, 4244.552
1043.275, 4242.927
1043.757, 4244.850
1044.239, 4249.884
1044.722, 4259.753
1045.204, 4275.083
1045.686, 4296.090
1046.168, 4328.219
1046.650, 4360.510
1047.132, 4421.847
1047.614, 4520.817
1048.096, 4655.964
1048.578, 4842.333
1049.061, 5061.705
1049.543, 5252.995
1050.025, 5395.341
1050.507, 5509.606
1050.989, 5588.544
1051.471, 5657.627
1051.953, 5734.396
1052.435, 5818.245
1052.917, 5923.531
1053.400, 6049.390
1053.882, 6208.519
1054.364, 6386.628
1054.846, 6619.402
1055.328, 6906.212
1055.810, 7281.526
1056.292, 7842.277
1056.774, 8645.318
1057.257, 9581.010
1057.739, 10626.15
1058.221, 11830.51
1058.703, 13244.25
1059.185, 14874.12
1059.667, 17177.33
1060.149, 20139.87
1060.631, 21660.86
1061.114, 20003.89
1061.596, 17189.23
1062.078, 13709.66
1062.560, 9997.721
1063.042, 7457.039
1063.524, 6108.607
1064.006, 5281.057
1064.488, 4869.011
1064.970, 4668.976
1065.453, 4553.019
1065.935, 4487.636
1066.417, 4436.326
1066.899, 4396.114
1067.381, 4367.685
1067.863, 4353.445
1068.345, 4344.102
1068.827, 4335.903
1069.309, 4327.701
1069.792, 4314.677
1070.274, 4299.476
1070.756, 4289.497
1071.238, 4291.837
1071.720, 4294.686
1072.202, 4296.371
1072.684, 4296.692
1073.166, 4294.858
1073.649, 4291.094
1074.131, 4288.525
1074.613, 4287.323
1075.095, 4286.248
1075.577, 4282.892
1076.059, 4280.820
1076.541, 4284.740
1077.023, 4292.213
1077.505, 4292.160
1077.988, 4282.190
1078.470, 4277.215
1078.952, 4281.118
1079.434, 4287.493
1079.916, 4288.415
1080.398, 4286.974
1080.880, 4287.567
1081.362, 4291.202
1081.844, 4294.296
1082.327, 4297.804
1082.809, 4297.918
1083.291, 4290.898
1083.773, 4281.040
1084.255, 4282.456
1084.737, 4291.534
1085.219, 4296.241
1085.701, 4289.960
1086.183, 4283.362
1086.666, 4279.985
1087.148, 4278.667
1087.630, 4278.543
1088.112, 4279.605
1088.594, 4283.026
1089.076, 4288.677
1089.558, 4292.924
1090.040, 4292.511
1090.523, 4290.744
1091.005, 4290.193
1091.487, 4290.220
1091.969, 4288.886
1092.451, 4284.958
1092.933, 4284.128
1093.415, 4287.614
1093.897, 4291.236
1094.380, 4289.095
1094.862, 4285.182
1095.344, 4285.273
1095.826, 4289.593
1096.308, 4294.255
1096.790, 4297.988
1097.272, 4302.801
1097.754, 4310.091
1098.236, 4317.274
1098.719, 4318.630
1099.201, 4315.632
1099.683, 4312.181
1100.165, 4308.784
1100.647, 4307.320
1101.129, 4311.310
1101.611, 4314.927
1102.093, 4314.856
1102.575, 4311.602
1103.058, 4308.208
1103.540, 4304.817
1104.022, 4302.972
1104.504, 4304.185
1104.986, 4305.614
1105.468, 4304.602
1105.950, 4302.937
1106.432, 4303.099
1106.915, 4306.086
1107.397, 4306.305
1107.879, 4303.314
1108.361, 4301.065
1108.843, 4302.952
1109.325, 4306.649
1109.807, 4310.373
1110.289, 4313.544
1110.771, 4314.365
1111.254, 4307.529
1111.736, 4308.478
1112.218, 4321.037
1112.700, 4335.022
1113.182, 4339.910
1113.664, 4337.863
1114.146, 4330.971
1114.628, 4320.372
1115.110, 4313.776
1115.593, 4318.254
1116.075, 4322.158
1116.557, 4321.692
1117.039, 4319.655
1117.521, 4322.370
1118.003, 4328.571
1118.485, 4331.814
1118.967, 4330.780
1119.450, 4330.079
1119.932, 4333.185
1120.414, 4336.904
1120.896, 4339.345
1121.378, 4340.801
1121.860, 4343.376
1122.342, 4346.965
1122.824, 4347.175
1123.307, 4341.244
1123.789, 4335.271
1124.271, 4336.672
1124.753, 4339.536
1125.235, 4335.712
1125.717, 4322.975
1126.199, 4321.188
1126.681, 4331.851
1127.163, 4342.463
1127.646, 4345.928
1128.128, 4346.336
1128.610, 4347.820
1129.092, 4350.374
1129.574, 4354.086
1130.056, 4361.290
1130.538, 4364.822
1131.020, 4363.632
1131.502, 4361.627
1131.985, 4361.950
1132.467, 4363.637
1132.949, 4364.561
1133.431, 4365.026
1133.913, 4366.264
1134.395, 4371.789
1134.877, 4373.174
1135.359, 4367.108
1135.842, 4360.077
1136.324, 4361.571
1136.806, 4368.564
1137.288, 4369.889
1137.770, 4365.279
1138.252, 4361.462
1138.734, 4362.157
1139.216, 4363.985
1139.698, 4365.979
1140.181, 4368.070
1140.663, 4369.897
1141.145, 4371.591
1141.627, 4374.222
1142.109, 4378.103
1142.591, 4381.215
1143.073, 4380.689
1143.555, 4380.406
1144.037, 4383.546
1144.520, 4388.938
1145.002, 4393.246
1145.484, 4396.382
1145.966, 4391.892
1146.448, 4374.636
1146.930, 4361.202
1147.412, 4372.819
1147.894, 4390.728
1148.377, 4395.192
1148.859, 4385.355
1149.341, 4379.388
1149.823, 4377.441
1150.305, 4378.479
1150.787, 4383.929
1151.269, 4388.937
1151.751, 4386.091
1152.234, 4380.325
1152.716, 4378.691
1153.198, 4383.722
1153.680, 4387.800
1154.162, 4390.890
1154.644, 4393.298
1155.126, 4395.875
1155.608, 4397.283
1156.090, 4393.347
1156.573, 4387.066
1157.055, 4384.599
1157.537, 4390.890
1158.019, 4396.257
1158.501, 4401.172
1158.983, 4403.623
1159.465, 4398.758
1159.947, 4391.722
1160.429, 4394.541
1160.912, 4404.788
1161.394, 4413.010
1161.876, 4414.131
1162.358, 4415.640
1162.840, 4418.917
1163.322, 4421.995
1163.804, 4420.870
1164.286, 4418.196
1164.769, 4423.884
1165.251, 4436.741
1165.733, 4443.905
1166.215, 4433.157
1166.697, 4424.590
1167.179, 4423.782
1167.661, 4426.342
1168.143, 4424.374
1168.625, 4419.875
1169.108, 4422.352
1169.590, 4432.644
1170.072, 4438.700
1170.554, 4425.892
1171.036, 4418.302
1171.518, 4428.550
1172.000, 4446.607
1172.482, 4446.046
1172.964, 4431.438
1173.447, 4429.663
1173.929, 4447.197
1174.411, 4460.505
1174.893, 4448.765
1175.375, 4435.874
1175.857, 4435.781
1176.339, 4444.437
1176.821, 4446.054
1177.304, 4441.665
1177.786, 4440.190
1178.268, 4444.710
1178.750, 4449.204
1179.232, 4447.614
1179.714, 4446.482
1180.196, 4452.606
1180.678, 4464.158
1181.161, 4461.646
1181.643, 4446.387
1182.125, 4438.243
1182.607, 4447.380
1183.089, 4457.986
1183.571, 4458.995
1184.053, 4455.538
1184.535, 4452.109
1185.017, 4448.844
1185.500, 4446.171
1185.982, 4444.177
1186.464, 4445.985
1186.946, 4455.439
1187.428, 4465.299
1187.910, 4470.571
1188.392, 4472.317
1188.874, 4471.153
1189.356, 4466.435
1189.839, 4465.050
1190.321, 4466.988
1190.803, 4470.580
1191.285, 4477.319
1191.767, 4482.453
1192.249, 4479.360
1192.731, 4473.536
1193.213, 4474.091
1193.696, 4484.261
1194.178, 4484.894
1194.660, 4475.323
1195.142, 4466.795
1195.624, 4468.192
1196.106, 4472.685
1196.588, 4474.554
1197.070, 4475.492
1197.552, 4479.355
1198.035, 4487.883
1198.517, 4491.745
1198.999, 4490.372
1199.481, 4486.809
1199.963, 4481.334
1200.445, 4476.525
1200.927, 4474.989
1201.409, 4475.802
1201.891, 4476.099
1202.374, 4474.954
1202.856, 4477.172
1203.338, 4483.333
1203.820, 4490.199
1204.302, 4496.036
1204.784, 4500.343
1205.266, 4502.192
1205.748, 4502.053
1206.231, 4501.319
1206.713, 4499.171
1207.195, 4501.933
1207.677, 4511.073
1208.159, 4519.239
1208.641, 4520.544
1209.123, 4517.148
1209.605, 4507.002
1210.088, 4493.563
1210.570, 4491.501
1211.052, 4503.657
1211.534, 4511.218
1212.016, 4511.022
1212.498, 4507.873
1212.980, 4502.871
1213.462, 4499.965
1213.944, 4504.221
1214.427, 4514.556
1214.909, 4522.790
1215.391, 4528.821
1215.873, 4533.164
1216.355, 4535.889
1216.837, 4536.954
1217.319, 4535.216
1217.801, 4532.683
1218.283, 4530.990
1218.766, 4530.240
1219.248, 4530.071
1219.730, 4530.494
1220.212, 4531.537
1220.694, 4533.251
1221.176, 4535.463
1221.658, 4539.601
1222.140, 4542.999
1222.623, 4542.457
1223.105, 4538.552
1223.587, 4536.638
1224.069, 4537.017
1224.551, 4534.223
1225.033, 4525.851
1225.515, 4518.835
1225.997, 4519.743
1226.479, 4524.622
1226.962, 4531.503
1227.444, 4539.517
1227.926, 4543.813
1228.408, 4544.305
1228.890, 4545.178
1229.372, 4547.673
1229.854, 4550.394
1230.336, 4553.312
1230.818, 4554.935
1231.301, 4552.417
1231.783, 4547.082
1232.265, 4548.572
1232.747, 4556.594
1233.229, 4563.440
1233.711, 4566.998
1234.193, 4568.231
1234.675, 4566.993
1235.158, 4564.309
1235.640, 4560.583
1236.122, 4556.174
1236.604, 4552.957
1237.086, 4551.063
1237.568, 4551.923
1238.050, 4557.435
1238.532, 4561.182
1239.015, 4558.140
1239.497, 4552.698
1239.979, 4546.438
1240.461, 4540.695
1240.943, 4545.579
1241.425, 4558.604
1241.907, 4564.989
1242.389, 4557.441
1242.871, 4550.372
1243.354, 4551.782
1243.836, 4555.144
1244.318, 4556.126
1244.800, 4556.151
1245.282, 4563.501
1245.764, 4575.763
1246.246, 4582.729
1246.728, 4579.598
1247.210, 4576.004
1247.693, 4574.034
1248.175, 4574.285
1248.657, 4577.566
1249.139, 4583.042
1249.621, 4588.864
1250.103, 4594.469
1250.585, 4598.510
1251.067, 4600.766
1251.550, 4600.775
1252.032, 4596.415
1252.514, 4593.762
1252.996, 4597.394
1253.478, 4603.591
1253.960, 4602.056
1254.442, 4596.083
1254.924, 4592.755
1255.406, 4595.223
1255.889, 4596.532
1256.371, 4595.296
1256.853, 4594.653
1257.335, 4596.536
1257.817, 4599.557
1258.299, 4600.447
1258.781, 4600.957
1259.263, 4605.112
1259.745, 4617.601
1260.228, 4618.851
1260.710, 4604.980
1261.192, 4594.020
1261.674, 4595.917
1262.156, 4603.488
1262.638, 4606.110
1263.120, 4608.226
1263.602, 4618.473
1264.085, 4641.629
1264.567, 4647.036
1265.049, 4632.444
1265.531, 4620.618
1266.013, 4624.425
1266.495, 4631.047
1266.977, 4627.181
1267.459, 4619.067
1267.942, 4613.188
1268.424, 4609.621
1268.906, 4613.932
1269.388, 4626.012
1269.870, 4636.900
1270.352, 4643.695
1270.834, 4646.224
1271.316, 4640.849
1271.798, 4634.037
1272.281, 4631.558
1272.763, 4633.003
1273.245, 4634.990
1273.727, 4637.195
1274.209, 4636.829
1274.691, 4629.923
1275.173, 4627.569
1275.655, 4641.524
1276.137, 4655.391
1276.620, 4659.373
1277.102, 4655.551
1277.584, 4651.067
1278.066, 4646.431
1278.548, 4642.933
1279.030, 4639.907
1279.512, 4641.833
1279.994, 4654.348
1280.476, 4664.479
1280.959, 4664.225
1281.441, 4659.187
1281.923, 4664.283
1282.405, 4674.786
1282.887, 4680.229
1283.369, 4676.015
1283.851, 4675.612
1284.333, 4682.341
1284.816, 4685.749
1285.298, 4678.696
1285.780, 4669.993
1286.262, 4675.335
1286.744, 4686.728
1287.226, 4692.599
1287.708, 4690.214
1288.190, 4688.734
1288.672, 4688.250
1289.155, 4687.503
1289.637, 4685.239
1290.119, 4684.556
1290.601, 4690.743
1291.083, 4698.752
1291.565, 4703.304
1292.047, 4704.586
1292.529, 4704.704
1293.011, 4703.752
1293.494, 4703.465
1293.976, 4705.141
1294.458, 4704.885
1294.940, 4696.880
1295.422, 4689.136
1295.904, 4686.631
1296.386, 4688.567
1296.868, 4693.253
1297.351, 4699.623
1297.833, 4703.125
1298.315, 4702.179
1298.797, 4701.107
1299.279, 4699.962
1299.761, 4701.353
1300.243, 4707.908
1300.725, 4716.086
1301.208, 4718.342
1301.690, 4716.277
1302.172, 4712.692
1302.654, 4708.032
1303.136, 4703.504
1303.618, 4698.207
1304.100, 4695.276
1304.582, 4696.743
1305.064, 4703.453
##END=



