##NAMES=Wittichenite
##RRUFFID=R100013
##IDEAL CHEMISTRY=Cu_3_BiS_3_
##LOCALITY=Cattle Grid pit, Mt. Gunson mine, Pernatty Lagoon, South Australia
##OWNER=RRUFF
##SOURCE=William Pinch
##DESCRIPTION=Sharp terminated brownish-black crystal
##STATUS=The identification of this mineral has been confirmed by single-crystal X-ray diffraction.
##URL=rruff.info/R100013
89.60352, 6.286267
90.08563, 4.816436
90.56775, 4.544669
91.04987, 6.281059
91.53198, 8.473414
92.01410, 8.983196
92.49622, 7.887344
92.97833, 6.498635
93.46045, 5.910573
93.94257, 5.977769
94.42468, 6.230843
94.90680, 6.710503
95.38892, 7.248534
95.87103, 7.297110
96.35315, 6.808587
96.83527, 6.015183
97.31738, 5.123897
97.79950, 4.125909
98.28162, 3.208018
98.76373, 2.276181
99.24585, 1.309953
99.72797, 1.221651
100.2101, 2.348875
100.6922, 4.060051
101.1743, 4.837698
101.6564, 4.460436
102.1385, 3.770337
102.6207, 3.194290
103.1028, 2.716569
103.5849, 2.430990
104.0670, 2.417488
104.5491, 2.631169
105.0313, 2.688122
105.5134, 2.314766
105.9955, 2.067758
106.4776, 2.453884
106.9597, 4.404040
107.4418, 5.651967
107.9240, 5.563050
108.4061, 3.888224
108.8882, 2.816749
109.3703, 2.696635
109.8524, 3.049900
110.3345, 3.373581
110.8167, 4.033605
111.2988, 4.321341
111.7809, 3.949438
112.2630, 2.615931
112.7451, 1.478583
113.2272, 0.5644683
113.7094, -4.2702328E-02
114.1915, -0.2137435
114.6736, 0.5509992
115.1557, 1.432555
115.6378, 2.001320
116.1199, 1.944672
116.6021, 2.004961
117.0842, 2.616645
117.5663, 3.588150
118.0484, 4.344072
118.5305, 4.756994
119.0126, 4.797451
119.4948, 4.391816
119.9769, 2.891582
120.4590, 1.572245
120.9411, 1.314512
121.4232, 2.028383
121.9053, 3.076730
122.3875, 4.745100
122.8696, 6.365511
123.3517, 7.010481
123.8338, 5.371946
124.3159, 3.069535
124.7980, 1.894555
125.2802, 1.873827
125.7623, 2.190166
126.2444, 2.065851
126.7265, 1.690764
127.2086, 1.571016
127.6907, 2.239532
128.1729, 3.283242
128.6550, 3.879178
129.1371, 3.959914
129.6192, 3.699618
130.1013, 3.098958
130.5834, 2.229872
131.0656, 1.627528
131.5477, 1.718805
132.0298, 2.381892
132.5119, 3.017219
132.9940, 3.581320
133.4761, 4.076731
133.9583, 4.512000
134.4404, 4.881509
134.9225, 5.255346
135.4046, 5.647868
135.8867, 6.058419
136.3688, 6.613574
136.8510, 7.415720
137.3331, 8.344604
137.8152, 8.993364
138.2973, 9.329629
138.7794, 9.476534
139.2615, 9.600125
139.7437, 9.790898
140.2258, 9.518273
140.7079, 8.402044
141.1900, 6.521037
141.6721, 5.708420
142.1542, 6.372841
142.6364, 7.571398
143.1185, 8.283652
143.6006, 8.237970
144.0827, 8.229778
144.5648, 8.394184
145.0469, 8.710898
145.5291, 9.369291
146.0112, 10.60212
146.4933, 12.05275
146.9754, 13.26219
147.4575, 14.35206
147.9396, 15.03640
148.4218, 15.19882
148.9039, 14.65534
149.3860, 14.02032
149.8681, 12.92324
150.3502, 11.77410
150.8323, 11.40288
151.3145, 12.67505
151.7966, 13.99946
152.2787, 14.85896
152.7608, 14.91338
153.2429, 14.99401
153.7250, 15.59077
154.2072, 16.31104
154.6893, 16.05422
155.1714, 12.34905
155.6535, 9.195241
156.1356, 8.657953
156.6177, 14.10974
157.0999, 18.26420
157.5820, 19.37776
158.0641, 18.03505
158.5462, 16.56726
159.0283, 15.26358
159.5104, 14.21827
159.9926, 13.49065
160.4747, 12.97938
160.9568, 12.87975
161.4389, 13.53331
161.9210, 14.80944
162.4031, 15.78639
162.8853, 16.14237
163.3674, 16.01794
163.8495, 15.54169
164.3316, 14.02315
164.8137, 12.77167
165.2958, 12.58095
165.7780, 13.43721
166.2601, 14.44146
166.7422, 15.39010
167.2243, 16.14725
167.7064, 16.53013
168.1885, 16.29854
168.6707, 15.80125
169.1528, 15.10059
169.6349, 14.16222
170.1170, 13.60684
170.5991, 14.20211
171.0812, 15.43648
171.5634, 16.41231
172.0455, 16.76211
172.5276, 16.66347
173.0097, 16.05218
173.4918, 14.78980
173.9739, 13.87133
174.4561, 14.71238
174.9382, 16.59810
175.4203, 17.81072
175.9024, 16.72567
176.3845, 14.68876
176.8666, 13.58806
177.3488, 13.72979
177.8309, 14.34614
178.3130, 14.73196
178.7951, 14.92037
179.2772, 15.01635
179.7593, 14.97453
180.2415, 14.89784
180.7236, 15.07706
181.2057, 15.67942
181.6878, 16.21449
182.1699, 15.82832
182.6520, 14.65840
183.1342, 13.57392
183.6163, 13.06727
184.0984, 13.08311
184.5805, 13.59229
185.0626, 14.80309
185.5447, 16.15090
186.0269, 16.53583
186.5090, 15.99407
186.9911, 15.45830
187.4732, 15.84398
187.9553, 16.90177
188.4374, 17.37829
188.9196, 16.93726
189.4017, 15.95045
189.8838, 15.00110
190.3659, 14.05202
190.8480, 13.65307
191.3301, 14.69067
191.8123, 16.97450
192.2944, 18.41221
192.7765, 18.34739
193.2586, 17.33725
193.7407, 17.09815
194.2228, 17.72348
194.7050, 18.43486
195.1871, 18.58729
195.6692, 18.18567
196.1513, 17.53697
196.6334, 16.51070
197.1155, 15.33533
197.5977, 15.01233
198.0798, 15.68923
198.5619, 16.64081
199.0440, 17.29006
199.5261, 17.64849
200.0082, 17.56478
200.4904, 16.73486
200.9725, 15.38584
201.4546, 15.13603
201.9367, 16.26204
202.4188, 17.70623
202.9009, 18.44106
203.3831, 18.42119
203.8652, 18.00959
204.3473, 17.03111
204.8294, 15.60716
205.3115, 15.31421
205.7936, 16.53042
206.2758, 18.07209
206.7579, 18.55420
207.2400, 17.69084
207.7221, 17.04282
208.2042, 17.11789
208.6863, 17.89334
209.1685, 18.14122
209.6506, 17.59912
210.1327, 16.98196
210.6148, 17.29782
211.0969, 18.96899
211.5790, 20.10816
212.0612, 20.06882
212.5433, 18.82261
213.0254, 17.87410
213.5075, 17.19014
213.9896, 16.84466
214.4717, 16.98661
214.9538, 17.76406
215.4360, 18.64354
215.9181, 19.63398
216.4002, 20.77858
216.8823, 21.14166
217.3644, 20.29753
217.8465, 19.15332
218.3287, 18.91761
218.8108, 20.04205
219.2929, 21.03531
219.7750, 21.43413
220.2571, 21.13658
220.7392, 21.24587
221.2214, 22.10219
221.7035, 23.02538
222.1856, 23.00479
222.6677, 21.37451
223.1498, 20.21575
223.6319, 20.24097
224.1141, 21.63574
224.5962, 22.72571
225.0783, 23.42051
225.5604, 23.87897
226.0425, 24.36504
226.5246, 25.10292
227.0068, 25.40064
227.4889, 24.82405
227.9710, 23.07574
228.4531, 22.46513
228.9352, 23.55845
229.4173, 25.31063
229.8995, 26.29675
230.3816, 26.17131
230.8637, 25.91807
231.3458, 25.77546
231.8279, 25.74815
232.3100, 25.79992
232.7922, 26.00377
233.2743, 26.22729
233.7564, 26.27160
234.2385, 25.95753
234.7206, 25.77509
235.2027, 25.81123
235.6849, 26.03967
236.1670, 26.75159
236.6491, 28.52008
237.1312, 30.31164
237.6133, 30.65536
238.0954, 28.45423
238.5776, 26.72878
239.0597, 26.34180
239.5418, 27.49886
240.0239, 28.59038
240.5060, 29.75595
240.9881, 30.74262
241.4703, 31.16049
241.9524, 30.57779
242.4345, 30.21473
242.9166, 30.46908
243.3987, 31.46529
243.8808, 32.12086
244.3630, 32.24557
244.8451, 32.20151
245.3272, 32.44376
245.8093, 33.18816
246.2914, 33.82002
246.7735, 34.13678
247.2557, 34.08463
247.7378, 34.30320
248.2199, 34.93180
248.7020, 35.69585
249.1841, 36.26416
249.6662, 36.44701
250.1484, 36.81873
250.6305, 37.64478
251.1126, 38.97201
251.5947, 39.69871
252.0768, 39.46862
252.5589, 39.00861
253.0411, 39.05575
253.5232, 39.68180
254.0053, 40.67357
254.4874, 42.13761
254.9695, 44.09446
255.4516, 45.67156
255.9338, 46.92752
256.4159, 47.73651
256.8980, 47.84119
257.3801, 46.82973
257.8622, 46.14112
258.3444, 46.21553
258.8265, 47.00461
259.3086, 47.09967
259.7907, 46.03551
260.2728, 44.95277
260.7549, 44.99241
261.2371, 46.66877
261.7192, 48.00874
262.2013, 48.53457
262.6834, 48.35752
263.1655, 48.66052
263.6476, 49.75576
264.1298, 50.80830
264.6119, 51.08632
265.0940, 50.30377
265.5761, 49.66649
266.0582, 49.23714
266.5403, 49.07988
267.0225, 49.70982
267.5046, 51.44031
267.9867, 53.29443
268.4688, 54.61730
268.9509, 55.41052
269.4330, 55.67067
269.9152, 55.25218
270.3973, 54.33431
270.8794, 53.55536
271.3615, 52.81227
271.8436, 52.49114
272.3257, 53.03169
272.8079, 54.61318
273.2900, 55.84671
273.7721, 56.48436
274.2542, 56.77744
274.7363, 57.57081
275.2184, 59.02593
275.7006, 60.35073
276.1827, 60.86568
276.6648, 60.47172
277.1469, 60.61885
277.6290, 61.56343
278.1111, 62.92682
278.5933, 63.77394
279.0754, 64.00050
279.5575, 64.37660
280.0396, 65.45803
280.5217, 67.24007
281.0038, 68.80789
281.4860, 70.17812
281.9681, 71.21706
282.4502, 71.43404
282.9323, 70.75108
283.4144, 70.36006
283.8965, 70.91396
284.3787, 72.34449
284.8608, 74.03586
285.3429, 76.10407
285.8250, 78.07645
286.3071, 79.25137
286.7892, 79.63863
287.2714, 79.65221
287.7535, 79.37868
288.2356, 78.85165
288.7177, 78.31759
289.1998, 77.79858
289.6819, 77.14112
290.1641, 76.04696
290.6462, 74.57581
291.1283, 73.21067
291.6104, 72.33427
292.0925, 71.67460
292.5746, 70.42664
293.0568, 68.55981
293.5389, 66.43096
294.0210, 64.26260
294.5031, 62.10909
294.9852, 60.22961
295.4673, 58.81331
295.9495, 57.67265
296.4316, 56.61886
296.9137, 55.64664
297.3958, 54.40310
297.8779, 52.28369
298.3600, 49.66103
298.8422, 47.40657
299.3243, 45.77087
299.8064, 44.58459
300.2885, 43.72290
300.7706, 43.15203
301.2527, 42.61170
301.7349, 41.97506
302.2170, 41.23752
302.6991, 40.39949
303.1812, 39.43578
303.6633, 38.40060
304.1454, 37.19579
304.6276, 35.92308
305.1097, 34.92335
305.5918, 34.56076
306.0739, 34.53514
306.5560, 34.57790
307.0381, 34.74893
307.5203, 34.66494
308.0024, 33.98137
308.4845, 32.79845
308.9666, 31.35055
309.4487, 29.05072
309.9308, 26.94650
310.4130, 26.22210
310.8951, 27.23212
311.3772, 28.19706
311.8593, 27.90262
312.3414, 26.83307
312.8235, 25.75670
313.3057, 24.64805
313.7878, 23.87112
314.2699, 23.85599
314.7520, 24.66547
315.2341, 25.25967
315.7162, 24.95567
316.1984, 24.23217
316.6805, 23.63029
317.1626, 23.47314
317.6447, 23.32275
318.1268, 22.96365
318.6089, 22.40663
319.0911, 21.93508
319.5732, 21.74678
320.0553, 21.62479
320.5374, 21.40456
321.0195, 20.86325
321.5016, 20.41880
321.9838, 20.14070
322.4659, 20.02824
322.9480, 20.07602
323.4301, 20.38062
323.9122, 20.77785
324.3943, 21.21071
324.8765, 22.17361
325.3586, 22.45477
325.8407, 21.41754
326.3228, 19.59314
326.8049, 18.32946
327.2870, 18.35487
327.7692, 18.40126
328.2513, 17.92844
328.7334, 16.32590
329.2155, 15.63962
329.6976, 16.61987
330.1797, 18.26915
330.6619, 18.99570
331.1440, 18.05472
331.6261, 17.19646
332.1082, 16.93919
332.5903, 17.40906
333.0724, 17.60527
333.5546, 17.38519
334.0367, 17.02177
334.5188, 16.83364
335.0009, 16.95880
335.4830, 16.95409
335.9651, 16.78885
336.4473, 16.44514
336.9294, 15.54361
337.4115, 13.64402
337.8936, 12.05337
338.3757, 12.16022
338.8578, 14.49175
339.3399, 15.73165
339.8221, 15.03999
340.3042, 13.17649
340.7863, 12.77304
341.2684, 14.12295
341.7505, 15.43816
342.2326, 15.47943
342.7148, 14.25923
343.1969, 13.36235
343.6790, 12.94595
344.1611, 12.81403
344.6432, 12.59539
345.1253, 12.29369
345.6075, 12.21658
346.0896, 12.79396
346.5717, 13.78309
347.0538, 14.02857
347.5359, 13.43874
348.0180, 12.56608
348.5002, 11.88037
348.9823, 11.41259
349.4644, 11.31090
349.9465, 11.89436
350.4286, 12.73358
350.9107, 13.09205
351.3929, 12.97589
351.8750, 12.64959
352.3571, 12.20108
352.8392, 11.71180
353.3213, 11.31592
353.8034, 10.99649
354.2856, 10.85858
354.7677, 11.24127
355.2498, 11.97993
355.7319, 12.41301
356.2140, 11.62334
356.6961, 10.57869
357.1783, 10.38802
357.6604, 11.55768
358.1425, 12.64469
358.6246, 12.58603
359.1067, 11.81171
359.5888, 11.16023
360.0710, 11.08354
360.5531, 11.16788
361.0352, 11.26024
361.5173, 11.37842
361.9994, 11.21430
362.4815, 10.05175
362.9637, 8.773335
363.4458, 8.325409
363.9279, 10.12869
364.4100, 11.63455
364.8921, 11.79989
365.3742, 10.73460
365.8564, 10.04319
366.3385, 10.43037
366.8206, 10.98112
367.3027, 11.14484
367.7848, 10.36879
368.2669, 9.811670
368.7491, 9.570616
369.2312, 9.593838
369.7133, 9.767091
370.1954, 10.37672
370.6775, 10.82491
371.1596, 10.81550
371.6418, 10.04309
372.1239, 9.730967
372.6060, 10.20214
373.0881, 10.90546
373.5702, 10.95514
374.0523, 9.911422
374.5345, 9.252141
375.0166, 9.601315
375.4987, 10.93383
375.9808, 11.25923
376.4629, 10.27547
376.9450, 8.941390
377.4272, 7.982032
377.9093, 7.374726
378.3914, 7.444419
378.8735, 8.506374
379.3556, 10.08285
379.8377, 10.83164
380.3199, 10.70547
380.8020, 10.25827
381.2841, 9.730410
381.7662, 9.152493
382.2483, 8.672140
382.7304, 8.255161
383.2126, 8.077184
383.6947, 8.602885
384.1768, 9.677392
384.6589, 10.51614
385.1410, 10.51413
385.6231, 10.13628
386.1053, 10.31001
386.5874, 11.06374
387.0695, 11.63927
387.5516, 11.33386
388.0337, 10.42252
388.5158, 9.345246
388.9980, 7.811304
389.4801, 6.621985
389.9622, 6.718142
390.4443, 7.842307
390.9264, 8.934635
391.4085, 9.536580
391.8907, 9.781957
392.3728, 9.716578
392.8549, 9.209270
393.3370, 8.763041
393.8191, 8.589019
394.3012, 8.620134
394.7834, 8.743310
395.2655, 9.471292
395.7476, 9.797681
396.2297, 8.986625
396.7118, 6.760269
397.1939, 5.421236
397.6761, 5.934052
398.1582, 7.167168
398.6403, 8.175345
399.1224, 8.874405
399.6045, 9.371075
400.0866, 9.727679
400.5688, 9.909994
401.0509, 9.677579
401.5330, 8.627716
402.0151, 7.652605
402.4972, 7.196962
402.9793, 7.455455
403.4615, 7.759086
403.9436, 8.190119
404.4257, 8.592367
404.9078, 8.647745
405.3899, 8.267634
405.8720, 7.879082
406.3542, 7.606413
406.8363, 7.445493
407.3184, 7.334872
407.8005, 7.257186
408.2826, 7.295533
408.7647, 7.664273
409.2469, 8.318135
409.7290, 8.620197
410.2111, 8.273463
410.6932, 7.741274
411.1753, 8.133947
411.6574, 9.343487
412.1396, 10.34719
412.6217, 10.30735
413.1038, 9.643123
413.5859, 9.130507
414.0680, 8.848836
414.5501, 8.658366
415.0323, 8.372828
415.5144, 8.082222
415.9965, 7.956164
416.4786, 8.272754
416.9607, 8.632901
417.4428, 8.694734
417.9250, 8.484420
418.4071, 8.276081
418.8892, 8.271109
419.3713, 8.302588
419.8534, 8.219751
420.3355, 7.881910
420.8177, 7.602252
421.2998, 7.523384
421.7819, 7.571517
422.2640, 7.584019
422.7461, 7.662098
423.2282, 7.576029
423.7104, 7.041937
424.1925, 5.726284
424.6746, 5.339964
425.1567, 6.854466
425.6388, 8.760939
426.1209, 9.732505
426.6031, 9.261135
427.0852, 8.633734
427.5673, 7.827868
428.0494, 6.957424
428.5315, 6.772967
429.0136, 7.582973
429.4958, 8.430313
429.9779, 8.825756
430.4600, 8.749858
430.9421, 8.226552
431.4242, 7.036176
431.9063, 5.818288
432.3885, 5.767514
432.8706, 6.898525
433.3527, 7.857702
433.8348, 8.055742
434.3169, 7.765138
434.7990, 7.930422
435.2812, 8.555318
435.7633, 8.977237
436.2454, 8.256589
436.7275, 6.926137
437.2096, 6.274180
437.6917, 6.708105
438.1739, 7.494081
438.6560, 7.986454
439.1381, 8.218485
439.6202, 8.277445
440.1023, 8.123027
440.5844, 7.870507
441.0666, 7.621536
441.5487, 7.387603
442.0308, 7.077894
442.5129, 6.466286
442.9950, 5.838874
443.4771, 5.468964
443.9593, 5.572601
444.4414, 5.789319
444.9235, 6.134463
445.4056, 6.540838
445.8877, 6.782770
446.3698, 6.485857
446.8520, 6.312096
447.3341, 6.616551
447.8162, 7.709579
448.2983, 8.309175
448.7804, 8.101306
449.2625, 7.615135
449.7447, 7.464564
450.2268, 7.779643
450.7089, 8.144275
451.1910, 8.556622
451.6731, 8.958459
452.1552, 8.941088
452.6374, 8.377450
453.1195, 7.864067
453.6016, 7.946715
454.0837, 8.593358
454.5658, 8.615169
455.0479, 7.780190
455.5301, 6.794511
456.0122, 6.866668
456.4943, 7.803102
456.9764, 8.423944
457.4585, 8.062027
457.9406, 7.254622
458.4228, 6.810637
458.9049, 6.724946
459.3870, 6.910089
459.8691, 7.827096
460.3512, 8.775800
460.8333, 8.672819
461.3155, 6.827380
461.7976, 5.266497
462.2797, 5.671706
462.7618, 7.204587
463.2439, 8.397258
463.7260, 8.554166
464.2082, 8.386067
464.6903, 8.086454
465.1724, 7.671386
465.6545, 7.405459
466.1366, 7.589592
466.6187, 7.783394
467.1009, 7.696776
467.5830, 6.719455
468.0651, 6.268110
468.5472, 6.543152
469.0293, 7.287838
469.5114, 8.079175
469.9936, 9.235446
470.4757, 9.782016
470.9578, 9.178420
471.4399, 7.441536
471.9220, 6.403505
472.4041, 6.146949
472.8863, 6.366916
473.3684, 7.020592
473.8505, 8.087174
474.3326, 8.709512
474.8147, 8.718292
475.2968, 8.310686
475.7790, 7.680498
476.2611, 6.869919
476.7432, 6.180066
477.2253, 5.726521
477.7074, 5.496413
478.1895, 5.555186
478.6717, 5.899121
479.1538, 6.224768
479.6359, 6.198595
480.1180, 6.058305
480.6001, 6.126816
481.0822, 6.680742
481.5644, 7.136383
482.0465, 6.938817
482.5286, 6.426017
483.0107, 6.330263
483.4928, 7.667974
483.9749, 8.774249
484.4571, 8.765917
484.9392, 7.399655
485.4213, 6.508245
485.9034, 6.650790
486.3855, 7.060715
486.8676, 7.205809
487.3498, 6.730285
487.8319, 6.672080
488.3140, 7.350557
488.7961, 8.361443
489.2782, 8.660840
489.7603, 8.029406
490.2425, 7.415029
490.7246, 7.252141
491.2067, 7.479960
491.6888, 7.344870
492.1709, 6.773199
492.6530, 6.272616
493.1352, 6.408219
493.6173, 7.038232
494.0994, 7.613430
494.5815, 8.079157
495.0636, 8.329067
495.5457, 7.969937
496.0279, 7.232472
496.5100, 6.803704
496.9921, 7.526207
497.4742, 8.373229
497.9563, 8.265025
498.4384, 7.215607
498.9206, 6.293490
499.4027, 5.896544
499.8848, 5.945815
500.3669, 6.452852
500.8490, 8.115639
501.3311, 9.068747
501.8133, 8.254772
502.2954, 6.557731
502.7775, 5.648252
503.2596, 6.185549
503.7417, 6.926325
504.2238, 7.742918
504.7060, 8.628699
505.1881, 9.034133
505.6702, 8.773243
506.1523, 8.330846
506.6344, 8.071454
507.1165, 8.059102
507.5987, 7.676828
508.0808, 6.715155
508.5629, 5.739342
509.0450, 5.661256
509.5271, 6.437802
510.0092, 7.536577
510.4914, 9.116889
510.9735, 10.68773
511.4556, 11.23347
511.9377, 10.80858
512.4199, 9.913431
512.9020, 8.406505
513.3841, 6.836063
513.8662, 5.849542
514.3483, 5.551325
514.8304, 5.771370
515.3126, 7.038735
515.7947, 8.558975
516.2768, 9.339748
516.7589, 8.230968
517.2410, 7.228114
517.7231, 7.138049
518.2053, 7.741919
518.6874, 7.931069
519.1695, 7.050856
519.6516, 6.219101
520.1337, 5.803241
520.6158, 5.826880
521.0980, 6.207737
521.5801, 7.235710
522.0622, 8.248729
522.5443, 8.474557
523.0264, 7.736447
523.5085, 7.302945
523.9907, 7.473069
524.4728, 7.940322
524.9549, 8.043578
525.4370, 7.792624
525.9191, 7.440394
526.4012, 6.848730
526.8834, 6.302375
527.3655, 6.617205
527.8476, 7.773225
528.3297, 8.897071
528.8118, 9.483014
529.2939, 9.560033
529.7761, 8.988476
530.2582, 7.279375
530.7403, 6.026659
531.2224, 6.756662
531.7045, 8.418663
532.1866, 9.285557
532.6688, 7.958937
533.1509, 6.704933
533.6330, 6.279374
534.1151, 6.671608
534.5972, 6.939043
535.0793, 7.049375
535.5615, 7.036858
536.0436, 6.863986
536.5257, 6.391808
537.0078, 6.275220
537.4899, 6.609146
537.9720, 7.146592
538.4542, 7.601103
538.9363, 7.975508
539.4184, 8.320045
539.9005, 8.734852
540.3826, 9.018433
540.8647, 8.475120
541.3469, 7.234316
541.8290, 6.288829
542.3111, 6.454315
542.7932, 7.150467
543.2753, 7.524665
543.7574, 7.546531
544.2396, 7.520121
544.7217, 7.786034
545.2038, 8.041897
545.6859, 7.948609
546.1680, 7.202593
546.6501, 6.520002
547.1323, 6.012801
547.6144, 5.754137
548.0965, 5.859550
548.5786, 7.088720
549.0607, 7.846270
549.5428, 7.510916
550.0250, 6.245686
550.5071, 5.883001
550.9892, 6.959693
551.4713, 7.968573
551.9534, 7.935640
552.4355, 6.700110
552.9177, 6.194788
553.3998, 6.586584
553.8819, 7.214134
554.3640, 7.158739
554.8461, 6.580535
555.3282, 6.460793
555.8104, 7.285614
556.2925, 8.248556
556.7746, 8.027653
557.2567, 6.988966
557.7388, 6.273588
558.2209, 6.935462
558.7031, 7.832870
559.1852, 7.991548
559.6673, 7.414413
560.1494, 6.936867
560.6315, 6.851493
561.1136, 7.014901
561.5958, 7.390369
562.0779, 8.354012
562.5600, 8.777572
563.0421, 8.091680
563.5242, 7.127085
564.0063, 6.990557
564.4885, 8.163198
564.9706, 9.034854
565.4527, 9.281545
565.9348, 9.043534
566.4169, 8.809282
566.8990, 8.598809
567.3812, 8.226374
567.8633, 7.284511
568.3454, 6.078340
568.8275, 5.896609
569.3096, 6.768019
569.7917, 7.709226
570.2739, 7.665878
570.7560, 7.198515
571.2381, 7.237441
571.7202, 8.171336
572.2023, 9.038493
572.6844, 9.107585
573.1666, 8.751663
573.6487, 8.534343
574.1308, 8.842658
574.6129, 9.092420
575.0950, 9.105100
575.5771, 8.903886
576.0593, 8.665525
576.5414, 8.472215
577.0235, 8.139937
577.5056, 7.441058
577.9877, 6.260723
578.4698, 6.056087
578.9520, 7.194479
579.4341, 8.399296
579.9162, 8.294243
580.3983, 6.991838
580.8804, 6.189262
581.3625, 6.154957
581.8447, 6.585240
582.3268, 7.393727
582.8089, 8.354622
583.2910, 8.847994
583.7731, 8.365622
584.2552, 7.529209
584.7373, 6.755464
585.2194, 6.066666
585.7015, 5.546525
586.1837, 5.112611
586.6658, 4.957697
587.1479, 5.279556
587.6300, 6.185334
588.1121, 6.936533
588.5942, 7.498242
589.0764, 7.834867
589.5585, 7.910764
590.0406, 7.673155
590.5227, 7.232942
591.0048, 6.383575
591.4869, 5.585136
591.9691, 5.778936
592.4512, 7.028250
592.9333, 7.856500
593.4154, 7.673143
593.8975, 7.017842
594.3796, 7.146694
594.8618, 7.921062
595.3439, 8.509578
595.8260, 8.236780
596.3081, 7.627738
596.7902, 7.195212
597.2723, 6.965772
597.7545, 6.929886
598.2366, 7.493844
598.7187, 7.989708
599.2008, 7.791097
599.6829, 6.149392
600.1650, 5.237879
600.6472, 6.169350
601.1293, 7.629332
601.6114, 8.096358
602.0935, 6.866172
602.5756, 6.137285
603.0577, 6.442474
603.5399, 7.287878
604.0220, 7.213065
604.5041, 6.108072
604.9862, 5.247525
605.4683, 5.335022
605.9504, 6.046374
606.4326, 6.478942
606.9147, 6.640617
607.3968, 6.646866
607.8789, 6.496913
608.3610, 6.276422
608.8431, 6.065019
609.3253, 5.857717
609.8074, 5.760054
610.2895, 6.094339
610.7716, 6.434117
611.2537, 6.367136
611.7358, 4.959260
612.2180, 4.219645
612.7001, 4.813345
613.1822, 6.063283
613.6643, 6.891359
614.1464, 7.242399
614.6285, 7.231078
615.1107, 6.721929
615.5928, 5.903762
616.0749, 5.614348
616.5570, 5.883656
617.0391, 6.276671
617.5212, 6.593581
618.0034, 6.833833
618.4855, 7.065474
618.9676, 7.286973
619.4497, 7.266133
619.9318, 6.428706
620.4139, 5.431304
620.8961, 5.119643
621.3782, 5.866017
621.8603, 6.550742
622.3424, 6.621506
622.8245, 6.391699
623.3066, 6.221210
623.7888, 6.093870
624.2709, 6.136239
624.7530, 6.519133
625.2351, 7.033448
625.7172, 7.124218
626.1993, 6.616156
626.6815, 6.240981
627.1636, 6.271534
627.6457, 6.602966
628.1278, 6.815467
628.6099, 6.908915
629.0920, 6.922858
629.5742, 6.745413
630.0563, 6.548882
630.5384, 6.855302
631.0205, 7.692899
631.5026, 8.111387
631.9847, 6.629181
632.4669, 4.830010
632.9490, 4.427615
633.4311, 6.648842
633.9132, 8.176265
634.3953, 7.325502
634.8774, 5.647563
635.3596, 5.106270
635.8417, 6.812614
636.3238, 7.806686
636.8059, 7.549535
637.2880, 6.504672
637.7701, 5.719600
638.2523, 5.182145
638.7344, 4.969519
639.2165, 5.263358
639.6986, 5.823869
640.1807, 5.867236
640.6628, 5.457725
641.1450, 5.195120
641.6271, 5.690604
642.1092, 6.422093
642.5913, 6.822021
643.0734, 6.851275
643.5555, 6.676818
644.0377, 6.130754
644.5198, 5.575027
645.0019, 5.306023
645.4840, 5.553624
645.9661, 5.679316
646.4482, 5.528611
646.9304, 5.332368
647.4125, 5.336302
647.8946, 5.579338
648.3767, 5.931940
648.8588, 6.487162
649.3409, 6.996895
649.8231, 6.787727
650.3052, 5.953956
650.7873, 5.535958
651.2694, 6.230878
651.7515, 7.260956
652.2336, 7.446458
652.7158, 6.957669
653.1979, 6.423487
653.6800, 5.881465
654.1621, 5.651415
654.6442, 6.241537
655.1263, 7.658824
655.6085, 8.386801
656.0906, 7.270500
656.5727, 6.073453
657.0548, 5.805578
657.5369, 6.888868
658.0190, 6.979960
658.5012, 5.515652
658.9833, 4.101500
659.4654, 4.752600
659.9475, 7.352770
660.4296, 8.537283
660.9117, 7.641168
661.3939, 6.065424
661.8760, 5.341191
662.3581, 5.307523
662.8402, 5.631920
663.3223, 6.503620
663.8044, 7.263679
664.2866, 7.358892
664.7687, 7.008072
665.2508, 6.680771
665.7329, 6.460505
666.2150, 6.339955
666.6971, 6.357199
667.1793, 6.485304
667.6614, 6.589700
668.1435, 6.642048
668.6256, 6.736971
669.1077, 6.983397
669.5898, 7.342484
670.0720, 7.329605
670.5541, 6.918406
671.0362, 6.433523
671.5183, 6.084717
672.0004, 5.844545
672.4825, 5.635734
672.9647, 5.443062
673.4468, 5.396533
673.9289, 5.579957
674.4110, 5.960547
674.8931, 6.578785
675.3752, 7.811328
675.8574, 8.499181
676.3395, 7.932912
676.8216, 6.884567
677.3037, 6.223201
677.7858, 6.114254
678.2679, 6.039263
678.7501, 5.938978
679.2322, 5.844535
679.7143, 5.784990
680.1964, 5.762314
680.6785, 5.918454
681.1606, 6.455161
681.6428, 7.029596
682.1249, 6.977532
682.6070, 6.432148
683.0891, 5.881250
683.5712, 5.485898
684.0533, 5.252729
684.5355, 5.250503
685.0176, 5.450629
685.4997, 5.586809
685.9818, 5.507011
686.4639, 5.427528
686.9460, 5.494687
687.4282, 5.758086
687.9103, 5.615657
688.3924, 4.808105
688.8745, 4.182895
689.3566, 4.591388
689.8387, 5.917779
690.3209, 6.629202
690.8030, 6.602472
691.2851, 6.322364
691.7672, 6.320563
692.2493, 6.390250
692.7314, 6.107961
693.2136, 5.199644
693.6957, 4.497313
694.1778, 4.605933
694.6599, 5.151117
695.1420, 5.674625
695.6241, 6.249898
696.1063, 6.565358
696.5884, 6.505493
697.0705, 6.221399
697.5526, 5.898705
698.0347, 5.400259
698.5168, 5.528794
698.9990, 6.831398
699.4811, 8.521448
699.9632, 8.397398
700.4453, 6.745018
700.9274, 5.346056
701.4095, 5.483801
701.8917, 6.064136
702.3738, 5.797868
702.8559, 4.876495
703.3380, 4.204286
703.8201, 4.316369
704.3022, 4.646678
704.7844, 5.044418
705.2665, 5.513359
705.7486, 5.525803
706.2307, 4.739782
706.7128, 3.981927
707.1949, 3.617985
707.6771, 3.643707
708.1592, 4.370668
708.6413, 5.932013
709.1234, 7.321974
709.6055, 7.490608
710.0876, 6.837008
710.5698, 6.197845
711.0519, 5.651259
711.5340, 5.344105
712.0161, 5.514130
712.4982, 5.908429
712.9803, 6.287687
713.4625, 6.669081
713.9446, 6.893023
714.4267, 6.795875
714.9088, 6.595942
715.3909, 6.516125
715.8730, 6.606498
716.3552, 6.687653
716.8373, 6.777442
717.3194, 6.789296
717.8015, 6.465827
718.2836, 5.868089
718.7657, 5.494569
719.2479, 5.560708
719.7300, 5.807017
720.2121, 6.061220
720.6942, 6.257358
721.1763, 6.253049
721.6584, 5.632800
722.1406, 5.160218
722.6227, 5.191309
723.1048, 5.646538
723.5869, 6.241798
724.0690, 7.420195
724.5511, 7.963334
725.0333, 7.220736
725.5154, 5.543834
725.9975, 4.966816
726.4796, 5.561948
726.9617, 6.347373
727.4438, 6.830160
727.9260, 7.110896
728.4081, 7.361576
728.8902, 7.586183
729.3723, 7.807519
729.8544, 8.250243
730.3365, 8.536306
730.8187, 8.281869
731.3008, 7.411798
731.7829, 6.715939
732.2650, 6.580396
732.7471, 6.424794
733.2292, 5.868599
733.7114, 4.743616
734.1935, 4.406715
734.6756, 5.072713
735.1577, 5.773534
735.6398, 5.301692
736.1219, 4.102615
736.6041, 4.063460
737.0862, 5.465622
737.5683, 6.921220
738.0504, 7.212733
738.5325, 6.886787
739.0146, 6.467547
739.4968, 5.866991
739.9789, 5.710052
740.4610, 6.650118
740.9431, 7.849426
741.4252, 8.452024
741.9073, 8.148489
742.3895, 8.019976
742.8716, 8.162954
743.3537, 8.440417
743.8358, 8.826959
744.3179, 9.252459
744.8000, 9.060563
745.2822, 7.890070
745.7643, 6.617559
746.2464, 6.270867
746.7285, 6.518692
747.2106, 6.794920
747.6927, 6.853813
748.1749, 6.958896
748.6570, 7.258306
749.1391, 7.659112
749.6212, 7.985855
750.1033, 8.412257
750.5854, 8.388145
751.0676, 7.608643
751.5497, 6.484993
752.0318, 6.110534
752.5139, 6.463644
752.9960, 6.903040
753.4781, 7.299139
753.9603, 7.519641
754.4424, 7.164314
754.9245, 6.448409
755.4066, 6.011266
755.8887, 6.416085
756.3708, 6.903417
756.8530, 7.161302
757.3351, 7.195978
757.8172, 7.108090
758.2993, 6.694980
758.7814, 6.508887
759.2635, 6.796366
759.7457, 7.441707
760.2278, 7.887601
760.7099, 8.133341
761.1920, 8.125330
761.6741, 7.596817
762.1563, 6.899416
762.6384, 6.709854
763.1205, 6.946227
763.6026, 7.162404
764.0847, 7.133921
764.5668, 6.990578
765.0490, 6.753103
765.5311, 6.424368
766.0132, 6.245339
766.4953, 6.367804
766.9774, 6.426898
767.4595, 6.142638
767.9417, 5.550298
768.4238, 5.789480
768.9059, 6.941892
769.3880, 7.899195
769.8701, 7.686093
770.3522, 6.817690
770.8344, 6.109495
771.3165, 5.606064
771.7986, 5.346941
772.2807, 5.320416
772.7628, 5.574087
773.2449, 6.372267
773.7271, 7.964280
774.2092, 8.485157
774.6913, 7.062048
775.1734, 5.689368
775.6555, 5.771195
776.1376, 7.416707
776.6198, 7.832337
777.1019, 6.903150
777.5840, 5.903669
778.0661, 6.065419
778.5482, 6.850706
779.0303, 7.531025
779.5125, 8.049687
779.9946, 7.824962
780.4767, 5.148450
780.9588, 2.553757
781.4409, 2.182178
781.9230, 5.467818
782.4052, 7.316611
782.8873, 7.038023
783.3694, 6.277403
783.8515, 6.391038
784.3336, 7.381604
784.8157, 7.624647
785.2979, 6.968384
785.7800, 6.314240
786.2621, 6.779037
786.7442, 7.720920
787.2263, 8.101821
787.7084, 7.692651
788.1906, 7.199814
788.6727, 6.646352
789.1548, 6.354837
789.6369, 6.722362
790.1190, 8.352869
790.6011, 8.963963
791.0833, 8.199749
791.5654, 6.993807
792.0475, 6.110855
792.5296, 5.542542
793.0117, 5.426745
793.4938, 5.818192
793.9760, 6.278667
794.4581, 6.286889
794.9402, 6.146574
795.4223, 6.314127
795.9044, 6.964117
796.3865, 7.536330
796.8687, 7.981518
797.3508, 8.160732
797.8329, 7.893876
798.3150, 6.684474
798.7971, 6.465517
799.2792, 7.658187
799.7614, 8.899586
800.2435, 8.550256
800.7256, 6.970881
801.2077, 5.930674
801.6898, 5.647745
802.1719, 5.816695
802.6541, 6.572241
803.1362, 7.432421
803.6183, 7.811477
804.1004, 7.382676
804.5825, 7.115026
805.0646, 7.465516
805.5468, 7.866715
806.0289, 7.874678
806.5110, 7.370765
806.9931, 6.961180
807.4752, 6.655906
807.9573, 6.480851
808.4395, 6.507625
808.9216, 6.683928
809.4037, 6.875512
809.8858, 7.061753
810.3679, 7.278142
810.8500, 7.775729
811.3322, 8.177529
811.8143, 8.069503
812.2964, 7.017047
812.7785, 6.417733
813.2606, 6.485286
813.7427, 6.832164
814.2249, 7.238533
814.7070, 7.723261
815.1891, 7.753273
815.6712, 7.223462
816.1533, 6.869123
816.6354, 7.898795
817.1176, 9.397125
817.5997, 9.856509
818.0818, 8.947043
818.5639, 7.865484
819.0460, 6.882968
819.5281, 6.156056
820.0103, 5.831896
820.4924, 5.941000
820.9745, 6.331719
821.4566, 7.150320
821.9387, 7.939933
822.4208, 8.335927
822.9030, 8.367712
823.3851, 8.020411
823.8672, 7.283317
824.3493, 6.733643
824.8314, 7.179832
825.3135, 7.848138
825.7957, 7.810053
826.2778, 6.805932
826.7599, 6.323092
827.2420, 7.180072
827.7241, 8.216502
828.2062, 8.983022
828.6884, 9.509119
829.1705, 9.141108
829.6526, 7.708443
830.1347, 6.394470
830.6168, 6.315494
831.0989, 6.927810
831.5811, 7.107264
832.0632, 6.827846
832.5453, 6.654010
833.0274, 7.135682
833.5095, 7.656370
833.9916, 7.798531
834.4738, 7.488151
834.9559, 7.201989
835.4380, 6.865328
835.9201, 6.702300
836.4022, 6.906216
836.8843, 7.398639
837.3665, 7.674280
837.8486, 7.739687
838.3307, 7.718834
838.8128, 7.679355
839.2949, 7.603685
839.7770, 7.468197
840.2592, 7.276142
840.7413, 7.060606
841.2234, 6.583800
841.7055, 6.368414
842.1876, 6.680641
842.6697, 7.418283
843.1519, 7.951564
843.6340, 8.273521
844.1161, 8.433713
844.5982, 8.412421
845.0803, 8.274509
845.5624, 8.061651
846.0446, 7.828151
846.5267, 7.770194
847.0088, 8.353074
847.4909, 8.764803
847.9730, 8.439820
848.4551, 7.590495
848.9373, 7.047204
849.4194, 6.969583
849.9015, 6.886065
850.3836, 6.688102
850.8657, 6.418319
851.3478, 6.093492
851.8300, 5.755384
852.3121, 5.682533
852.7942, 6.137373
853.2763, 6.652743
853.7584, 6.777871
854.2405, 6.685233
854.7227, 6.677663
855.2048, 6.979260
855.6869, 7.173048
856.1690, 7.084625
856.6511, 6.960217
857.1332, 7.316997
857.6154, 8.213143
858.0975, 8.481924
858.5796, 7.770620
859.0617, 6.891037
859.5438, 6.904219
860.0259, 7.464219
860.5081, 8.016936
860.9902, 8.514343
861.4723, 8.752357
861.9544, 8.330581
862.4365, 7.802343
862.9186, 7.799545
863.4008, 8.752065
863.8829, 8.792505
864.3650, 7.640642
864.8471, 6.290215
865.3292, 5.857492
865.8113, 6.028586
866.2935, 5.916490
866.7756, 5.407455
867.2577, 4.800000
867.7398, 3.641679
868.2219, 2.921890
868.7040, 3.707611
869.1862, 6.737104
869.6683, 8.361129
870.1504, 8.020920
870.6325, 7.259114
871.1146, 6.986683
871.5967, 7.141516
872.0789, 7.126670
872.5610, 6.958448
873.0431, 6.972345
873.5252, 7.800496
874.0073, 8.621636
874.4894, 8.518964
874.9716, 7.569026
875.4537, 6.884306
875.9358, 6.879100
876.4179, 7.029946
876.9000, 7.280169
877.3821, 7.565384
877.8643, 7.564754
878.3464, 7.277733
878.8285, 6.847436
879.3106, 6.138000
879.7927, 5.536379
880.2748, 5.791662
880.7570, 6.570546
881.2391, 7.038459
881.7212, 6.409955
882.2033, 5.978762
882.6854, 6.471354
883.1675, 7.243842
883.6497, 7.027970
884.1318, 5.578267
884.6139, 4.675295
885.0960, 4.739947
885.5781, 5.276214
886.0602, 5.803739
886.5424, 6.225947
887.0245, 6.263331
887.5066, 5.589568
887.9887, 5.154945
888.4708, 5.560174
888.9529, 6.307950
889.4351, 6.921518
889.9172, 7.458415
890.3993, 7.584426
890.8814, 7.161066
891.3635, 6.725715
891.8456, 7.001950
892.3278, 7.654817
892.8099, 7.672217
893.2920, 6.956396
893.7741, 6.222237
894.2562, 5.852857
894.7383, 5.700449
895.2205, 5.674241
895.7026, 5.772361
896.1847, 5.995743
896.6668, 6.387530
897.1489, 6.808051
897.6310, 7.261154
898.1132, 7.671610
898.5953, 7.701648
899.0774, 7.381182
899.5595, 6.910690
900.0416, 6.285106
900.5237, 5.656413
901.0059, 4.861180
901.4880, 4.106878
901.9701, 4.229621
902.4522, 6.246669
902.9343, 7.322711
903.4164, 6.533994
903.8986, 4.874291
904.3807, 4.495143
904.8628, 5.250196
905.3449, 6.251322
905.8270, 7.465340
906.3091, 8.286567
906.7913, 7.897559
907.2734, 6.916361
907.7555, 6.127378
908.2376, 5.637303
908.7197, 5.521898
909.2018, 6.042810
909.6840, 6.575744
910.1661, 6.377037
910.6482, 5.529406
911.1303, 5.112406
911.6124, 5.220887
912.0945, 5.476093
912.5767, 5.681193
913.0588, 5.792824
913.5409, 5.699836
914.0230, 5.364541
914.5051, 5.236907
914.9872, 5.593232
915.4694, 5.883615
915.9515, 5.871072
916.4336, 5.584495
916.9157, 5.125155
917.3978, 4.516146
917.8799, 4.158603
918.3621, 4.456656
918.8442, 4.974882
919.3263, 5.322576
919.8084, 5.536296
920.2905, 5.736908
920.7726, 6.221763
921.2548, 6.302485
921.7369, 5.627321
922.2190, 4.694939
922.7011, 4.548140
923.1832, 5.148556
923.6653, 5.721054
924.1475, 6.122086
924.6296, 6.352442
925.1117, 6.105873
925.5938, 5.832848
926.0759, 6.230981
926.5580, 8.085536
927.0402, 8.956842
927.5223, 8.225936
928.0044, 6.933471
928.4865, 5.670926
928.9686, 4.447715
929.4507, 3.924815
929.9329, 4.122157
930.4150, 4.532769
930.8971, 4.864937
931.3792, 5.151460
931.8613, 5.522519
932.3434, 5.936882
932.8256, 6.006704
933.3077, 5.012058
933.7898, 4.513867
934.2719, 5.161582
934.7540, 6.543849
935.2361, 7.191859
935.7183, 7.150693
936.2004, 6.979393
936.6825, 6.831738
937.1646, 6.732082
937.6467, 6.801947
938.1288, 6.907142
938.6110, 6.835140
939.0931, 6.264552
939.5752, 5.903004
940.0573, 5.845373
940.5394, 5.930341
941.0215, 5.996457
941.5037, 6.047016
941.9858, 6.118592
942.4679, 6.216476
942.9500, 6.313003
943.4321, 6.623529
943.9142, 6.753799
944.3964, 6.123076
944.8785, 4.578886
945.3606, 3.838264
945.8427, 4.391878
946.3248, 5.079418
946.8069, 5.443895
947.2891, 5.544518
947.7712, 5.599301
948.2533, 5.604082
948.7354, 5.528946
949.2175, 5.326180
949.6996, 5.071015
950.1818, 4.682170
950.6639, 4.297585
951.1460, 4.257407
951.6281, 4.906875
952.1102, 5.205995
952.5923, 4.936296
953.0745, 4.506108
953.5566, 4.490480
954.0387, 4.788175
954.5208, 5.064469
955.0029, 5.276004
955.4850, 5.356370
955.9672, 5.125596
956.4493, 4.843635
956.9314, 4.731097
957.4135, 4.823464
957.8956, 4.858936
958.3777, 4.816533
958.8599, 4.776309
959.3420, 4.722466
959.8241, 4.728673
960.3062, 5.168768
960.7883, 5.889977
961.2704, 6.259978
961.7526, 5.531938
962.2347, 4.866414
962.7168, 4.928765
963.1989, 5.354399
963.6810, 5.299150
964.1631, 4.503068
964.6453, 4.547987
965.1274, 5.898924
965.6095, 7.409503
966.0916, 7.723329
966.5737, 7.148095
967.0558, 5.935056
967.5380, 3.873456
968.0201, 2.715298
968.5022, 3.988332
968.9843, 5.568911
969.4664, 6.215890
969.9485, 5.928061
970.4307, 5.824489
970.9128, 5.912354
971.3949, 6.050899
971.8770, 6.283418
972.3591, 6.427996
972.8412, 6.151551
973.3234, 5.598854
973.8055, 5.181828
974.2876, 5.081007
974.7697, 5.065434
975.2518, 5.107896
975.7339, 5.201949
976.2161, 5.380772
976.6982, 5.629211
977.1803, 5.763820
977.6624, 5.762695
978.1445, 5.580077
978.6266, 4.725858
979.1088, 3.952236
979.5909, 4.229815
980.0730, 6.044815
980.5551, 6.686108
981.0372, 5.423170
981.5193, 4.336800
982.0015, 4.682773
982.4836, 5.959725
982.9657, 6.391036
983.4478, 6.129400
983.9299, 5.889873
984.4120, 6.286825
984.8942, 6.538318
985.3763, 6.015587
985.8584, 5.135626
986.3405, 4.749358
986.8226, 5.013596
987.3047, 5.228044
987.7869, 5.301299
988.2690, 5.359848
988.7511, 5.701290
989.2332, 6.082972
989.7153, 6.007849
990.1974, 5.381219
990.6796, 4.751766
991.1617, 4.115629
991.6438, 3.771342
992.1259, 3.863853
992.6080, 4.363977
993.0901, 5.241455
993.5723, 6.505309
994.0544, 7.320207
994.5365, 7.247732
995.0186, 6.608202
995.5007, 5.216553
995.9828, 3.640328
996.4650, 2.887981
996.9471, 4.208326
997.4292, 4.932927
997.9113, 4.653533
998.3934, 4.147834
998.8755, 4.342863
999.3577, 5.092425
999.8398, 5.586152
1000.322, 5.769664
1000.804, 5.651426
1001.286, 4.677670
1001.768, 3.886296
1002.250, 4.303741
1002.732, 5.802730
1003.215, 6.378983
1003.697, 5.803773
1004.179, 5.088210
1004.661, 4.395758
1005.143, 3.982368
1005.625, 4.600907
1006.107, 5.784995
1006.589, 6.539571
1007.072, 6.472409
1007.554, 6.105543
1008.036, 5.246671
1008.518, 4.436195
1009.000, 4.043219
1009.482, 4.078661
1009.964, 4.569449
1010.446, 5.541064
1010.928, 6.361542
1011.411, 6.585081
1011.893, 6.446071
1012.375, 5.878540
1012.857, 5.077690
1013.339, 4.935070
1013.821, 6.215026
1014.303, 6.974027
1014.785, 6.725126
1015.268, 5.988121
1015.750, 5.500052
1016.232, 5.261020
1016.714, 5.371102
1017.196, 5.945498
1017.678, 6.305026
1018.160, 5.768811
1018.642, 5.080718
1019.124, 4.880117
1019.607, 5.200480
1020.089, 4.897785
1020.571, 3.834998
1021.053, 3.223588
1021.535, 4.033346
1022.017, 5.360517
1022.499, 6.162722
1022.981, 6.448384
1023.464, 6.236926
1023.946, 4.612264
1024.428, 3.835871
1024.910, 4.545939
1025.392, 5.667814
1025.874, 5.905273
1026.356, 5.391559
1026.838, 5.144156
1027.320, 5.243441
1027.803, 5.259049
1028.285, 4.736595
1028.767, 4.142430
1029.249, 3.680825
1029.731, 3.423203
1030.213, 3.759934
1030.695, 4.882976
1031.177, 5.890437
1031.660, 6.588254
1032.142, 6.936212
1032.624, 6.724998
1033.106, 6.151482
1033.588, 5.546976
1034.070, 4.908720
1034.552, 4.499716
1035.034, 4.467216
1035.516, 4.595761
1035.999, 4.807190
1036.481, 5.087092
1036.963, 5.163058
1037.445, 5.063857
1037.927, 5.160817
1038.409, 6.002118
1038.891, 6.805551
1039.373, 7.117610
1039.855, 6.956827
1040.338, 6.373668
1040.820, 5.157080
1041.302, 4.056329
1041.784, 2.987952
1042.266, 2.527165
1042.748, 3.930481
1043.230, 6.173198
1043.712, 7.440122
1044.195, 7.544410
1044.677, 7.195863
1045.159, 6.330452
1045.641, 5.404119
1046.123, 4.440456
1046.605, 3.602266
1047.087, 3.607549
1047.569, 4.362505
1048.052, 4.987981
1048.534, 5.182877
1049.016, 5.225297
1049.498, 5.283963
1049.980, 5.333773
1050.462, 5.351614
1050.944, 5.351555
1051.426, 5.234903
1051.908, 4.958984
1052.391, 4.743776
1052.873, 4.820437
1053.355, 5.005747
1053.837, 4.855018
1054.319, 4.516340
1054.801, 4.465040
1055.283, 5.545527
1055.765, 5.974265
1056.247, 5.148855
1056.730, 3.941321
1057.212, 3.439971
1057.694, 3.602633
1058.176, 4.260315
1058.658, 5.405010
1059.140, 6.517100
1059.622, 7.634996
1060.104, 8.198799
1060.587, 7.445127
1061.069, 5.653009
1061.551, 4.572142
1062.033, 4.301764
1062.515, 4.146536
1062.997, 3.848542
1063.479, 3.716629
1063.961, 4.448474
1064.443, 5.494401
1064.926, 5.995784
1065.408, 5.536733
1065.890, 5.298989
1066.372, 5.532123
1066.854, 5.766388
1067.336, 5.674186
1067.818, 5.376794
1068.300, 5.355856
1068.782, 5.565713
1069.265, 5.817351
1069.747, 6.227464
1070.229, 6.411151
1070.711, 5.934308
1071.193, 5.302682
1071.675, 5.149489
1072.157, 5.533009
1072.639, 5.796961
1073.122, 5.913154
1073.604, 5.740926
1074.086, 4.557685
1074.568, 3.510998
1075.050, 4.061458
1075.532, 5.885660
1076.014, 6.702996
1076.496, 5.968143
1076.979, 5.306623
1077.461, 5.032966
1077.943, 4.988777
1078.425, 4.941841
1078.907, 4.952490
1079.389, 5.195742
1079.871, 5.748485
1080.353, 6.142288
1080.835, 6.235118
1081.318, 6.090580
1081.800, 5.642013
1082.282, 5.000412
1082.764, 4.554117
1083.246, 4.309891
1083.728, 4.360873
1084.210, 4.909672
1084.692, 5.426546
1085.174, 5.413807
1085.656, 5.313828
1086.139, 5.705926
1086.621, 6.817987
1087.103, 6.822550
1087.585, 5.608848
1088.067, 4.586596
1088.549, 5.033135
1089.031, 5.898946
1089.513, 6.094978
1089.996, 5.789195
1090.478, 5.422479
1090.960, 4.913252
1091.442, 4.678735
1091.924, 4.815715
1092.406, 5.072368
1092.888, 5.147594
1093.370, 5.141409
1093.853, 5.376344
1094.335, 5.830897
1094.817, 5.978570
1095.299, 5.263220
1095.781, 4.598659
1096.263, 4.199373
1096.745, 4.067977
1097.227, 4.292616
1097.709, 4.815328
1098.192, 5.299007
1098.674, 5.692754
1099.156, 5.947456
1099.638, 6.013893
1100.120, 5.937410
1100.602, 5.740802
1101.084, 5.433138
1101.566, 4.980794
1102.048, 4.360924
1102.531, 4.060027
1103.013, 4.473920
1103.495, 4.897958
1103.977, 4.310809
1104.459, 3.379992
1104.941, 3.036708
1105.423, 3.694313
1105.905, 4.093634
1106.388, 4.141140
1106.870, 4.238417
1107.352, 4.731566
1107.834, 5.402261
1108.316, 6.044343
1108.798, 6.529963
1109.280, 6.518863
1109.762, 4.980769
1110.245, 4.368402
1110.727, 5.537225
1111.209, 6.755297
1111.691, 5.570070
1112.173, 2.909498
1112.655, 2.906047
1113.137, 5.423451
1113.619, 7.251544
1114.101, 5.896969
1114.583, 4.344310
1115.066, 3.773669
1115.548, 3.814283
1116.030, 3.907828
1116.512, 4.044271
1116.994, 3.894183
1117.476, 3.361444
1117.958, 3.133990
1118.440, 4.125399
1118.923, 5.315176
1119.405, 5.931345
1119.887, 6.027772
1120.369, 6.137721
1120.851, 6.295574
1121.333, 6.108419
1121.815, 5.324596
1122.297, 4.592050
1122.780, 4.620337
1123.262, 5.115496
1123.744, 5.832901
1124.226, 6.846445
1124.708, 7.362095
1125.190, 7.286550
1125.672, 6.959608
1126.154, 6.402695
1126.636, 5.850469
1127.119, 5.934141
1127.601, 6.285983
1128.083, 6.165739
1128.565, 5.038828
1129.047, 4.095419
1129.529, 3.213627
1130.011, 2.939766
1130.493, 4.031835
1130.975, 5.945808
1131.458, 6.898094
1131.940, 7.027089
1132.422, 6.858221
1132.904, 6.439786
1133.386, 5.993157
1133.868, 5.505905
1134.350, 5.078257
1134.832, 4.844962
1135.315, 4.782705
1135.797, 4.671751
1136.279, 4.504599
1136.761, 4.312544
1137.243, 4.030839
1137.725, 3.820202
1138.207, 3.663541
1138.689, 3.679688
1139.172, 4.213218
1139.654, 5.288832
1140.136, 6.012277
1140.618, 6.293455
1141.100, 6.044923
1141.582, 4.469793
1142.064, 2.974592
1142.546, 2.787189
1143.028, 3.683456
1143.510, 4.370847
1143.993, 4.865975
1144.475, 4.918548
1144.957, 4.379913
1145.439, 3.824075
1145.921, 3.908663
1146.403, 4.280007
1146.885, 4.634850
1147.367, 4.933047
1147.850, 5.044281
1148.332, 4.976286
1148.814, 4.642210
1149.296, 3.874886
1149.778, 3.142344
1150.260, 3.145653
1150.742, 3.607177
1151.224, 4.187685
1151.707, 4.923846
1152.189, 5.207620
1152.671, 4.763434
1153.153, 4.518402
1153.635, 5.094587
1154.117, 5.929497
1154.599, 5.738321
1155.081, 4.932027
1155.563, 4.417470
1156.046, 4.595321
1156.528, 4.741282
1157.010, 4.732600
1157.492, 4.726908
1157.974, 4.885867
1158.456, 5.108582
1158.938, 4.876676
1159.420, 4.399070
1159.902, 4.352073
1160.385, 5.874054
1160.867, 6.570531
1161.349, 5.449896
1161.831, 4.018291
1162.313, 3.529778
1162.795, 3.870825
1163.277, 4.658328
1163.759, 5.730031
1164.242, 6.199419
1164.724, 5.025461
1165.206, 3.878470
1165.688, 3.423172
1166.170, 3.221401
1166.652, 2.662872
1167.134, 1.835534
1167.616, 1.773678
1168.099, 2.484898
1168.581, 3.303748
1169.063, 4.328323
1169.545, 4.789762
1170.027, 3.647168
1170.509, 2.044725
1170.991, 1.956493
1171.473, 3.302042
1171.955, 3.889563
1172.438, 3.471386
1172.920, 3.077392
1173.402, 3.658665
1173.884, 4.323171
1174.366, 4.411858
1174.848, 4.162157
1175.330, 4.162371
1175.812, 4.417871
1176.294, 4.585139
1176.777, 4.595998
1177.259, 4.635858
1177.741, 5.168931
1178.223, 5.524892
1178.705, 4.803764
1179.187, 3.394444
1179.669, 3.279681
1180.151, 4.570472
1180.634, 5.275177
1181.116, 4.796065
1181.598, 4.271494
1182.080, 5.301597
1182.562, 6.376540
1183.044, 5.707544
1183.526, 3.437824
1184.008, 2.662560
1184.490, 3.533322
1184.973, 4.394307
1185.455, 4.738956
1185.937, 4.869878
1186.419, 5.060557
1186.901, 5.223749
1187.383, 5.259960
1187.865, 5.159698
1188.347, 4.947279
1188.829, 4.597292
1189.312, 4.362106
1189.794, 4.381340
1190.276, 4.466566
1190.758, 4.506272
1191.240, 4.433208
1191.722, 4.071351
1192.204, 3.305740
1192.686, 3.065305
1193.169, 3.432442
1193.651, 3.793915
1194.133, 3.789864
1194.615, 3.757960
1195.097, 4.263759
1195.579, 4.927750
1196.061, 5.152847
1196.543, 4.736837
1197.026, 4.529904
1197.508, 4.575732
1197.990, 4.563275
1198.472, 4.160194
1198.954, 3.789545
1199.436, 4.186221
1199.918, 4.898299
1200.400, 5.160582
1200.882, 4.699742
1201.365, 4.357521
1201.847, 4.150323
1202.329, 3.968322
1202.811, 3.669286
1203.293, 3.422157
1203.775, 3.486117
1204.257, 3.734140
1204.739, 3.913170
1205.221, 3.845986
1205.704, 4.226366
1206.186, 5.216287
1206.668, 5.789274
1207.150, 4.664995
1207.632, 3.165308
1208.114, 2.787047
1208.596, 3.208339
1209.078, 3.727109
1209.561, 4.379461
1210.043, 4.754349
1210.525, 4.811792
1211.007, 4.772183
1211.489, 4.793235
1211.971, 4.823552
1212.453, 4.770531
1212.935, 4.684240
1213.417, 4.726065
1213.900, 5.022855
1214.382, 4.998125
1214.864, 4.560417
1215.346, 4.205241
1215.828, 4.370302
1216.310, 4.808540
1216.792, 5.732005
1217.274, 6.666700
1217.756, 6.058455
1218.239, 3.102296
1218.721, 1.762662
1219.203, 2.477989
1219.685, 3.570975
1220.167, 3.625156
1220.649, 3.312476
1221.131, 3.164498
1221.613, 3.213057
1222.096, 3.484612
1222.578, 4.079651
1223.060, 4.376436
1223.542, 4.294862
1224.024, 4.120404
1224.506, 3.995062
1224.988, 3.983648
1225.470, 4.245440
1225.953, 4.663984
1226.435, 4.798795
1226.917, 4.545613
1227.399, 4.839904
1227.881, 5.860384
1228.363, 6.508596
1228.845, 5.257030
1229.327, 3.766002
1229.809, 3.389429
1230.292, 3.872265
1230.774, 4.341912
1231.256, 4.832469
1231.738, 4.877934
1232.220, 4.403368
1232.702, 3.789360
1233.184, 3.139915
1233.666, 2.651872
1234.148, 2.599294
1234.631, 2.778687
1235.113, 2.519656
1235.595, 1.807680
1236.077, 2.321057
1236.559, 4.327887
1237.041, 6.032829
1237.523, 6.027247
1238.005, 5.407645
1238.488, 4.567805
1238.970, 3.717408
1239.452, 3.245177
1239.934, 3.142169
1240.416, 3.282532
1240.898, 3.653631
1241.380, 3.872189
1241.862, 3.440857
1242.344, 3.064826
1242.827, 3.080777
1243.309, 3.374274
1243.791, 3.858943
1244.273, 4.462699
1244.755, 4.701460
1245.237, 4.519146
1245.719, 4.252395
1246.201, 4.027540
1246.683, 3.812912
1247.166, 3.527104
1247.648, 3.318299
1248.130, 3.499010
1248.612, 3.985193
1249.094, 4.651202
1249.576, 5.458118
1250.058, 5.765979
1250.540, 4.562312
1251.023, 3.810569
1251.505, 4.119117
1251.987, 4.933217
1252.469, 5.526222
1252.951, 5.899880
1253.433, 6.076167
1253.915, 6.054358
1254.397, 5.768370
1254.880, 4.945683
1255.362, 4.282987
1255.844, 3.940063
1256.326, 3.764219
1256.808, 3.382822
1257.290, 3.099827
1257.772, 3.718124
1258.254, 5.172915
1258.736, 5.772695
1259.219, 4.884302
1259.701, 4.274175
1260.183, 4.286807
1260.665, 4.575791
1261.147, 4.966280
1261.629, 5.234907
1262.111, 4.881274
1262.593, 4.038855
1263.075, 3.970596
1263.558, 4.993440
1264.040, 5.660238
1264.522, 5.724206
1265.004, 5.399033
1265.486, 4.405618
1265.968, 3.528176
1266.450, 3.853128
1266.932, 4.980441
1267.415, 4.916567
1267.897, 3.511338
1268.379, 2.650277
1268.861, 2.622607
1269.343, 2.949569
1269.825, 3.476390
1270.307, 4.001575
1270.789, 4.549634
1271.271, 4.923040
1271.754, 4.498704
1272.236, 3.348847
1272.718, 2.727520
1273.200, 2.774759
1273.682, 3.105213
1274.164, 3.772306
1274.646, 4.312258
1275.128, 4.439398
1275.610, 4.428390
1276.093, 4.981985
1276.575, 5.794805
1277.057, 5.220582
1277.539, 3.293342
1278.021, 2.134559
1278.503, 3.554770
1278.985, 4.787553
1279.467, 5.222083
1279.950, 5.222373
1280.432, 5.272305
1280.914, 5.249553
1281.396, 4.706112
1281.878, 3.753205
1282.360, 3.239826
1282.842, 3.908290
1283.324, 3.894253
1283.807, 2.697132
1284.289, 1.774134
1284.771, 3.302905
1285.253, 5.560822
1285.735, 6.136383
1286.217, 5.346786
1286.699, 4.817176
1287.181, 4.775819
1287.663, 4.669589
1288.146, 4.457628
1288.628, 4.144925
1289.110, 3.347630
1289.592, 2.818460
1290.074, 3.661457
1290.556, 5.086962
1291.038, 5.341727
1291.520, 4.311987
1292.002, 3.899256
1292.485, 4.177080
1292.967, 4.444308
1293.449, 4.148703
1293.931, 3.827749
1294.413, 3.760711
1294.895, 3.818315
1295.377, 3.848836
1295.859, 3.880131
1296.342, 4.250270
1296.824, 4.870124
1297.306, 5.203219
1297.788, 4.585924
1298.270, 4.257503
1298.752, 4.623518
1299.234, 5.012355
1299.716, 4.617424
1300.198, 3.885611
1300.681, 4.255443
1301.163, 5.266846
1301.645, 5.640737
1302.127, 5.047368
##END=



