##NAMES=Wolfeite
##RRUFFID=R140864
##IDEAL CHEMISTRY=Fe^2+^_2_PO_4_(OH)
##LOCALITY=Hagendorf, Waidhaus, Vohenstrauß, Oberpfälzer Wald, Upper Palatinate, Bavaria, Germany
##OWNER=RRUFF
##SOURCE=Rock Currier
##DESCRIPTION=Reddish brown, vitreous, bladed crystalline aggregates in parallel growth with dark brown triplite and bluish vivianite.
##STATUS=The identification of this mineral has been confirmed only by single crystal X-ray diffraction.
##URL=rruff.info/R140864
8.813672e+001, 1.275265e+002
8.861884e+001, 1.294455e+002
8.910095e+001, 1.311684e+002
8.958307e+001, 1.329712e+002
9.006519e+001, 1.350356e+002
9.054730e+001, 1.374354e+002
9.102942e+001, 1.407186e+002
9.151154e+001, 1.434541e+002
9.199365e+001, 1.436422e+002
9.247577e+001, 1.416899e+002
9.295789e+001, 1.395327e+002
9.344000e+001, 1.388255e+002
9.392212e+001, 1.389044e+002
9.440424e+001, 1.380672e+002
9.488635e+001, 1.359620e+002
9.536847e+001, 1.331692e+002
9.585059e+001, 1.306160e+002
9.633270e+001, 1.282225e+002
9.681482e+001, 1.266215e+002
9.729694e+001, 1.268312e+002
9.777905e+001, 1.287958e+002
9.826117e+001, 1.304867e+002
9.874329e+001, 1.315215e+002
9.922540e+001, 1.318697e+002
9.970752e+001, 1.309729e+002
1.001896e+002, 1.284389e+002
1.006718e+002, 1.255383e+002
1.011539e+002, 1.238860e+002
1.016360e+002, 1.236322e+002
1.021181e+002, 1.239736e+002
1.026002e+002, 1.246329e+002
1.030823e+002, 1.255478e+002
1.035645e+002, 1.270867e+002
1.040466e+002, 1.292045e+002
1.045287e+002, 1.319553e+002
1.050108e+002, 1.356448e+002
1.054929e+002, 1.410309e+002
1.059750e+002, 1.462326e+002
1.064572e+002, 1.506483e+002
1.069393e+002, 1.550125e+002
1.074214e+002, 1.573158e+002
1.079035e+002, 1.564467e+002
1.083856e+002, 1.533929e+002
1.088677e+002, 1.516417e+002
1.093499e+002, 1.519517e+002
1.098320e+002, 1.529756e+002
1.103141e+002, 1.541356e+002
1.107962e+002, 1.552346e+002
1.112783e+002, 1.567005e+002
1.117604e+002, 1.586637e+002
1.122426e+002, 1.610911e+002
1.127247e+002, 1.636253e+002
1.132068e+002, 1.660269e+002
1.136889e+002, 1.686247e+002
1.141710e+002, 1.716222e+002
1.146531e+002, 1.760045e+002
1.151353e+002, 1.798934e+002
1.156174e+002, 1.825108e+002
1.160995e+002, 1.838400e+002
1.165816e+002, 1.853778e+002
1.170637e+002, 1.880790e+002
1.175458e+002, 1.911412e+002
1.180280e+002, 1.937271e+002
1.185101e+002, 1.946495e+002
1.189922e+002, 1.955951e+002
1.194743e+002, 1.975967e+002
1.199564e+002, 2.007978e+002
1.204385e+002, 2.044184e+002
1.209207e+002, 2.079271e+002
1.214028e+002, 2.115287e+002
1.218849e+002, 2.155666e+002
1.223670e+002, 2.222831e+002
1.228491e+002, 2.286316e+002
1.233312e+002, 2.310322e+002
1.238134e+002, 2.285249e+002
1.242955e+002, 2.241928e+002
1.247776e+002, 2.201517e+002
1.252597e+002, 2.164805e+002
1.257418e+002, 2.134288e+002
1.262239e+002, 2.111748e+002
1.267061e+002, 2.096452e+002
1.271882e+002, 2.088475e+002
1.276703e+002, 2.089485e+002
1.281524e+002, 2.094266e+002
1.286345e+002, 2.094370e+002
1.291166e+002, 2.090415e+002
1.295988e+002, 2.088848e+002
1.300809e+002, 2.099219e+002
1.305630e+002, 2.117501e+002
1.310451e+002, 2.126067e+002
1.315272e+002, 2.118610e+002
1.320093e+002, 2.101297e+002
1.324915e+002, 2.086815e+002
1.329736e+002, 2.075088e+002
1.334557e+002, 2.067147e+002
1.339378e+002, 2.065296e+002
1.344199e+002, 2.069406e+002
1.349020e+002, 2.073629e+002
1.353842e+002, 2.076207e+002
1.358663e+002, 2.077653e+002
1.363484e+002, 2.080134e+002
1.368305e+002, 2.082634e+002
1.373126e+002, 2.089059e+002
1.377947e+002, 2.107808e+002
1.382769e+002, 2.143452e+002
1.387590e+002, 2.167939e+002
1.392411e+002, 2.172144e+002
1.397232e+002, 2.155693e+002
1.402053e+002, 2.134383e+002
1.406874e+002, 2.106352e+002
1.411696e+002, 2.075537e+002
1.416517e+002, 2.047207e+002
1.421338e+002, 2.021051e+002
1.426159e+002, 1.997888e+002
1.430980e+002, 1.977565e+002
1.435801e+002, 1.959997e+002
1.440623e+002, 1.946750e+002
1.445444e+002, 1.937498e+002
1.450265e+002, 1.932878e+002
1.455086e+002, 1.934496e+002
1.459907e+002, 1.946238e+002
1.464728e+002, 1.959203e+002
1.469550e+002, 1.970914e+002
1.474371e+002, 1.981409e+002
1.479192e+002, 1.990318e+002
1.484013e+002, 1.994858e+002
1.488834e+002, 1.998064e+002
1.493655e+002, 2.006807e+002
1.498477e+002, 2.025720e+002
1.503298e+002, 2.046138e+002
1.508119e+002, 2.065088e+002
1.512940e+002, 2.085118e+002
1.517761e+002, 2.099990e+002
1.522583e+002, 2.107564e+002
1.527404e+002, 2.109433e+002
1.532225e+002, 2.110056e+002
1.537046e+002, 2.119996e+002
1.541867e+002, 2.121382e+002
1.546688e+002, 2.105784e+002
1.551510e+002, 2.058297e+002
1.556331e+002, 2.010653e+002
1.561152e+002, 1.966913e+002
1.565973e+002, 1.926653e+002
1.570794e+002, 1.889185e+002
1.575615e+002, 1.851371e+002
1.580437e+002, 1.817724e+002
1.585258e+002, 1.790949e+002
1.590079e+002, 1.775995e+002
1.594900e+002, 1.763413e+002
1.599721e+002, 1.749473e+002
1.604542e+002, 1.735068e+002
1.609364e+002, 1.725394e+002
1.614185e+002, 1.727880e+002
1.619006e+002, 1.733204e+002
1.623827e+002, 1.733867e+002
1.628648e+002, 1.721345e+002
1.633469e+002, 1.709273e+002
1.638291e+002, 1.705093e+002
1.643112e+002, 1.708043e+002
1.647933e+002, 1.709668e+002
1.652754e+002, 1.704910e+002
1.657575e+002, 1.697022e+002
1.662396e+002, 1.689423e+002
1.667218e+002, 1.680815e+002
1.672039e+002, 1.674739e+002
1.676860e+002, 1.674471e+002
1.681681e+002, 1.679904e+002
1.686502e+002, 1.686385e+002
1.691323e+002, 1.692102e+002
1.696145e+002, 1.696802e+002
1.700966e+002, 1.700097e+002
1.705787e+002, 1.701425e+002
1.710608e+002, 1.701536e+002
1.715429e+002, 1.700522e+002
1.720250e+002, 1.698324e+002
1.725072e+002, 1.696738e+002
1.729893e+002, 1.696871e+002
1.734714e+002, 1.698569e+002
1.739535e+002, 1.701541e+002
1.744356e+002, 1.707628e+002
1.749177e+002, 1.714046e+002
1.753999e+002, 1.716692e+002
1.758820e+002, 1.715047e+002
1.763641e+002, 1.713551e+002
1.768462e+002, 1.718360e+002
1.773283e+002, 1.726807e+002
1.778104e+002, 1.732058e+002
1.782926e+002, 1.727565e+002
1.787747e+002, 1.718607e+002
1.792568e+002, 1.714223e+002
1.797389e+002, 1.715286e+002
1.802210e+002, 1.717979e+002
1.807031e+002, 1.717399e+002
1.811853e+002, 1.714576e+002
1.816674e+002, 1.713334e+002
1.821495e+002, 1.718884e+002
1.826316e+002, 1.727263e+002
1.831137e+002, 1.727600e+002
1.835958e+002, 1.717981e+002
1.840780e+002, 1.705944e+002
1.845601e+002, 1.701632e+002
1.850422e+002, 1.704169e+002
1.855243e+002, 1.707065e+002
1.860064e+002, 1.707109e+002
1.864885e+002, 1.704830e+002
1.869707e+002, 1.701811e+002
1.874528e+002, 1.697948e+002
1.879349e+002, 1.693934e+002
1.884170e+002, 1.690592e+002
1.888991e+002, 1.687931e+002
1.893812e+002, 1.686070e+002
1.898634e+002, 1.685430e+002
1.903455e+002, 1.685783e+002
1.908276e+002, 1.685461e+002
1.913097e+002, 1.683928e+002
1.917918e+002, 1.682539e+002
1.922739e+002, 1.683806e+002
1.927561e+002, 1.687802e+002
1.932382e+002, 1.692740e+002
1.937203e+002, 1.698195e+002
1.942024e+002, 1.704028e+002
1.946845e+002, 1.708590e+002
1.951666e+002, 1.711356e+002
1.956488e+002, 1.713385e+002
1.961309e+002, 1.716553e+002
1.966130e+002, 1.720928e+002
1.970951e+002, 1.726367e+002
1.975772e+002, 1.734491e+002
1.980593e+002, 1.745399e+002
1.985415e+002, 1.750636e+002
1.990236e+002, 1.748400e+002
1.995057e+002, 1.741724e+002
1.999878e+002, 1.737746e+002
2.004699e+002, 1.737146e+002
2.009520e+002, 1.735876e+002
2.014342e+002, 1.731306e+002
2.019163e+002, 1.723143e+002
2.023984e+002, 1.715037e+002
2.028805e+002, 1.707099e+002
2.033626e+002, 1.699452e+002
2.038447e+002, 1.692608e+002
2.043269e+002, 1.686825e+002
2.048090e+002, 1.680860e+002
2.052911e+002, 1.673618e+002
2.057732e+002, 1.664609e+002
2.062553e+002, 1.657613e+002
2.067374e+002, 1.653609e+002
2.072196e+002, 1.651275e+002
2.077017e+002, 1.646474e+002
2.081838e+002, 1.638025e+002
2.086659e+002, 1.630357e+002
2.091480e+002, 1.626884e+002
2.096301e+002, 1.629151e+002
2.101123e+002, 1.628006e+002
2.105944e+002, 1.621434e+002
2.110765e+002, 1.611908e+002
2.115586e+002, 1.607070e+002
2.120407e+002, 1.608876e+002
2.125228e+002, 1.610946e+002
2.130050e+002, 1.609525e+002
2.134871e+002, 1.603613e+002
2.139692e+002, 1.597870e+002
2.144513e+002, 1.592192e+002
2.149334e+002, 1.586962e+002
2.154155e+002, 1.583521e+002
2.158977e+002, 1.582930e+002
2.163798e+002, 1.581984e+002
2.168619e+002, 1.578413e+002
2.173440e+002, 1.570492e+002
2.178261e+002, 1.565704e+002
2.183082e+002, 1.566348e+002
2.187904e+002, 1.569764e+002
2.192725e+002, 1.567252e+002
2.197546e+002, 1.555928e+002
2.202367e+002, 1.543867e+002
2.207188e+002, 1.535732e+002
2.212009e+002, 1.533827e+002
2.216831e+002, 1.529326e+002
2.221652e+002, 1.521028e+002
2.226473e+002, 1.510257e+002
2.231294e+002, 1.501051e+002
2.236115e+002, 1.493605e+002
2.240936e+002, 1.487339e+002
2.245758e+002, 1.482211e+002
2.250579e+002, 1.479338e+002
2.255400e+002, 1.474707e+002
2.260221e+002, 1.466732e+002
2.265042e+002, 1.457377e+002
2.269863e+002, 1.452574e+002
2.274685e+002, 1.454555e+002
2.279506e+002, 1.457549e+002
2.284327e+002, 1.458940e+002
2.289148e+002, 1.457942e+002
2.293969e+002, 1.457208e+002
2.298790e+002, 1.457155e+002
2.303612e+002, 1.457230e+002
2.308433e+002, 1.455857e+002
2.313254e+002, 1.451787e+002
2.318075e+002, 1.448088e+002
2.322896e+002, 1.446252e+002
2.327717e+002, 1.447444e+002
2.332539e+002, 1.447340e+002
2.337360e+002, 1.444238e+002
2.342181e+002, 1.440402e+002
2.347002e+002, 1.441789e+002
2.351823e+002, 1.453002e+002
2.356644e+002, 1.462386e+002
2.361466e+002, 1.464239e+002
2.366287e+002, 1.453434e+002
2.371108e+002, 1.449465e+002
2.375929e+002, 1.456236e+002
2.380750e+002, 1.468259e+002
2.385571e+002, 1.473936e+002
2.390393e+002, 1.469917e+002
2.395214e+002, 1.464861e+002
2.400035e+002, 1.461860e+002
2.404856e+002, 1.461555e+002
2.409677e+002, 1.461325e+002
2.414498e+002, 1.460995e+002
2.419320e+002, 1.460874e+002
2.424141e+002, 1.461722e+002
2.428962e+002, 1.464850e+002
2.433783e+002, 1.466874e+002
2.438604e+002, 1.466359e+002
2.443425e+002, 1.462363e+002
2.448247e+002, 1.459384e+002
2.453068e+002, 1.457541e+002
2.457889e+002, 1.456660e+002
2.462710e+002, 1.456523e+002
2.467531e+002, 1.457553e+002
2.472352e+002, 1.458576e+002
2.477174e+002, 1.459171e+002
2.481995e+002, 1.459167e+002
2.486816e+002, 1.459396e+002
2.491637e+002, 1.459440e+002
2.496458e+002, 1.460007e+002
2.501279e+002, 1.462389e+002
2.506101e+002, 1.468162e+002
2.510922e+002, 1.472769e+002
2.515743e+002, 1.474560e+002
2.520564e+002, 1.473047e+002
2.525385e+002, 1.472559e+002
2.530206e+002, 1.473557e+002
2.535028e+002, 1.475159e+002
2.539849e+002, 1.475977e+002
2.544670e+002, 1.474743e+002
2.549491e+002, 1.475551e+002
2.554312e+002, 1.480438e+002
2.559133e+002, 1.489788e+002
2.563955e+002, 1.495352e+002
2.568776e+002, 1.495866e+002
2.573597e+002, 1.494001e+002
2.578418e+002, 1.492302e+002
2.583239e+002, 1.490336e+002
2.588061e+002, 1.489604e+002
2.592882e+002, 1.491085e+002
2.597703e+002, 1.494713e+002
2.602524e+002, 1.495318e+002
2.607345e+002, 1.490574e+002
2.612166e+002, 1.486081e+002
2.616988e+002, 1.487397e+002
2.621809e+002, 1.496666e+002
2.626630e+002, 1.505753e+002
2.631451e+002, 1.514162e+002
2.636272e+002, 1.521563e+002
2.641093e+002, 1.523324e+002
2.645915e+002, 1.516679e+002
2.650736e+002, 1.509335e+002
2.655557e+002, 1.508038e+002
2.660378e+002, 1.515107e+002
2.665199e+002, 1.519965e+002
2.670020e+002, 1.520385e+002
2.674842e+002, 1.517460e+002
2.679663e+002, 1.516404e+002
2.684484e+002, 1.516983e+002
2.689305e+002, 1.519912e+002
2.694126e+002, 1.526973e+002
2.698947e+002, 1.540223e+002
2.703769e+002, 1.548490e+002
2.708590e+002, 1.549428e+002
2.713411e+002, 1.545355e+002
2.718232e+002, 1.543294e+002
2.723053e+002, 1.543229e+002
2.727874e+002, 1.545182e+002
2.732696e+002, 1.550304e+002
2.737517e+002, 1.559559e+002
2.742338e+002, 1.565154e+002
2.747159e+002, 1.565692e+002
2.751980e+002, 1.563296e+002
2.756801e+002, 1.562782e+002
2.761623e+002, 1.564398e+002
2.766444e+002, 1.566844e+002
2.771265e+002, 1.570073e+002
2.776086e+002, 1.574333e+002
2.780907e+002, 1.576208e+002
2.785728e+002, 1.574943e+002
2.790550e+002, 1.572412e+002
2.795371e+002, 1.572338e+002
2.800192e+002, 1.575114e+002
2.805013e+002, 1.577114e+002
2.809834e+002, 1.575467e+002
2.814655e+002, 1.570356e+002
2.819477e+002, 1.569785e+002
2.824298e+002, 1.574540e+002
2.829119e+002, 1.581718e+002
2.833940e+002, 1.588160e+002
2.838761e+002, 1.593878e+002
2.843582e+002, 1.597298e+002
2.848404e+002, 1.596841e+002
2.853225e+002, 1.593266e+002
2.858046e+002, 1.591518e+002
2.862867e+002, 1.591926e+002
2.867688e+002, 1.592625e+002
2.872509e+002, 1.590828e+002
2.877331e+002, 1.586808e+002
2.882152e+002, 1.584490e+002
2.886973e+002, 1.586029e+002
2.891794e+002, 1.589953e+002
2.896615e+002, 1.591687e+002
2.901436e+002, 1.591238e+002
2.906258e+002, 1.588991e+002
2.911079e+002, 1.585330e+002
2.915900e+002, 1.580222e+002
2.920721e+002, 1.573022e+002
2.925542e+002, 1.562448e+002
2.930363e+002, 1.550842e+002
2.935185e+002, 1.543009e+002
2.940006e+002, 1.538895e+002
2.944827e+002, 1.537047e+002
2.949648e+002, 1.538172e+002
2.954469e+002, 1.540824e+002
2.959290e+002, 1.540248e+002
2.964112e+002, 1.534828e+002
2.968933e+002, 1.527042e+002
2.973754e+002, 1.520345e+002
2.978575e+002, 1.514653e+002
2.983396e+002, 1.509314e+002
2.988217e+002, 1.503930e+002
2.993039e+002, 1.498612e+002
2.997860e+002, 1.493767e+002
3.002681e+002, 1.489476e+002
3.007502e+002, 1.485403e+002
3.012323e+002, 1.481288e+002
3.017144e+002, 1.477076e+002
3.021966e+002, 1.472845e+002
3.026787e+002, 1.468939e+002
3.031608e+002, 1.464850e+002
3.036429e+002, 1.459358e+002
3.041250e+002, 1.452175e+002
3.046071e+002, 1.445412e+002
3.050893e+002, 1.441455e+002
3.055714e+002, 1.439366e+002
3.060535e+002, 1.437319e+002
3.065356e+002, 1.434053e+002
3.070177e+002, 1.430674e+002
3.074998e+002, 1.428471e+002
3.079820e+002, 1.427466e+002
3.084641e+002, 1.426557e+002
3.089462e+002, 1.425649e+002
3.094283e+002, 1.424203e+002
3.099104e+002, 1.421472e+002
3.103925e+002, 1.415739e+002
3.108747e+002, 1.409833e+002
3.113568e+002, 1.405920e+002
3.118389e+002, 1.403795e+002
3.123210e+002, 1.401867e+002
3.128031e+002, 1.399445e+002
3.132852e+002, 1.396706e+002
3.137674e+002, 1.393677e+002
3.142495e+002, 1.389249e+002
3.147316e+002, 1.386034e+002
3.152137e+002, 1.386767e+002
3.156958e+002, 1.390138e+002
3.161779e+002, 1.391752e+002
3.166601e+002, 1.389289e+002
3.171422e+002, 1.384746e+002
3.176243e+002, 1.378996e+002
3.181064e+002, 1.370957e+002
3.185885e+002, 1.364467e+002
3.190706e+002, 1.362213e+002
3.195528e+002, 1.362298e+002
3.200349e+002, 1.361059e+002
3.205170e+002, 1.355832e+002
3.209991e+002, 1.350381e+002
3.214812e+002, 1.346296e+002
3.219633e+002, 1.343915e+002
3.224455e+002, 1.342168e+002
3.229276e+002, 1.341185e+002
3.234097e+002, 1.340596e+002
3.238918e+002, 1.339948e+002
3.243739e+002, 1.339157e+002
3.248560e+002, 1.338333e+002
3.253382e+002, 1.337813e+002
3.258203e+002, 1.337759e+002
3.263024e+002, 1.336505e+002
3.267845e+002, 1.333117e+002
3.272666e+002, 1.328951e+002
3.277487e+002, 1.325056e+002
3.282309e+002, 1.320950e+002
3.287130e+002, 1.317773e+002
3.291951e+002, 1.315798e+002
3.296772e+002, 1.314948e+002
3.301593e+002, 1.314511e+002
3.306414e+002, 1.315297e+002
3.311236e+002, 1.315714e+002
3.316057e+002, 1.314896e+002
3.320878e+002, 1.312533e+002
3.325699e+002, 1.309193e+002
3.330520e+002, 1.303039e+002
3.335341e+002, 1.296241e+002
3.340163e+002, 1.295622e+002
3.344984e+002, 1.305195e+002
3.349805e+002, 1.314225e+002
3.354626e+002, 1.318229e+002
3.359447e+002, 1.316109e+002
3.364268e+002, 1.312882e+002
3.369090e+002, 1.307620e+002
3.373911e+002, 1.302180e+002
3.378732e+002, 1.300007e+002
3.383553e+002, 1.302177e+002
3.388374e+002, 1.303891e+002
3.393195e+002, 1.303344e+002
3.398017e+002, 1.300667e+002
3.402838e+002, 1.299295e+002
3.407659e+002, 1.299483e+002
3.412480e+002, 1.300367e+002
3.417301e+002, 1.301149e+002
3.422122e+002, 1.301828e+002
3.426944e+002, 1.302410e+002
3.431765e+002, 1.302868e+002
3.436586e+002, 1.303235e+002
3.441407e+002, 1.303767e+002
3.446228e+002, 1.304507e+002
3.451049e+002, 1.304837e+002
3.455871e+002, 1.303206e+002
3.460692e+002, 1.300209e+002
3.465513e+002, 1.300691e+002
3.470334e+002, 1.306389e+002
3.475155e+002, 1.313484e+002
3.479977e+002, 1.314823e+002
3.484798e+002, 1.311046e+002
3.489619e+002, 1.307359e+002
3.494440e+002, 1.308174e+002
3.499261e+002, 1.311099e+002
3.504082e+002, 1.310045e+002
3.508904e+002, 1.304166e+002
3.513725e+002, 1.297539e+002
3.518546e+002, 1.293288e+002
3.523367e+002, 1.291531e+002
3.528188e+002, 1.292491e+002
3.533009e+002, 1.300799e+002
3.537831e+002, 1.309504e+002
3.542652e+002, 1.308777e+002
3.547473e+002, 1.299008e+002
3.552294e+002, 1.288836e+002
3.557115e+002, 1.284643e+002
3.561936e+002, 1.283782e+002
3.566758e+002, 1.282827e+002
3.571579e+002, 1.280634e+002
3.576400e+002, 1.278229e+002
3.581221e+002, 1.276400e+002
3.586042e+002, 1.275007e+002
3.590863e+002, 1.273456e+002
3.595685e+002, 1.270274e+002
3.600506e+002, 1.267563e+002
3.605327e+002, 1.267475e+002
3.610148e+002, 1.271937e+002
3.614969e+002, 1.274804e+002
3.619790e+002, 1.270965e+002
3.624612e+002, 1.264227e+002
3.629433e+002, 1.260955e+002
3.634254e+002, 1.267477e+002
3.639075e+002, 1.273964e+002
3.643896e+002, 1.275668e+002
3.648717e+002, 1.271437e+002
3.653539e+002, 1.268931e+002
3.658360e+002, 1.271881e+002
3.663181e+002, 1.276154e+002
3.668002e+002, 1.278028e+002
3.672823e+002, 1.272697e+002
3.677644e+002, 1.269760e+002
3.682466e+002, 1.271577e+002
3.687287e+002, 1.277755e+002
3.692108e+002, 1.283215e+002
3.696929e+002, 1.288844e+002
3.701750e+002, 1.293041e+002
3.706571e+002, 1.294710e+002
3.711393e+002, 1.290694e+002
3.716214e+002, 1.289821e+002
3.721035e+002, 1.293571e+002
3.725856e+002, 1.300058e+002
3.730677e+002, 1.304935e+002
3.735498e+002, 1.307699e+002
3.740320e+002, 1.309917e+002
3.745141e+002, 1.312157e+002
3.749962e+002, 1.314487e+002
3.754783e+002, 1.316090e+002
3.759604e+002, 1.316567e+002
3.764425e+002, 1.316945e+002
3.769247e+002, 1.318500e+002
3.774068e+002, 1.321350e+002
3.778889e+002, 1.324687e+002
3.783710e+002, 1.328836e+002
3.788531e+002, 1.333181e+002
3.793352e+002, 1.334718e+002
3.798174e+002, 1.333083e+002
3.802995e+002, 1.331011e+002
3.807816e+002, 1.330513e+002
3.812637e+002, 1.331481e+002
3.817458e+002, 1.333063e+002
3.822279e+002, 1.335196e+002
3.827101e+002, 1.337845e+002
3.831922e+002, 1.341123e+002
3.836743e+002, 1.345002e+002
3.841564e+002, 1.349034e+002
3.846385e+002, 1.353440e+002
3.851206e+002, 1.357782e+002
3.856028e+002, 1.360992e+002
3.860849e+002, 1.362944e+002
3.865670e+002, 1.364735e+002
3.870491e+002, 1.367704e+002
3.875312e+002, 1.371250e+002
3.880133e+002, 1.374127e+002
3.884955e+002, 1.373925e+002
3.889776e+002, 1.374491e+002
3.894597e+002, 1.380700e+002
3.899418e+002, 1.391601e+002
3.904239e+002, 1.401499e+002
3.909060e+002, 1.406352e+002
3.913882e+002, 1.408974e+002
3.918703e+002, 1.411455e+002
3.923524e+002, 1.412984e+002
3.928345e+002, 1.417169e+002
3.933166e+002, 1.427040e+002
3.937987e+002, 1.440786e+002
3.942809e+002, 1.454587e+002
3.947630e+002, 1.467169e+002
3.952451e+002, 1.479613e+002
3.957272e+002, 1.492071e+002
3.962093e+002, 1.504208e+002
3.966914e+002, 1.518282e+002
3.971736e+002, 1.535662e+002
3.976557e+002, 1.554719e+002
3.981378e+002, 1.574029e+002
3.986199e+002, 1.593031e+002
3.991020e+002, 1.612449e+002
3.995841e+002, 1.632767e+002
4.000663e+002, 1.653739e+002
4.005484e+002, 1.673640e+002
4.010305e+002, 1.689693e+002
4.015126e+002, 1.707664e+002
4.019947e+002, 1.730634e+002
4.024768e+002, 1.760130e+002
4.029590e+002, 1.790859e+002
4.034411e+002, 1.824490e+002
4.039232e+002, 1.858176e+002
4.044053e+002, 1.885825e+002
4.048874e+002, 1.904847e+002
4.053695e+002, 1.926004e+002
4.058517e+002, 1.953110e+002
4.063338e+002, 1.985695e+002
4.068159e+002, 2.021050e+002
4.072980e+002, 2.060140e+002
4.077801e+002, 2.098868e+002
4.082622e+002, 2.131931e+002
4.087444e+002, 2.159758e+002
4.092265e+002, 2.189077e+002
4.097086e+002, 2.221877e+002
4.101907e+002, 2.256005e+002
4.106728e+002, 2.287041e+002
4.111549e+002, 2.315301e+002
4.116371e+002, 2.343195e+002
4.121192e+002, 2.374764e+002
4.126013e+002, 2.406434e+002
4.130834e+002, 2.429938e+002
4.135655e+002, 2.444195e+002
4.140476e+002, 2.452478e+002
4.145298e+002, 2.456153e+002
4.150119e+002, 2.456341e+002
4.154940e+002, 2.455381e+002
4.159761e+002, 2.453946e+002
4.164582e+002, 2.451955e+002
4.169403e+002, 2.449821e+002
4.174225e+002, 2.447344e+002
4.179046e+002, 2.443185e+002
4.183867e+002, 2.436552e+002
4.188688e+002, 2.428032e+002
4.193509e+002, 2.418770e+002
4.198330e+002, 2.410913e+002
4.203152e+002, 2.398050e+002
4.207973e+002, 2.376532e+002
4.212794e+002, 2.348441e+002
4.217615e+002, 2.317452e+002
4.222436e+002, 2.283183e+002
4.227257e+002, 2.247591e+002
4.232079e+002, 2.211003e+002
4.236900e+002, 2.173658e+002
4.241721e+002, 2.135172e+002
4.246542e+002, 2.093028e+002
4.251363e+002, 2.051028e+002
4.256184e+002, 2.011404e+002
4.261006e+002, 1.978103e+002
4.265827e+002, 1.942056e+002
4.270648e+002, 1.901865e+002
4.275469e+002, 1.858284e+002
4.280290e+002, 1.814604e+002
4.285111e+002, 1.768760e+002
4.289933e+002, 1.726924e+002
4.294754e+002, 1.692599e+002
4.299575e+002, 1.666394e+002
4.304396e+002, 1.643021e+002
4.309217e+002, 1.623433e+002
4.314038e+002, 1.604416e+002
4.318860e+002, 1.581268e+002
4.323681e+002, 1.553764e+002
4.328502e+002, 1.528385e+002
4.333323e+002, 1.506199e+002
4.338144e+002, 1.487747e+002
4.342965e+002, 1.475816e+002
4.347787e+002, 1.470340e+002
4.352608e+002, 1.466070e+002
4.357429e+002, 1.459886e+002
4.362250e+002, 1.452091e+002
4.367071e+002, 1.442847e+002
4.371892e+002, 1.431718e+002
4.376714e+002, 1.421204e+002
4.381535e+002, 1.414470e+002
4.386356e+002, 1.410462e+002
4.391177e+002, 1.406933e+002
4.395998e+002, 1.403209e+002
4.400819e+002, 1.399290e+002
4.405641e+002, 1.395134e+002
4.410462e+002, 1.390733e+002
4.415283e+002, 1.386168e+002
4.420104e+002, 1.379999e+002
4.424925e+002, 1.374494e+002
4.429746e+002, 1.371713e+002
4.434568e+002, 1.372832e+002
4.439389e+002, 1.375215e+002
4.444210e+002, 1.378900e+002
4.449031e+002, 1.383207e+002
4.453852e+002, 1.386863e+002
4.458673e+002, 1.389755e+002
4.463495e+002, 1.391791e+002
4.468316e+002, 1.392367e+002
4.473137e+002, 1.391032e+002
4.477958e+002, 1.391807e+002
4.482779e+002, 1.397191e+002
4.487600e+002, 1.402624e+002
4.492422e+002, 1.404191e+002
4.497243e+002, 1.397949e+002
4.502064e+002, 1.396613e+002
4.506885e+002, 1.403478e+002
4.511706e+002, 1.414814e+002
4.516527e+002, 1.419583e+002
4.521349e+002, 1.415938e+002
4.526170e+002, 1.412385e+002
4.530991e+002, 1.412911e+002
4.535812e+002, 1.417350e+002
4.540633e+002, 1.420970e+002
4.545454e+002, 1.423610e+002
4.550276e+002, 1.426324e+002
4.555097e+002, 1.431113e+002
4.559918e+002, 1.437372e+002
4.564739e+002, 1.441154e+002
4.569560e+002, 1.441008e+002
4.574381e+002, 1.438795e+002
4.579203e+002, 1.437367e+002
4.584024e+002, 1.436509e+002
4.588845e+002, 1.435167e+002
4.593666e+002, 1.433039e+002
4.598488e+002, 1.429935e+002
4.603309e+002, 1.425017e+002
4.608130e+002, 1.418037e+002
4.612951e+002, 1.411879e+002
4.617772e+002, 1.411480e+002
4.622593e+002, 1.412139e+002
4.627415e+002, 1.408310e+002
4.632236e+002, 1.394385e+002
4.637057e+002, 1.379541e+002
4.641878e+002, 1.367289e+002
4.646699e+002, 1.357120e+002
4.651520e+002, 1.346917e+002
4.656342e+002, 1.336197e+002
4.661163e+002, 1.325565e+002
4.665984e+002, 1.314751e+002
4.670805e+002, 1.302613e+002
4.675626e+002, 1.293997e+002
4.680447e+002, 1.292960e+002
4.685269e+002, 1.293048e+002
4.690090e+002, 1.287344e+002
4.694911e+002, 1.272076e+002
4.699732e+002, 1.258072e+002
4.704553e+002, 1.246657e+002
4.709374e+002, 1.237678e+002
4.714196e+002, 1.230842e+002
4.719017e+002, 1.227035e+002
4.723838e+002, 1.222701e+002
4.728659e+002, 1.215232e+002
4.733480e+002, 1.204582e+002
4.738301e+002, 1.195671e+002
4.743123e+002, 1.188431e+002
4.747944e+002, 1.183240e+002
4.752765e+002, 1.182085e+002
4.757586e+002, 1.183981e+002
4.762407e+002, 1.183634e+002
4.767228e+002, 1.178540e+002
4.772050e+002, 1.171396e+002
4.776871e+002, 1.165742e+002
4.781692e+002, 1.161573e+002
4.786513e+002, 1.159001e+002
4.791334e+002, 1.161383e+002
4.796155e+002, 1.163725e+002
4.800977e+002, 1.158767e+002
4.805798e+002, 1.144391e+002
4.810619e+002, 1.132914e+002
4.815440e+002, 1.133639e+002
4.820261e+002, 1.140785e+002
4.825082e+002, 1.147648e+002
4.829904e+002, 1.155755e+002
4.834725e+002, 1.159622e+002
4.839546e+002, 1.155626e+002
4.844367e+002, 1.145357e+002
4.849188e+002, 1.135958e+002
4.854009e+002, 1.128226e+002
4.858831e+002, 1.121707e+002
4.863652e+002, 1.116085e+002
4.868473e+002, 1.111339e+002
4.873294e+002, 1.107803e+002
4.878115e+002, 1.106386e+002
4.882936e+002, 1.105296e+002
4.887758e+002, 1.102256e+002
4.892579e+002, 1.096055e+002
4.897400e+002, 1.091925e+002
4.902221e+002, 1.091508e+002
4.907042e+002, 1.093207e+002
4.911863e+002, 1.091890e+002
4.916685e+002, 1.087269e+002
4.921506e+002, 1.082610e+002
4.926327e+002, 1.079766e+002
4.931148e+002, 1.078433e+002
4.935969e+002, 1.077750e+002
4.940790e+002, 1.077825e+002
4.945612e+002, 1.077263e+002
4.950433e+002, 1.073588e+002
4.955254e+002, 1.068339e+002
4.960075e+002, 1.064939e+002
4.964896e+002, 1.065272e+002
4.969717e+002, 1.066383e+002
4.974539e+002, 1.065524e+002
4.979360e+002, 1.063236e+002
4.984181e+002, 1.060934e+002
4.989002e+002, 1.059190e+002
4.993823e+002, 1.057679e+002
4.998644e+002, 1.056379e+002
5.003466e+002, 1.055305e+002
5.008287e+002, 1.053650e+002
5.013108e+002, 1.050225e+002
5.017929e+002, 1.046635e+002
5.022750e+002, 1.044109e+002
5.027571e+002, 1.043384e+002
5.032393e+002, 1.042947e+002
5.037214e+002, 1.043391e+002
5.042035e+002, 1.043923e+002
5.046856e+002, 1.042676e+002
5.051677e+002, 1.038352e+002
5.056498e+002, 1.034650e+002
5.061320e+002, 1.032810e+002
5.066141e+002, 1.032751e+002
5.070962e+002, 1.032534e+002
5.075783e+002, 1.032164e+002
5.080604e+002, 1.031684e+002
5.085425e+002, 1.031462e+002
5.090247e+002, 1.031402e+002
5.095068e+002, 1.029686e+002
5.099889e+002, 1.025583e+002
5.104710e+002, 1.021407e+002
5.109531e+002, 1.020492e+002
5.114352e+002, 1.022314e+002
5.119174e+002, 1.024980e+002
5.123995e+002, 1.029213e+002
5.128816e+002, 1.032822e+002
5.133637e+002, 1.032897e+002
5.138458e+002, 1.029837e+002
5.143279e+002, 1.026093e+002
5.148101e+002, 1.021438e+002
5.152922e+002, 1.017702e+002
5.157743e+002, 1.017099e+002
5.162564e+002, 1.021353e+002
5.167385e+002, 1.023671e+002
5.172206e+002, 1.019968e+002
5.177028e+002, 1.013741e+002
5.181849e+002, 1.008979e+002
5.186670e+002, 1.006462e+002
5.191491e+002, 1.005294e+002
5.196312e+002, 1.006112e+002
5.201133e+002, 1.008319e+002
5.205955e+002, 1.009184e+002
5.210776e+002, 1.007326e+002
5.215597e+002, 1.006499e+002
5.220418e+002, 1.008801e+002
5.225239e+002, 1.014719e+002
5.230060e+002, 1.018911e+002
5.234882e+002, 1.021395e+002
5.239703e+002, 1.022277e+002
5.244524e+002, 1.021018e+002
5.249345e+002, 1.017803e+002
5.254166e+002, 1.015064e+002
5.258987e+002, 1.012969e+002
5.263809e+002, 1.012040e+002
5.268630e+002, 1.013714e+002
5.273451e+002, 1.017454e+002
5.278272e+002, 1.021030e+002
5.283093e+002, 1.023172e+002
5.287914e+002, 1.024649e+002
5.292736e+002, 1.026380e+002
5.297557e+002, 1.028338e+002
5.302378e+002, 1.029839e+002
5.307199e+002, 1.030583e+002
5.312020e+002, 1.030651e+002
5.316841e+002, 1.029988e+002
5.321663e+002, 1.028114e+002
5.326484e+002, 1.026554e+002
5.331305e+002, 1.025136e+002
5.336126e+002, 1.024411e+002
5.340947e+002, 1.025180e+002
5.345768e+002, 1.029653e+002
5.350590e+002, 1.032929e+002
5.355411e+002, 1.033157e+002
5.360232e+002, 1.031260e+002
5.365053e+002, 1.033104e+002
5.369874e+002, 1.040236e+002
5.374695e+002, 1.047650e+002
5.379517e+002, 1.052993e+002
5.384338e+002, 1.056288e+002
5.389159e+002, 1.057516e+002
5.393980e+002, 1.056099e+002
5.398801e+002, 1.054891e+002
5.403622e+002, 1.058106e+002
5.408444e+002, 1.064628e+002
5.413265e+002, 1.068959e+002
5.418086e+002, 1.068926e+002
5.422907e+002, 1.068220e+002
5.427728e+002, 1.071789e+002
5.432549e+002, 1.078656e+002
5.437371e+002, 1.085949e+002
5.442192e+002, 1.092207e+002
5.447013e+002, 1.098320e+002
5.451834e+002, 1.105582e+002
5.456655e+002, 1.113906e+002
5.461476e+002, 1.120716e+002
5.466298e+002, 1.122512e+002
5.471119e+002, 1.124114e+002
5.475940e+002, 1.128983e+002
5.480761e+002, 1.139968e+002
5.485582e+002, 1.149354e+002
5.490403e+002, 1.155297e+002
5.495225e+002, 1.160055e+002
5.500046e+002, 1.166257e+002
5.504867e+002, 1.174627e+002
5.509688e+002, 1.182959e+002
5.514509e+002, 1.190800e+002
5.519330e+002, 1.198382e+002
5.524152e+002, 1.206381e+002
5.528973e+002, 1.214857e+002
5.533794e+002, 1.223521e+002
5.538615e+002, 1.232045e+002
5.543436e+002, 1.240561e+002
5.548257e+002, 1.250192e+002
5.553079e+002, 1.260924e+002
5.557900e+002, 1.271469e+002
5.562721e+002, 1.281237e+002
5.567542e+002, 1.289764e+002
5.572363e+002, 1.295455e+002
5.577184e+002, 1.296738e+002
5.582006e+002, 1.298781e+002
5.586827e+002, 1.307434e+002
5.591648e+002, 1.319298e+002
5.596469e+002, 1.328796e+002
5.601290e+002, 1.332011e+002
5.606111e+002, 1.334206e+002
5.610933e+002, 1.336498e+002
5.615754e+002, 1.339179e+002
5.620575e+002, 1.343735e+002
5.625396e+002, 1.351494e+002
5.630217e+002, 1.360168e+002
5.635038e+002, 1.369087e+002
5.639860e+002, 1.378400e+002
5.644681e+002, 1.387359e+002
5.649502e+002, 1.395741e+002
5.654323e+002, 1.404085e+002
5.659144e+002, 1.412577e+002
5.663965e+002, 1.421182e+002
5.668787e+002, 1.430839e+002
5.673608e+002, 1.441626e+002
5.678429e+002, 1.453516e+002
5.683250e+002, 1.467342e+002
5.688071e+002, 1.482506e+002
5.692892e+002, 1.494981e+002
5.697714e+002, 1.500353e+002
5.702535e+002, 1.503679e+002
5.707356e+002, 1.512590e+002
5.712177e+002, 1.526222e+002
5.716998e+002, 1.538728e+002
5.721819e+002, 1.546384e+002
5.726641e+002, 1.552025e+002
5.731462e+002, 1.557527e+002
5.736283e+002, 1.563016e+002
5.741104e+002, 1.569177e+002
5.745925e+002, 1.577344e+002
5.750746e+002, 1.585692e+002
5.755568e+002, 1.592681e+002
5.760389e+002, 1.596328e+002
5.765210e+002, 1.600919e+002
5.770031e+002, 1.606216e+002
5.774852e+002, 1.612773e+002
5.779673e+002, 1.622852e+002
5.784495e+002, 1.639090e+002
5.789316e+002, 1.650446e+002
5.794137e+002, 1.651389e+002
5.798958e+002, 1.645203e+002
5.803779e+002, 1.646897e+002
5.808600e+002, 1.656767e+002
5.813422e+002, 1.667586e+002
5.818243e+002, 1.673861e+002
5.823064e+002, 1.677566e+002
5.827885e+002, 1.682747e+002
5.832706e+002, 1.689707e+002
5.837527e+002, 1.698415e+002
5.842349e+002, 1.710446e+002
5.847170e+002, 1.723668e+002
5.851991e+002, 1.735340e+002
5.856812e+002, 1.744306e+002
5.861633e+002, 1.752561e+002
5.866454e+002, 1.759086e+002
5.871276e+002, 1.765773e+002
5.876097e+002, 1.775943e+002
5.880918e+002, 1.793850e+002
5.885739e+002, 1.811340e+002
5.890560e+002, 1.827180e+002
5.895381e+002, 1.841316e+002
5.900203e+002, 1.852547e+002
5.905024e+002, 1.857865e+002
5.909845e+002, 1.866403e+002
5.914666e+002, 1.884302e+002
5.919487e+002, 1.911816e+002
5.924308e+002, 1.933206e+002
5.929130e+002, 1.947632e+002
5.933951e+002, 1.960533e+002
5.938772e+002, 1.976727e+002
5.943593e+002, 1.995655e+002
5.948414e+002, 2.015587e+002
5.953235e+002, 2.036326e+002
5.958057e+002, 2.056982e+002
5.962878e+002, 2.077086e+002
5.967699e+002, 2.096405e+002
5.972520e+002, 2.114200e+002
5.977341e+002, 2.128525e+002
5.982162e+002, 2.143050e+002
5.986984e+002, 2.161190e+002
5.991805e+002, 2.181194e+002
5.996626e+002, 2.197803e+002
6.001447e+002, 2.207172e+002
6.006268e+002, 2.215433e+002
6.011089e+002, 2.225418e+002
6.015911e+002, 2.237660e+002
6.020732e+002, 2.245694e+002
6.025553e+002, 2.248841e+002
6.030374e+002, 2.248762e+002
6.035195e+002, 2.246514e+002
6.040016e+002, 2.242151e+002
6.044838e+002, 2.235401e+002
6.049659e+002, 2.226336e+002
6.054480e+002, 2.214892e+002
6.059301e+002, 2.201082e+002
6.064122e+002, 2.184867e+002
6.068943e+002, 2.166011e+002
6.073765e+002, 2.144924e+002
6.078586e+002, 2.120430e+002
6.083407e+002, 2.090368e+002
6.088228e+002, 2.055931e+002
6.093049e+002, 2.020907e+002
6.097870e+002, 1.986906e+002
6.102692e+002, 1.952354e+002
6.107513e+002, 1.915008e+002
6.112334e+002, 1.875347e+002
6.117155e+002, 1.839122e+002
6.121976e+002, 1.810035e+002
6.126797e+002, 1.781971e+002
6.131619e+002, 1.751995e+002
6.136440e+002, 1.718949e+002
6.141261e+002, 1.688160e+002
6.146082e+002, 1.659214e+002
6.150903e+002, 1.632627e+002
6.155724e+002, 1.609231e+002
6.160546e+002, 1.589279e+002
6.165367e+002, 1.567564e+002
6.170188e+002, 1.542887e+002
6.175009e+002, 1.518248e+002
6.179830e+002, 1.498661e+002
6.184651e+002, 1.482942e+002
6.189473e+002, 1.466935e+002
6.194294e+002, 1.448101e+002
6.199115e+002, 1.429608e+002
6.203936e+002, 1.415603e+002
6.208757e+002, 1.404525e+002
6.213578e+002, 1.391557e+002
6.218400e+002, 1.370015e+002
6.223221e+002, 1.349995e+002
6.228042e+002, 1.338042e+002
6.232863e+002, 1.334465e+002
6.237684e+002, 1.329044e+002
6.242505e+002, 1.320102e+002
6.247327e+002, 1.309714e+002
6.252148e+002, 1.298169e+002
6.256969e+002, 1.283954e+002
6.261790e+002, 1.275542e+002
6.266611e+002, 1.275032e+002
6.271432e+002, 1.276102e+002
6.276254e+002, 1.271395e+002
6.281075e+002, 1.261351e+002
6.285896e+002, 1.252775e+002
6.290717e+002, 1.246727e+002
6.295538e+002, 1.242908e+002
6.300359e+002, 1.242237e+002
6.305181e+002, 1.243556e+002
6.310002e+002, 1.243915e+002
6.314823e+002, 1.240914e+002
6.319644e+002, 1.237719e+002
6.324465e+002, 1.237170e+002
6.329286e+002, 1.238348e+002
6.334108e+002, 1.238400e+002
6.338929e+002, 1.234071e+002
6.343750e+002, 1.230582e+002
6.348571e+002, 1.230938e+002
6.353392e+002, 1.235466e+002
6.358214e+002, 1.237188e+002
6.363035e+002, 1.234996e+002
6.367856e+002, 1.231635e+002
6.372677e+002, 1.228311e+002
6.377498e+002, 1.224905e+002
6.382319e+002, 1.222978e+002
6.387141e+002, 1.222845e+002
6.391962e+002, 1.222986e+002
6.396783e+002, 1.221185e+002
6.401604e+002, 1.218190e+002
6.406425e+002, 1.217142e+002
6.411246e+002, 1.219036e+002
6.416068e+002, 1.221569e+002
6.420889e+002, 1.221976e+002
6.425710e+002, 1.221446e+002
6.430531e+002, 1.222014e+002
6.435352e+002, 1.226507e+002
6.440173e+002, 1.230103e+002
6.444995e+002, 1.230481e+002
6.449816e+002, 1.228398e+002
6.454637e+002, 1.226068e+002
6.459458e+002, 1.222259e+002
6.464279e+002, 1.220112e+002
6.469100e+002, 1.221315e+002
6.473922e+002, 1.225439e+002
6.478743e+002, 1.226309e+002
6.483564e+002, 1.222740e+002
6.488385e+002, 1.219449e+002
6.493206e+002, 1.219580e+002
6.498027e+002, 1.222698e+002
6.502849e+002, 1.225047e+002
6.507670e+002, 1.226606e+002
6.512491e+002, 1.227287e+002
6.517312e+002, 1.225846e+002
6.522133e+002, 1.223810e+002
6.526954e+002, 1.224202e+002
6.531776e+002, 1.228362e+002
6.536597e+002, 1.231523e+002
6.541418e+002, 1.230363e+002
6.546239e+002, 1.226793e+002
6.551060e+002, 1.223047e+002
6.555881e+002, 1.218765e+002
6.560703e+002, 1.215440e+002
6.565524e+002, 1.213240e+002
6.570345e+002, 1.212164e+002
6.575166e+002, 1.212431e+002
6.579987e+002, 1.214590e+002
6.584808e+002, 1.216792e+002
6.589630e+002, 1.218999e+002
6.594451e+002, 1.220771e+002
6.599272e+002, 1.220420e+002
6.604093e+002, 1.217945e+002
6.608914e+002, 1.214775e+002
6.613735e+002, 1.210510e+002
6.618557e+002, 1.206505e+002
6.623378e+002, 1.205736e+002
6.628199e+002, 1.207911e+002
6.633020e+002, 1.210284e+002
6.637841e+002, 1.211305e+002
6.642662e+002, 1.211686e+002
6.647484e+002, 1.211956e+002
6.652305e+002, 1.212187e+002
6.657126e+002, 1.212254e+002
6.661947e+002, 1.211074e+002
6.666768e+002, 1.210474e+002
6.671589e+002, 1.211894e+002
6.676411e+002, 1.217236e+002
6.681232e+002, 1.220375e+002
6.686053e+002, 1.220763e+002
6.690874e+002, 1.219642e+002
6.695695e+002, 1.218706e+002
6.700516e+002, 1.217931e+002
6.705338e+002, 1.215379e+002
6.710159e+002, 1.209576e+002
6.714980e+002, 1.204372e+002
6.719801e+002, 1.207372e+002
6.724622e+002, 1.215851e+002
6.729443e+002, 1.222244e+002
6.734265e+002, 1.222137e+002
6.739086e+002, 1.220125e+002
6.743907e+002, 1.218951e+002
6.748728e+002, 1.218383e+002
6.753549e+002, 1.217711e+002
6.758370e+002, 1.215858e+002
6.763192e+002, 1.214754e+002
6.768013e+002, 1.215465e+002
6.772834e+002, 1.217806e+002
6.777655e+002, 1.219416e+002
6.782476e+002, 1.219621e+002
6.787297e+002, 1.220508e+002
6.792119e+002, 1.224017e+002
6.796940e+002, 1.229868e+002
6.801761e+002, 1.231302e+002
6.806582e+002, 1.227903e+002
6.811403e+002, 1.224384e+002
6.816224e+002, 1.225269e+002
6.821046e+002, 1.228699e+002
6.825867e+002, 1.231269e+002
6.830688e+002, 1.232545e+002
6.835509e+002, 1.233153e+002
6.840330e+002, 1.233097e+002
6.845151e+002, 1.232812e+002
6.849973e+002, 1.232714e+002
6.854794e+002, 1.232649e+002
6.859615e+002, 1.233173e+002
6.864436e+002, 1.235332e+002
6.869257e+002, 1.237679e+002
6.874078e+002, 1.238230e+002
6.878900e+002, 1.235647e+002
6.883721e+002, 1.235007e+002
6.888542e+002, 1.237413e+002
6.893363e+002, 1.241676e+002
6.898184e+002, 1.246179e+002
6.903005e+002, 1.250735e+002
6.907827e+002, 1.252969e+002
6.912648e+002, 1.250932e+002
6.917469e+002, 1.247103e+002
6.922290e+002, 1.244685e+002
6.927111e+002, 1.243440e+002
6.931932e+002, 1.242746e+002
6.936754e+002, 1.242718e+002
6.941575e+002, 1.242741e+002
6.946396e+002, 1.242316e+002
6.951217e+002, 1.241492e+002
6.956038e+002, 1.241092e+002
6.960859e+002, 1.240781e+002
6.965681e+002, 1.241455e+002
6.970502e+002, 1.244034e+002
6.975323e+002, 1.248683e+002
6.980144e+002, 1.250535e+002
6.984965e+002, 1.248826e+002
6.989786e+002, 1.247090e+002
6.994608e+002, 1.248587e+002
6.999429e+002, 1.252452e+002
7.004250e+002, 1.254817e+002
7.009071e+002, 1.255474e+002
7.013892e+002, 1.254908e+002
7.018713e+002, 1.253133e+002
7.023535e+002, 1.250569e+002
7.028356e+002, 1.247426e+002
7.033177e+002, 1.243132e+002
7.037998e+002, 1.240255e+002
7.042819e+002, 1.240415e+002
7.047640e+002, 1.242149e+002
7.052462e+002, 1.244019e+002
7.057283e+002, 1.247328e+002
7.062104e+002, 1.248239e+002
7.066925e+002, 1.245947e+002
7.071746e+002, 1.241793e+002
7.076567e+002, 1.236958e+002
7.081389e+002, 1.231230e+002
7.086210e+002, 1.229367e+002
7.091031e+002, 1.233986e+002
7.095852e+002, 1.240156e+002
7.100673e+002, 1.238643e+002
7.105494e+002, 1.231684e+002
7.110316e+002, 1.226015e+002
7.115137e+002, 1.225661e+002
7.119958e+002, 1.226850e+002
7.124779e+002, 1.227683e+002
7.129600e+002, 1.228106e+002
7.134421e+002, 1.227943e+002
7.139243e+002, 1.226354e+002
7.144064e+002, 1.225040e+002
7.148885e+002, 1.224924e+002
7.153706e+002, 1.225705e+002
7.158527e+002, 1.224968e+002
7.163348e+002, 1.222461e+002
7.168170e+002, 1.219145e+002
7.172991e+002, 1.214731e+002
7.177812e+002, 1.209810e+002
7.182633e+002, 1.208348e+002
7.187454e+002, 1.210235e+002
7.192275e+002, 1.211922e+002
7.197097e+002, 1.209828e+002
7.201918e+002, 1.206704e+002
7.206739e+002, 1.206512e+002
7.211560e+002, 1.209584e+002
7.216381e+002, 1.211381e+002
7.221202e+002, 1.208041e+002
7.226024e+002, 1.203913e+002
7.230845e+002, 1.202166e+002
7.235666e+002, 1.204234e+002
7.240487e+002, 1.204969e+002
7.245308e+002, 1.204047e+002
7.250129e+002, 1.202241e+002
7.254951e+002, 1.199818e+002
7.259772e+002, 1.196658e+002
7.264593e+002, 1.194854e+002
7.269414e+002, 1.194679e+002
7.274235e+002, 1.195279e+002
7.279056e+002, 1.196038e+002
7.283878e+002, 1.196780e+002
7.288699e+002, 1.196900e+002
7.293520e+002, 1.195755e+002
7.298341e+002, 1.195442e+002
7.303162e+002, 1.199079e+002
7.307983e+002, 1.203729e+002
7.312805e+002, 1.205747e+002
7.317626e+002, 1.201571e+002
7.322447e+002, 1.198191e+002
7.327268e+002, 1.195746e+002
7.332089e+002, 1.194721e+002
7.336910e+002, 1.196494e+002
7.341732e+002, 1.202042e+002
7.346553e+002, 1.206019e+002
7.351374e+002, 1.207125e+002
7.356195e+002, 1.206330e+002
7.361016e+002, 1.204984e+002
7.365837e+002, 1.203235e+002
7.370659e+002, 1.201664e+002
7.375480e+002, 1.199623e+002
7.380301e+002, 1.198785e+002
7.385122e+002, 1.202719e+002
7.389943e+002, 1.209125e+002
7.394764e+002, 1.212051e+002
7.399586e+002, 1.204456e+002
7.404407e+002, 1.198313e+002
7.409228e+002, 1.199114e+002
7.414049e+002, 1.205007e+002
7.418870e+002, 1.207620e+002
7.423691e+002, 1.205393e+002
7.428513e+002, 1.204116e+002
7.433334e+002, 1.207281e+002
7.438155e+002, 1.212888e+002
7.442976e+002, 1.210755e+002
7.447797e+002, 1.201382e+002
7.452618e+002, 1.193826e+002
7.457440e+002, 1.195346e+002
7.462261e+002, 1.200710e+002
7.467082e+002, 1.203766e+002
7.471903e+002, 1.204607e+002
7.476724e+002, 1.206305e+002
7.481545e+002, 1.213269e+002
7.486367e+002, 1.218834e+002
7.491188e+002, 1.218247e+002
7.496009e+002, 1.210415e+002
7.500830e+002, 1.206320e+002
7.505651e+002, 1.207211e+002
7.510472e+002, 1.209410e+002
7.515294e+002, 1.211080e+002
7.520115e+002, 1.212222e+002
7.524936e+002, 1.212504e+002
7.529757e+002, 1.211910e+002
7.534578e+002, 1.210795e+002
7.539399e+002, 1.208362e+002
7.544221e+002, 1.206080e+002
7.549042e+002, 1.206855e+002
7.553863e+002, 1.211278e+002
7.558684e+002, 1.214898e+002
7.563505e+002, 1.215440e+002
7.568326e+002, 1.214292e+002
7.573148e+002, 1.212217e+002
7.577969e+002, 1.208209e+002
7.582790e+002, 1.206407e+002
7.587611e+002, 1.207798e+002
7.592432e+002, 1.210049e+002
7.597253e+002, 1.211134e+002
7.602075e+002, 1.211029e+002
7.606896e+002, 1.210931e+002
7.611717e+002, 1.210893e+002
7.616538e+002, 1.211000e+002
7.621359e+002, 1.211628e+002
7.626180e+002, 1.212389e+002
7.631002e+002, 1.212603e+002
7.635823e+002, 1.212123e+002
7.640644e+002, 1.211096e+002
7.645465e+002, 1.208764e+002
7.650286e+002, 1.206325e+002
7.655107e+002, 1.205078e+002
7.659929e+002, 1.204903e+002
7.664750e+002, 1.206632e+002
7.669571e+002, 1.211674e+002
7.674392e+002, 1.217201e+002
7.679213e+002, 1.219418e+002
7.684034e+002, 1.218211e+002
7.688856e+002, 1.216780e+002
7.693677e+002, 1.215648e+002
7.698498e+002, 1.214419e+002
7.703319e+002, 1.212097e+002
7.708140e+002, 1.209331e+002
7.712961e+002, 1.207483e+002
7.717783e+002, 1.207136e+002
7.722604e+002, 1.207448e+002
7.727425e+002, 1.207490e+002
7.732246e+002, 1.208047e+002
7.737067e+002, 1.210438e+002
7.741888e+002, 1.218662e+002
7.746710e+002, 1.222578e+002
7.751531e+002, 1.219155e+002
7.756352e+002, 1.212868e+002
7.761173e+002, 1.212873e+002
7.765994e+002, 1.219415e+002
7.770815e+002, 1.222474e+002
7.775637e+002, 1.218434e+002
7.780458e+002, 1.212385e+002
7.785279e+002, 1.210828e+002
7.790100e+002, 1.212970e+002
7.794921e+002, 1.217122e+002
7.799742e+002, 1.226233e+002
7.804564e+002, 1.232918e+002
7.809385e+002, 1.232214e+002
7.814206e+002, 1.227001e+002
7.819027e+002, 1.223461e+002
7.823848e+002, 1.222799e+002
7.828669e+002, 1.222614e+002
7.833491e+002, 1.222970e+002
7.838312e+002, 1.223269e+002
7.843133e+002, 1.221238e+002
7.847954e+002, 1.216987e+002
7.852775e+002, 1.215108e+002
7.857596e+002, 1.218300e+002
7.862418e+002, 1.223010e+002
7.867239e+002, 1.223549e+002
7.872060e+002, 1.221676e+002
7.876881e+002, 1.221710e+002
7.881702e+002, 1.229065e+002
7.886523e+002, 1.234915e+002
7.891345e+002, 1.234557e+002
7.896166e+002, 1.229905e+002
7.900987e+002, 1.226855e+002
7.905808e+002, 1.225737e+002
7.910629e+002, 1.225890e+002
7.915450e+002, 1.227536e+002
7.920272e+002, 1.230093e+002
7.925093e+002, 1.231609e+002
7.929914e+002, 1.232233e+002
7.934735e+002, 1.233619e+002
7.939556e+002, 1.237528e+002
7.944377e+002, 1.241420e+002
7.949199e+002, 1.242208e+002
7.954020e+002, 1.240536e+002
7.958841e+002, 1.238090e+002
7.963662e+002, 1.233716e+002
7.968483e+002, 1.230621e+002
7.973304e+002, 1.231248e+002
7.978126e+002, 1.234081e+002
7.982947e+002, 1.234054e+002
7.987768e+002, 1.229535e+002
7.992589e+002, 1.226889e+002
7.997410e+002, 1.228562e+002
8.002231e+002, 1.232734e+002
8.007053e+002, 1.235022e+002
8.011874e+002, 1.235575e+002
8.016695e+002, 1.235222e+002
8.021516e+002, 1.234196e+002
8.026337e+002, 1.232584e+002
8.031158e+002, 1.229053e+002
8.035980e+002, 1.224943e+002
8.040801e+002, 1.223800e+002
8.045622e+002, 1.229334e+002
8.050443e+002, 1.235057e+002
8.055264e+002, 1.239335e+002
8.060085e+002, 1.242543e+002
8.064907e+002, 1.246164e+002
8.069728e+002, 1.250559e+002
8.074549e+002, 1.253488e+002
8.079370e+002, 1.254270e+002
8.084191e+002, 1.253104e+002
8.089012e+002, 1.248973e+002
8.093834e+002, 1.242955e+002
8.098655e+002, 1.238909e+002
8.103476e+002, 1.240234e+002
8.108297e+002, 1.242708e+002
8.113118e+002, 1.243192e+002
8.117939e+002, 1.242725e+002
8.122761e+002, 1.244541e+002
8.127582e+002, 1.253010e+002
8.132403e+002, 1.258159e+002
8.137224e+002, 1.256694e+002
8.142045e+002, 1.251236e+002
8.146866e+002, 1.249808e+002
8.151688e+002, 1.252481e+002
8.156509e+002, 1.254874e+002
8.161330e+002, 1.255365e+002
8.166151e+002, 1.254755e+002
8.170972e+002, 1.252797e+002
8.175793e+002, 1.250648e+002
8.180615e+002, 1.251254e+002
8.185436e+002, 1.260299e+002
8.190257e+002, 1.267601e+002
8.195078e+002, 1.267083e+002
8.199899e+002, 1.261868e+002
8.204720e+002, 1.260972e+002
8.209542e+002, 1.266703e+002
8.214363e+002, 1.271106e+002
8.219184e+002, 1.272114e+002
8.224005e+002, 1.271204e+002
8.228826e+002, 1.272142e+002
8.233647e+002, 1.274446e+002
8.238469e+002, 1.275046e+002
8.243290e+002, 1.271074e+002
8.248111e+002, 1.267471e+002
8.252932e+002, 1.270137e+002
8.257753e+002, 1.276285e+002
8.262574e+002, 1.280310e+002
8.267396e+002, 1.278399e+002
8.272217e+002, 1.277123e+002
8.277038e+002, 1.278428e+002
8.281859e+002, 1.280620e+002
8.286681e+002, 1.279703e+002
8.291502e+002, 1.274786e+002
8.296323e+002, 1.273175e+002
8.301144e+002, 1.276798e+002
8.305966e+002, 1.283862e+002
8.310787e+002, 1.293544e+002
8.315608e+002, 1.304455e+002
8.320429e+002, 1.313834e+002
8.325250e+002, 1.322723e+002
8.330071e+002, 1.326411e+002
8.334893e+002, 1.318387e+002
8.339714e+002, 1.304948e+002
8.344535e+002, 1.296044e+002
8.349356e+002, 1.294361e+002
8.354177e+002, 1.292955e+002
8.358998e+002, 1.291343e+002
8.363820e+002, 1.289718e+002
8.368641e+002, 1.287578e+002
8.373462e+002, 1.285280e+002
8.378283e+002, 1.286384e+002
8.383104e+002, 1.292453e+002
8.387925e+002, 1.298976e+002
8.392747e+002, 1.301887e+002
8.397568e+002, 1.302358e+002
8.402389e+002, 1.301825e+002
8.407210e+002, 1.299096e+002
8.412031e+002, 1.298283e+002
8.416852e+002, 1.302694e+002
8.421674e+002, 1.307571e+002
8.426495e+002, 1.308175e+002
8.431316e+002, 1.303718e+002
8.436137e+002, 1.299335e+002
8.440958e+002, 1.295082e+002
8.445779e+002, 1.292059e+002
8.450601e+002, 1.292744e+002
8.455422e+002, 1.295342e+002
8.460243e+002, 1.295733e+002
8.465064e+002, 1.292774e+002
8.469885e+002, 1.290156e+002
8.474706e+002, 1.289086e+002
8.479528e+002, 1.289775e+002
8.484349e+002, 1.292653e+002
8.489170e+002, 1.298456e+002
8.493991e+002, 1.304451e+002
8.498812e+002, 1.311513e+002
8.503633e+002, 1.317064e+002
8.508455e+002, 1.317986e+002
8.513276e+002, 1.315080e+002
8.518097e+002, 1.314045e+002
8.522918e+002, 1.315199e+002
8.527739e+002, 1.316504e+002
8.532560e+002, 1.316395e+002
8.537382e+002, 1.315647e+002
8.542203e+002, 1.314382e+002
8.547024e+002, 1.312409e+002
8.551845e+002, 1.313001e+002
8.556666e+002, 1.320821e+002
8.561487e+002, 1.327007e+002
8.566309e+002, 1.326082e+002
8.571130e+002, 1.318229e+002
8.575951e+002, 1.317120e+002
8.580772e+002, 1.323283e+002
8.585593e+002, 1.329797e+002
8.590414e+002, 1.332150e+002
8.595236e+002, 1.331866e+002
8.600057e+002, 1.330542e+002
8.604878e+002, 1.328486e+002
8.609699e+002, 1.327296e+002
8.614520e+002, 1.328392e+002
8.619341e+002, 1.329823e+002
8.624163e+002, 1.330231e+002
8.628984e+002, 1.329959e+002
8.633805e+002, 1.331958e+002
8.638626e+002, 1.337235e+002
8.643447e+002, 1.341460e+002
8.648268e+002, 1.342712e+002
8.653090e+002, 1.342005e+002
8.657911e+002, 1.339966e+002
8.662732e+002, 1.337676e+002
8.667553e+002, 1.339682e+002
8.672374e+002, 1.354234e+002
8.677195e+002, 1.368048e+002
8.682017e+002, 1.373660e+002
8.686838e+002, 1.372235e+002
8.691659e+002, 1.366259e+002
8.696480e+002, 1.351231e+002
8.701301e+002, 1.340935e+002
8.706122e+002, 1.338926e+002
8.710944e+002, 1.342021e+002
8.715765e+002, 1.344128e+002
8.720586e+002, 1.345302e+002
8.725407e+002, 1.346055e+002
8.730228e+002, 1.347137e+002
8.735049e+002, 1.346624e+002
8.739871e+002, 1.340483e+002
8.744692e+002, 1.332232e+002
8.749513e+002, 1.327160e+002
8.754334e+002, 1.330418e+002
8.759155e+002, 1.331931e+002
8.763976e+002, 1.330734e+002
8.768798e+002, 1.327642e+002
8.773619e+002, 1.322509e+002
8.778440e+002, 1.315039e+002
8.783261e+002, 1.311802e+002
8.788082e+002, 1.314046e+002
8.792903e+002, 1.317811e+002
8.797725e+002, 1.319436e+002
8.802546e+002, 1.319579e+002
8.807367e+002, 1.319001e+002
8.812188e+002, 1.317622e+002
8.817009e+002, 1.316490e+002
8.821830e+002, 1.315490e+002
8.826652e+002, 1.315273e+002
8.831473e+002, 1.316575e+002
8.836294e+002, 1.319904e+002
8.841115e+002, 1.321427e+002
8.845936e+002, 1.320985e+002
8.850757e+002, 1.319574e+002
8.855579e+002, 1.317995e+002
8.860400e+002, 1.316010e+002
8.865221e+002, 1.312458e+002
8.870042e+002, 1.307565e+002
8.874863e+002, 1.304015e+002
8.879684e+002, 1.304592e+002
8.884506e+002, 1.305758e+002
8.889327e+002, 1.305216e+002
8.894148e+002, 1.303105e+002
8.898969e+002, 1.302374e+002
8.903790e+002, 1.303175e+002
8.908611e+002, 1.305021e+002
8.913433e+002, 1.308497e+002
8.918254e+002, 1.312343e+002
8.923075e+002, 1.312878e+002
8.927896e+002, 1.310708e+002
8.932717e+002, 1.308542e+002
8.937538e+002, 1.308072e+002
8.942360e+002, 1.307637e+002
8.947181e+002, 1.305221e+002
8.952002e+002, 1.302141e+002
8.956823e+002, 1.302316e+002
8.961644e+002, 1.309070e+002
8.966465e+002, 1.312116e+002
8.971287e+002, 1.308528e+002
8.976108e+002, 1.302263e+002
8.980929e+002, 1.300911e+002
8.985750e+002, 1.303487e+002
8.990571e+002, 1.305291e+002
8.995392e+002, 1.304933e+002
9.000214e+002, 1.304127e+002
9.005035e+002, 1.303980e+002
9.009856e+002, 1.304301e+002
9.014677e+002, 1.304880e+002
9.019498e+002, 1.305867e+002
9.024319e+002, 1.306798e+002
9.029141e+002, 1.307750e+002
9.033962e+002, 1.308537e+002
9.038783e+002, 1.308847e+002
9.043604e+002, 1.308758e+002
9.048425e+002, 1.308826e+002
9.053246e+002, 1.309046e+002
9.058068e+002, 1.310407e+002
9.062889e+002, 1.315079e+002
9.067710e+002, 1.320330e+002
9.072531e+002, 1.323573e+002
9.077352e+002, 1.324413e+002
9.082173e+002, 1.325030e+002
9.086995e+002, 1.325237e+002
9.091816e+002, 1.325984e+002
9.096637e+002, 1.327743e+002
9.101458e+002, 1.330403e+002
9.106279e+002, 1.333245e+002
9.111100e+002, 1.336271e+002
9.115922e+002, 1.339466e+002
9.120743e+002, 1.343366e+002
9.125564e+002, 1.347059e+002
9.130385e+002, 1.349252e+002
9.135206e+002, 1.350438e+002
9.140027e+002, 1.352171e+002
9.144849e+002, 1.355127e+002
9.149670e+002, 1.358369e+002
9.154491e+002, 1.361525e+002
9.159312e+002, 1.364996e+002
9.164133e+002, 1.370124e+002
9.168954e+002, 1.376869e+002
9.173776e+002, 1.382086e+002
9.178597e+002, 1.384648e+002
9.183418e+002, 1.386683e+002
9.188239e+002, 1.390591e+002
9.193060e+002, 1.395440e+002
9.197881e+002, 1.399735e+002
9.202703e+002, 1.401677e+002
9.207524e+002, 1.406178e+002
9.212345e+002, 1.414903e+002
9.217166e+002, 1.425248e+002
9.221987e+002, 1.435752e+002
9.226808e+002, 1.446511e+002
9.231630e+002, 1.453711e+002
9.236451e+002, 1.456900e+002
9.241272e+002, 1.460950e+002
9.246093e+002, 1.470931e+002
9.250914e+002, 1.483510e+002
9.255735e+002, 1.495594e+002
9.260557e+002, 1.506752e+002
9.265378e+002, 1.516040e+002
9.270199e+002, 1.520193e+002
9.275020e+002, 1.525692e+002
9.279841e+002, 1.535046e+002
9.284662e+002, 1.547719e+002
9.289484e+002, 1.560434e+002
9.294305e+002, 1.573255e+002
9.299126e+002, 1.587962e+002
9.303947e+002, 1.606437e+002
9.308768e+002, 1.625958e+002
9.313589e+002, 1.642852e+002
9.318411e+002, 1.658233e+002
9.323232e+002, 1.674188e+002
9.328053e+002, 1.689620e+002
9.332874e+002, 1.708068e+002
9.337695e+002, 1.729078e+002
9.342516e+002, 1.753788e+002
9.347338e+002, 1.784972e+002
9.352159e+002, 1.822847e+002
9.356980e+002, 1.857002e+002
9.361801e+002, 1.884778e+002
9.366622e+002, 1.914249e+002
9.371443e+002, 1.953508e+002
9.376265e+002, 1.999345e+002
9.381086e+002, 2.047163e+002
9.385907e+002, 2.096174e+002
9.390728e+002, 2.149277e+002
9.395549e+002, 2.204684e+002
9.400370e+002, 2.266021e+002
9.405192e+002, 2.334457e+002
9.410013e+002, 2.410027e+002
9.414834e+002, 2.493757e+002
9.419655e+002, 2.586265e+002
9.424476e+002, 2.685496e+002
9.429297e+002, 2.790216e+002
9.434119e+002, 2.901145e+002
9.438940e+002, 3.017264e+002
9.443761e+002, 3.139751e+002
9.448582e+002, 3.273817e+002
9.453403e+002, 3.426601e+002
9.458224e+002, 3.583124e+002
9.463046e+002, 3.738332e+002
9.467867e+002, 3.896607e+002
9.472688e+002, 4.065489e+002
9.477509e+002, 4.245121e+002
9.482330e+002, 4.431341e+002
9.487151e+002, 4.622616e+002
9.491973e+002, 4.821249e+002
9.496794e+002, 5.033118e+002
9.501615e+002, 5.251907e+002
9.506436e+002, 5.470736e+002
9.511257e+002, 5.684432e+002
9.516078e+002, 5.902322e+002
9.520900e+002, 6.128255e+002
9.525721e+002, 6.352079e+002
9.530542e+002, 6.563061e+002
9.535363e+002, 6.763673e+002
9.540184e+002, 6.975118e+002
9.545005e+002, 7.195571e+002
9.549827e+002, 7.400717e+002
9.554648e+002, 7.576332e+002
9.559469e+002, 7.727012e+002
9.564290e+002, 7.859513e+002
9.569111e+002, 7.971761e+002
9.573932e+002, 8.044040e+002
9.578754e+002, 8.070809e+002
9.583575e+002, 8.071921e+002
9.588396e+002, 8.051523e+002
9.593217e+002, 8.011005e+002
9.598038e+002, 7.950316e+002
9.602859e+002, 7.872405e+002
9.607681e+002, 7.786793e+002
9.612502e+002, 7.685632e+002
9.617323e+002, 7.596578e+002
9.622144e+002, 7.533593e+002
9.626965e+002, 7.492897e+002
9.631786e+002, 7.469111e+002
9.636608e+002, 7.458922e+002
9.641429e+002, 7.471081e+002
9.646250e+002, 7.503990e+002
9.651071e+002, 7.565178e+002
9.655892e+002, 7.666696e+002
9.660714e+002, 7.800538e+002
9.665535e+002, 7.955156e+002
9.670356e+002, 8.128298e+002
9.675177e+002, 8.320746e+002
9.679998e+002, 8.544757e+002
9.684819e+002, 8.777127e+002
9.689641e+002, 9.016158e+002
9.694462e+002, 9.256838e+002
9.699283e+002, 9.476650e+002
9.704104e+002, 9.679174e+002
9.708925e+002, 9.835374e+002
9.713746e+002, 9.946844e+002
9.718568e+002, 9.990211e+002
9.723389e+002, 9.936700e+002
9.728210e+002, 9.787620e+002
9.733031e+002, 9.546479e+002
9.737852e+002, 9.186047e+002
9.742673e+002, 8.770389e+002
9.747495e+002, 8.286054e+002
9.752316e+002, 7.769711e+002
9.757137e+002, 7.251327e+002
9.761958e+002, 6.725956e+002
9.766779e+002, 6.219783e+002
9.771600e+002, 5.731794e+002
9.776422e+002, 5.278115e+002
9.781243e+002, 4.855153e+002
9.786064e+002, 4.472607e+002
9.790885e+002, 4.143606e+002
9.795706e+002, 3.870488e+002
9.800527e+002, 3.622218e+002
9.805349e+002, 3.394149e+002
9.810170e+002, 3.190606e+002
9.814991e+002, 3.012970e+002
9.819812e+002, 2.859155e+002
9.824633e+002, 2.723911e+002
9.829454e+002, 2.606534e+002
9.834276e+002, 2.503552e+002
9.839097e+002, 2.415215e+002
9.843918e+002, 2.336287e+002
9.848739e+002, 2.261660e+002
9.853560e+002, 2.193184e+002
9.858381e+002, 2.134517e+002
9.863203e+002, 2.087981e+002
9.868024e+002, 2.045115e+002
9.872845e+002, 2.005613e+002
9.877666e+002, 1.969796e+002
9.882487e+002, 1.937873e+002
9.887308e+002, 1.910038e+002
9.892130e+002, 1.886671e+002
9.896951e+002, 1.867892e+002
9.901772e+002, 1.850344e+002
9.906593e+002, 1.831773e+002
9.911414e+002, 1.814429e+002
9.916235e+002, 1.799671e+002
9.921057e+002, 1.787256e+002
9.925878e+002, 1.775303e+002
9.930699e+002, 1.763555e+002
9.935520e+002, 1.753695e+002
9.940341e+002, 1.745982e+002
9.945162e+002, 1.740792e+002
9.949984e+002, 1.740663e+002
9.954805e+002, 1.743047e+002
9.959626e+002, 1.742991e+002
9.964447e+002, 1.735690e+002
9.969268e+002, 1.731529e+002
9.974089e+002, 1.733910e+002
9.978911e+002, 1.737966e+002
9.983732e+002, 1.739187e+002
9.988553e+002, 1.737710e+002
9.993374e+002, 1.737112e+002
9.998195e+002, 1.737551e+002
1.000302e+003, 1.739646e+002
1.000784e+003, 1.744158e+002
1.001266e+003, 1.750291e+002
1.001748e+003, 1.759225e+002
1.002230e+003, 1.770151e+002
1.002712e+003, 1.774898e+002
1.003194e+003, 1.767520e+002
1.003676e+003, 1.766658e+002
1.004159e+003, 1.778984e+002
1.004641e+003, 1.798059e+002
1.005123e+003, 1.811933e+002
1.005605e+003, 1.821705e+002
1.006087e+003, 1.830400e+002
1.006569e+003, 1.837607e+002
1.007051e+003, 1.847679e+002
1.007533e+003, 1.864752e+002
1.008016e+003, 1.884600e+002
1.008498e+003, 1.903670e+002
1.008980e+003, 1.921755e+002
1.009462e+003, 1.939930e+002
1.009944e+003, 1.958559e+002
1.010426e+003, 1.975909e+002
1.010908e+003, 1.989101e+002
1.011390e+003, 2.001063e+002
1.011872e+003, 2.016216e+002
1.012355e+003, 2.033861e+002
1.012837e+003, 2.050718e+002
1.013319e+003, 2.066248e+002
1.013801e+003, 2.080391e+002
1.014283e+003, 2.093657e+002
1.014765e+003, 2.105052e+002
1.015247e+003, 2.112164e+002
1.015729e+003, 2.115567e+002
1.016211e+003, 2.119828e+002
1.016694e+003, 2.126452e+002
1.017176e+003, 2.130854e+002
1.017658e+003, 2.128312e+002
1.018140e+003, 2.122551e+002
1.018622e+003, 2.117175e+002
1.019104e+003, 2.113031e+002
1.019586e+003, 2.105148e+002
1.020068e+003, 2.092340e+002
1.020551e+003, 2.079858e+002
1.021033e+003, 2.071299e+002
1.021515e+003, 2.064466e+002
1.021997e+003, 2.054781e+002
1.022479e+003, 2.042769e+002
1.022961e+003, 2.030067e+002
1.023443e+003, 2.015255e+002
1.023925e+003, 2.002483e+002
1.024407e+003, 1.994331e+002
1.024890e+003, 1.987797e+002
1.025372e+003, 1.979203e+002
1.025854e+003, 1.968550e+002
1.026336e+003, 1.957321e+002
1.026818e+003, 1.945430e+002
1.027300e+003, 1.934975e+002
1.027782e+003, 1.927896e+002
1.028264e+003, 1.922927e+002
1.028746e+003, 1.919783e+002
1.029229e+003, 1.918355e+002
1.029711e+003, 1.914330e+002
1.030193e+003, 1.906462e+002
1.030675e+003, 1.898029e+002
1.031157e+003, 1.889185e+002
1.031639e+003, 1.881496e+002
1.032121e+003, 1.879510e+002
1.032603e+003, 1.881618e+002
1.033086e+003, 1.882832e+002
1.033568e+003, 1.881231e+002
1.034050e+003, 1.879245e+002
1.034532e+003, 1.877611e+002
1.035014e+003, 1.876391e+002
1.035496e+003, 1.875945e+002
1.035978e+003, 1.876698e+002
1.036460e+003, 1.874891e+002
1.036943e+003, 1.870394e+002
1.037425e+003, 1.865958e+002
1.037907e+003, 1.863196e+002
1.038389e+003, 1.861869e+002
1.038871e+003, 1.862105e+002
1.039353e+003, 1.863632e+002
1.039835e+003, 1.865564e+002
1.040317e+003, 1.870038e+002
1.040799e+003, 1.870289e+002
1.041281e+003, 1.862954e+002
1.041764e+003, 1.854624e+002
1.042246e+003, 1.857101e+002
1.042728e+003, 1.867378e+002
1.043210e+003, 1.876342e+002
1.043692e+003, 1.882732e+002
1.044174e+003, 1.885910e+002
1.044656e+003, 1.880985e+002
1.045138e+003, 1.876966e+002
1.045621e+003, 1.880948e+002
1.046103e+003, 1.892077e+002
1.046585e+003, 1.897621e+002
1.047067e+003, 1.897073e+002
1.047549e+003, 1.897701e+002
1.048031e+003, 1.902472e+002
1.048513e+003, 1.910381e+002
1.048995e+003, 1.921633e+002
1.049478e+003, 1.934743e+002
1.049960e+003, 1.947181e+002
1.050442e+003, 1.955777e+002
1.050924e+003, 1.967863e+002
1.051406e+003, 1.984854e+002
1.051888e+003, 2.003179e+002
1.052370e+003, 2.019793e+002
1.052852e+003, 2.035249e+002
1.053334e+003, 2.050788e+002
1.053817e+003, 2.066682e+002
1.054299e+003, 2.084705e+002
1.054781e+003, 2.110611e+002
1.055263e+003, 2.133750e+002
1.055745e+003, 2.147773e+002
1.056227e+003, 2.156161e+002
1.056709e+003, 2.167501e+002
1.057191e+003, 2.182177e+002
1.057673e+003, 2.191922e+002
1.058156e+003, 2.194627e+002
1.058638e+003, 2.193685e+002
1.059120e+003, 2.194209e+002
1.059602e+003, 2.192095e+002
1.060084e+003, 2.182939e+002
1.060566e+003, 2.165492e+002
1.061048e+003, 2.142323e+002
1.061530e+003, 2.112927e+002
1.062013e+003, 2.079461e+002
1.062495e+003, 2.041436e+002
1.062977e+003, 2.001235e+002
1.063459e+003, 1.964009e+002
1.063941e+003, 1.929007e+002
1.064423e+003, 1.893039e+002
1.064905e+003, 1.853159e+002
1.065387e+003, 1.814471e+002
1.065870e+003, 1.777281e+002
1.066352e+003, 1.743475e+002
1.066834e+003, 1.716150e+002
1.067316e+003, 1.695600e+002
1.067798e+003, 1.668766e+002
1.068280e+003, 1.635103e+002
1.068762e+003, 1.605165e+002
1.069244e+003, 1.589213e+002
1.069726e+003, 1.577335e+002
1.070208e+003, 1.561790e+002
1.070691e+003, 1.543540e+002
1.071173e+003, 1.528643e+002
1.071655e+003, 1.517053e+002
1.072137e+003, 1.509472e+002
1.072619e+003, 1.506856e+002
1.073101e+003, 1.505609e+002
1.073583e+003, 1.500375e+002
1.074065e+003, 1.493405e+002
1.074548e+003, 1.488001e+002
1.075030e+003, 1.484698e+002
1.075512e+003, 1.483494e+002
1.075994e+003, 1.485373e+002
1.076476e+003, 1.488250e+002
1.076958e+003, 1.491949e+002
1.077440e+003, 1.495765e+002
1.077922e+003, 1.496199e+002
1.078405e+003, 1.494076e+002
1.078887e+003, 1.493181e+002
1.079369e+003, 1.493816e+002
1.079851e+003, 1.498158e+002
1.080333e+003, 1.511507e+002
1.080815e+003, 1.526707e+002
1.081297e+003, 1.535441e+002
1.081779e+003, 1.536308e+002
1.082261e+003, 1.538882e+002
1.082744e+003, 1.543277e+002
1.083226e+003, 1.548192e+002
1.083708e+003, 1.553457e+002
1.084190e+003, 1.558148e+002
1.084672e+003, 1.560365e+002
1.085154e+003, 1.561104e+002
1.085636e+003, 1.564105e+002
1.086118e+003, 1.573706e+002
1.086601e+003, 1.576918e+002
1.087083e+003, 1.570343e+002
1.087565e+003, 1.561465e+002
1.088047e+003, 1.561462e+002
1.088529e+003, 1.565767e+002
1.089011e+003, 1.564249e+002
1.089493e+003, 1.555817e+002
1.089975e+003, 1.546927e+002
1.090458e+003, 1.542120e+002
1.090940e+003, 1.535014e+002
1.091422e+003, 1.523256e+002
1.091904e+003, 1.507705e+002
1.092386e+003, 1.490361e+002
1.092868e+003, 1.471610e+002
1.093350e+003, 1.454414e+002
1.093832e+003, 1.439826e+002
1.094314e+003, 1.426326e+002
1.094797e+003, 1.414651e+002
1.095279e+003, 1.402310e+002
1.095761e+003, 1.386206e+002
1.096243e+003, 1.366249e+002
1.096725e+003, 1.348913e+002
1.097207e+003, 1.334306e+002
1.097689e+003, 1.321280e+002
1.098171e+003, 1.310375e+002
1.098653e+003, 1.299547e+002
1.099136e+003, 1.285106e+002
1.099618e+003, 1.269165e+002
1.100100e+003, 1.255618e+002
1.100582e+003, 1.246565e+002
1.101064e+003, 1.237802e+002
1.101546e+003, 1.229352e+002
1.102028e+003, 1.220741e+002
1.102510e+003, 1.209665e+002
1.102993e+003, 1.198629e+002
1.103475e+003, 1.194701e+002
1.103957e+003, 1.196744e+002
1.104439e+003, 1.196419e+002
1.104921e+003, 1.187790e+002
1.105403e+003, 1.179530e+002
1.105885e+003, 1.174042e+002
1.106367e+003, 1.169932e+002
1.106849e+003, 1.164684e+002
1.107332e+003, 1.158659e+002
1.107814e+003, 1.154122e+002
1.108296e+003, 1.151535e+002
1.108778e+003, 1.148261e+002
1.109260e+003, 1.139431e+002
1.109742e+003, 1.132391e+002
1.110224e+003, 1.135191e+002
1.110706e+003, 1.144284e+002
1.111188e+003, 1.138447e+002
1.111671e+003, 1.117222e+002
1.112153e+003, 1.100331e+002
1.112635e+003, 1.095026e+002
1.113117e+003, 1.093410e+002
1.113599e+003, 1.089295e+002
1.114081e+003, 1.083433e+002
1.114563e+003, 1.076311e+002
1.115045e+003, 1.067268e+002
1.115528e+003, 1.060947e+002
1.116010e+003, 1.057774e+002
1.116492e+003, 1.055331e+002
1.116974e+003, 1.052680e+002
1.117456e+003, 1.049558e+002
1.117938e+003, 1.045152e+002
1.118420e+003, 1.040012e+002
1.118902e+003, 1.035301e+002
1.119385e+003, 1.032753e+002
1.119867e+003, 1.028245e+002
1.120349e+003, 1.020504e+002
1.120831e+003, 1.012981e+002
1.121313e+003, 1.009142e+002
1.121795e+003, 1.008038e+002
1.122277e+003, 1.007264e+002
1.122759e+003, 1.006598e+002
1.123241e+003, 1.005358e+002
1.123724e+003, 1.002700e+002
1.124206e+003, 1.000098e+002
1.124688e+003, 9.984209e+001
1.125170e+003, 9.965890e+001
1.125652e+003, 9.917111e+001
1.126134e+003, 9.846682e+001
1.126616e+003, 9.829427e+001
1.127098e+003, 9.875760e+001
1.127580e+003, 9.913387e+001
1.128063e+003, 9.873972e+001
1.128545e+003, 9.829216e+001
1.129027e+003, 9.840231e+001
1.129509e+003, 9.882014e+001
1.129991e+003, 9.854160e+001
1.130473e+003, 9.754667e+001
1.130955e+003, 9.684843e+001
1.131437e+003, 9.675065e+001
1.131920e+003, 9.682768e+001
1.132402e+003, 9.662126e+001
1.132884e+003, 9.642457e+001
1.133366e+003, 9.654578e+001
1.133848e+003, 9.701980e+001
1.134330e+003, 9.768565e+001
1.134812e+003, 9.867331e+001
1.135294e+003, 9.910497e+001
1.135776e+003, 9.842210e+001
1.136259e+003, 9.727190e+001
1.136741e+003, 9.629174e+001
1.137223e+003, 9.551384e+001
1.137705e+003, 9.496093e+001
1.138187e+003, 9.459789e+001
1.138669e+003, 9.469284e+001
1.139151e+003, 9.545068e+001
1.139633e+003, 9.613280e+001
1.140115e+003, 9.622229e+001
1.140598e+003, 9.590292e+001
1.141080e+003, 9.535909e+001
1.141562e+003, 9.473412e+001
1.142044e+003, 9.441305e+001
1.142526e+003, 9.495933e+001
1.143008e+003, 9.520235e+001
1.143490e+003, 9.492774e+001
1.143972e+003, 9.446838e+001
1.144455e+003, 9.408944e+001
1.144937e+003, 9.380711e+001
1.145419e+003, 9.371235e+001
1.145901e+003, 9.378468e+001
1.146383e+003, 9.384910e+001
1.146865e+003, 9.379345e+001
1.147347e+003, 9.374631e+001
1.147829e+003, 9.372034e+001
1.148312e+003, 9.374670e+001
1.148794e+003, 9.395885e+001
1.149276e+003, 9.429855e+001
1.149758e+003, 9.428505e+001
1.150240e+003, 9.385678e+001
1.150722e+003, 9.351208e+001
1.151204e+003, 9.370627e+001
1.151686e+003, 9.393456e+001
1.152168e+003, 9.388454e+001
1.152651e+003, 9.366154e+001
1.153133e+003, 9.358981e+001
1.153615e+003, 9.366086e+001
1.154097e+003, 9.364767e+001
1.154579e+003, 9.347166e+001
1.155061e+003, 9.335159e+001
1.155543e+003, 9.349461e+001
1.156025e+003, 9.374564e+001
1.156507e+003, 9.409596e+001
1.156990e+003, 9.449470e+001
1.157472e+003, 9.424927e+001
1.157954e+003, 9.329446e+001
1.158436e+003, 9.275432e+001
1.158918e+003, 9.316573e+001
1.159400e+003, 9.376338e+001
1.159882e+003, 9.375750e+001
1.160364e+003, 9.351453e+001
1.160847e+003, 9.348952e+001
1.161329e+003, 9.378242e+001
1.161811e+003, 9.386084e+001
1.162293e+003, 9.369691e+001
1.162775e+003, 9.348048e+001
1.163257e+003, 9.323724e+001
1.163739e+003, 9.307977e+001
1.164221e+003, 9.325645e+001
1.164703e+003, 9.357973e+001
1.165186e+003, 9.372771e+001
1.165668e+003, 9.353799e+001
1.166150e+003, 9.342693e+001
1.166632e+003, 9.343826e+001
1.167114e+003, 9.336863e+001
1.167596e+003, 9.291277e+001
1.168078e+003, 9.237828e+001
1.168560e+003, 9.237180e+001
1.169042e+003, 9.270175e+001
1.169525e+003, 9.285556e+001
1.170007e+003, 9.247051e+001
1.170489e+003, 9.230063e+001
1.170971e+003, 9.244788e+001
1.171453e+003, 9.264937e+001
1.171935e+003, 9.264384e+001
1.172417e+003, 9.251875e+001
1.172899e+003, 9.243922e+001
1.173382e+003, 9.240200e+001
1.173864e+003, 9.235584e+001
1.174346e+003, 9.229978e+001
1.174828e+003, 9.219531e+001
1.175310e+003, 9.199342e+001
1.175792e+003, 9.182061e+001
1.176274e+003, 9.190820e+001
1.176756e+003, 9.213005e+001
1.177239e+003, 9.221986e+001
1.177721e+003, 9.214919e+001
1.178203e+003, 9.191325e+001
1.178685e+003, 9.109692e+001
1.179167e+003, 9.070811e+001
1.179649e+003, 9.117820e+001
1.180131e+003, 9.193474e+001
1.180613e+003, 9.185400e+001
1.181095e+003, 9.122062e+001
1.181578e+003, 9.088114e+001
1.182060e+003, 9.097175e+001
1.182542e+003, 9.108813e+001
1.183024e+003, 9.103743e+001
1.183506e+003, 9.100979e+001
1.183988e+003, 9.112375e+001
1.184470e+003, 9.126271e+001
1.184952e+003, 9.104358e+001
1.185434e+003, 9.058778e+001
1.185917e+003, 9.036485e+001
1.186399e+003, 9.055010e+001
1.186881e+003, 9.061909e+001
1.187363e+003, 9.007250e+001
1.187845e+003, 8.962247e+001
1.188327e+003, 8.963956e+001
1.188809e+003, 9.000297e+001
1.189291e+003, 9.030123e+001
1.189774e+003, 9.053957e+001
1.190256e+003, 9.076949e+001
1.190738e+003, 9.106210e+001
1.191220e+003, 9.118640e+001
1.191702e+003, 9.092321e+001
1.192184e+003, 9.054444e+001
1.192666e+003, 9.017071e+001
1.193148e+003, 8.983041e+001
1.193630e+003, 8.978043e+001
1.194113e+003, 8.996819e+001
1.194595e+003, 9.007651e+001
1.195077e+003, 8.988554e+001
1.195559e+003, 8.975486e+001
1.196041e+003, 9.000706e+001
1.196523e+003, 9.026499e+001
1.197005e+003, 9.011707e+001
1.197487e+003, 8.962139e+001
1.197969e+003, 9.002796e+001
1.198452e+003, 9.117798e+001
1.198934e+003, 9.187990e+001
1.199416e+003, 9.111903e+001
1.199898e+003, 9.026201e+001
1.200380e+003, 8.993922e+001
1.200862e+003, 8.985097e+001
1.201344e+003, 8.971620e+001
1.201826e+003, 8.953421e+001
1.202309e+003, 8.938821e+001
1.202791e+003, 8.928954e+001
1.203273e+003, 8.936400e+001
1.203755e+003, 8.997993e+001
1.204237e+003, 9.045139e+001
1.204719e+003, 9.019309e+001
1.205201e+003, 8.974325e+001
1.205683e+003, 8.983027e+001
1.206166e+003, 9.043730e+001
1.206648e+003, 9.054249e+001
1.207130e+003, 9.013217e+001
1.207612e+003, 8.969312e+001
1.208094e+003, 8.949495e+001
1.208576e+003, 8.940215e+001
1.209058e+003, 8.943467e+001
1.209540e+003, 8.948096e+001
1.210022e+003, 8.932442e+001
1.210505e+003, 8.897932e+001
1.210987e+003, 8.895040e+001
1.211469e+003, 8.926724e+001
1.211951e+003, 8.962094e+001
1.212433e+003, 8.991281e+001
1.212915e+003, 9.007268e+001
1.213397e+003, 8.997529e+001
1.213879e+003, 8.976487e+001
1.214361e+003, 8.967356e+001
1.214844e+003, 8.969421e+001
1.215326e+003, 8.972999e+001
1.215808e+003, 8.977078e+001
1.216290e+003, 8.973185e+001
1.216772e+003, 8.939511e+001
1.217254e+003, 8.913784e+001
1.217736e+003, 8.928488e+001
1.218218e+003, 8.958901e+001
1.218701e+003, 8.946526e+001
1.219183e+003, 8.896480e+001
1.219665e+003, 8.870042e+001
1.220147e+003, 8.877225e+001
1.220629e+003, 8.893239e+001
1.221111e+003, 8.916599e+001
1.221593e+003, 8.928240e+001
1.222075e+003, 8.914403e+001
1.222557e+003, 8.884348e+001
1.223040e+003, 8.855930e+001
1.223522e+003, 8.830702e+001
1.224004e+003, 8.826736e+001
1.224486e+003, 8.850035e+001
1.224968e+003, 8.862761e+001
1.225450e+003, 8.825362e+001
1.225932e+003, 8.789297e+001
1.226414e+003, 8.785955e+001
1.226896e+003, 8.800925e+001
1.227379e+003, 8.783647e+001
1.227861e+003, 8.742639e+001
1.228343e+003, 8.726289e+001
1.228825e+003, 8.749157e+001
1.229307e+003, 8.770637e+001
1.229789e+003, 8.765365e+001
1.230271e+003, 8.755415e+001
1.230753e+003, 8.750851e+001
1.231236e+003, 8.750828e+001
1.231718e+003, 8.757864e+001
1.232200e+003, 8.767761e+001
1.232682e+003, 8.758965e+001
1.233164e+003, 8.719816e+001
1.233646e+003, 8.692714e+001
1.234128e+003, 8.706873e+001
1.234610e+003, 8.729947e+001
1.235093e+003, 8.750867e+001
1.235575e+003, 8.766990e+001
1.236057e+003, 8.770875e+001
1.236539e+003, 8.762252e+001
1.237021e+003, 8.733576e+001
1.237503e+003, 8.670503e+001
1.237985e+003, 8.635868e+001
1.238467e+003, 8.679023e+001
1.238949e+003, 8.726357e+001
1.239432e+003, 8.752859e+001
1.239914e+003, 8.755643e+001
1.240396e+003, 8.702979e+001
1.240878e+003, 8.620646e+001
1.241360e+003, 8.587599e+001
1.241842e+003, 8.648281e+001
1.242324e+003, 8.685232e+001
1.242806e+003, 8.650196e+001
1.243288e+003, 8.624779e+001
1.243771e+003, 8.662099e+001
1.244253e+003, 8.725967e+001
1.244735e+003, 8.718190e+001
1.245217e+003, 8.663609e+001
1.245699e+003, 8.621309e+001
1.246181e+003, 8.612609e+001
1.246663e+003, 8.602738e+001
1.247145e+003, 8.584293e+001
1.247628e+003, 8.570712e+001
1.248110e+003, 8.571952e+001
1.248592e+003, 8.580021e+001
1.249074e+003, 8.583427e+001
1.249556e+003, 8.579481e+001
1.250038e+003, 8.561180e+001
1.250520e+003, 8.515888e+001
1.251002e+003, 8.483442e+001
1.251484e+003, 8.463966e+001
1.251967e+003, 8.461996e+001
1.252449e+003, 8.489686e+001
1.252931e+003, 8.526262e+001
1.253413e+003, 8.545206e+001
1.253895e+003, 8.547015e+001
1.254377e+003, 8.528913e+001
1.254859e+003, 8.473923e+001
1.255341e+003, 8.448636e+001
1.255823e+003, 8.458073e+001
1.256306e+003, 8.473627e+001
1.256788e+003, 8.483115e+001
1.257270e+003, 8.484438e+001
1.257752e+003, 8.458565e+001
1.258234e+003, 8.429274e+001
1.258716e+003, 8.442002e+001
1.259198e+003, 8.519385e+001
1.259680e+003, 8.551173e+001
1.260163e+003, 8.533880e+001
1.260645e+003, 8.505720e+001
1.261127e+003, 8.483370e+001
1.261609e+003, 8.465935e+001
1.262091e+003, 8.462859e+001
1.262573e+003, 8.458435e+001
1.263055e+003, 8.426365e+001
1.263537e+003, 8.358611e+001
1.264020e+003, 8.323238e+001
1.264502e+003, 8.319762e+001
1.264984e+003, 8.335802e+001
1.265466e+003, 8.379927e+001
1.265948e+003, 8.421157e+001
1.266430e+003, 8.450843e+001
1.266912e+003, 8.456716e+001
1.267394e+003, 8.415977e+001
1.267876e+003, 8.327849e+001
1.268359e+003, 8.301130e+001
1.268841e+003, 8.330077e+001
1.269323e+003, 8.363094e+001
1.269805e+003, 8.372026e+001
1.270287e+003, 8.379411e+001
1.270769e+003, 8.404276e+001
1.271251e+003, 8.423448e+001
1.271733e+003, 8.414198e+001
1.272215e+003, 8.380953e+001
1.272698e+003, 8.359824e+001
1.273180e+003, 8.349068e+001
1.273662e+003, 8.341241e+001
1.274144e+003, 8.324036e+001
1.274626e+003, 8.324202e+001
1.275108e+003, 8.361156e+001
1.275590e+003, 8.394765e+001
1.276072e+003, 8.389616e+001
1.276555e+003, 8.356400e+001
1.277037e+003, 8.319799e+001
1.277519e+003, 8.286562e+001
1.278001e+003, 8.276400e+001
1.278483e+003, 8.324635e+001
1.278965e+003, 8.351833e+001
1.279447e+003, 8.347965e+001
1.279929e+003, 8.335528e+001
1.280411e+003, 8.330418e+001
1.280894e+003, 8.328974e+001
1.281376e+003, 8.319518e+001
1.281858e+003, 8.309159e+001
1.282340e+003, 8.314748e+001
1.282822e+003, 8.357677e+001
1.283304e+003, 8.377480e+001
1.283786e+003, 8.370268e+001
1.284268e+003, 8.359370e+001
1.284750e+003, 8.358511e+001
1.285233e+003, 8.364550e+001
1.285715e+003, 8.384010e+001
1.286197e+003, 8.403843e+001
1.286679e+003, 8.397371e+001
1.287161e+003, 8.352448e+001
1.287643e+003, 8.334123e+001
1.288125e+003, 8.343272e+001
1.288607e+003, 8.354617e+001
1.289090e+003, 8.357406e+001
1.289572e+003, 8.350668e+001
1.290054e+003, 8.316459e+001
1.290536e+003, 8.283764e+001
1.291018e+003, 8.295381e+001
1.291500e+003, 8.354469e+001
1.291982e+003, 8.353721e+001
1.292464e+003, 8.299717e+001
1.292947e+003, 8.252039e+001
1.293429e+003, 8.239519e+001
1.293911e+003, 8.243042e+001
1.294393e+003, 8.261823e+001
1.294875e+003, 8.288026e+001
1.295357e+003, 8.321219e+001
1.295839e+003, 8.357408e+001
1.296321e+003, 8.376347e+001
1.296803e+003, 8.379702e+001
1.297286e+003, 8.371798e+001
1.297768e+003, 8.344663e+001
1.298250e+003, 8.322582e+001
1.298732e+003, 8.307255e+001
1.299214e+003, 8.300919e+001
1.299696e+003, 8.309692e+001
1.300178e+003, 8.324600e+001
1.300660e+003, 8.332111e+001
##END=



