##NAMES=Wolfeite
##RRUFFID=R140864
##IDEAL CHEMISTRY=Fe^2+^_2_PO_4_(OH)
##LOCALITY=Hagendorf, Waidhaus, Vohenstrauß, Oberpfälzer Wald, Upper Palatinate, Bavaria, Germany
##OWNER=RRUFF
##SOURCE=Rock Currier
##DESCRIPTION=Reddish brown, vitreous, bladed crystalline aggregates in parallel growth with dark brown triplite and bluish vivianite.
##STATUS=The identification of this mineral has been confirmed only by single crystal X-ray diffraction.
##URL=rruff.info/R140864
8.806445e+001, 5.449208e+002
8.854657e+001, 5.434597e+002
8.902869e+001, 5.429789e+002
8.951080e+001, 5.443279e+002
8.999292e+001, 5.462841e+002
9.047504e+001, 5.475211e+002
9.095715e+001, 5.476260e+002
9.143927e+001, 5.472997e+002
9.192139e+001, 5.473557e+002
9.240350e+001, 5.477097e+002
9.288562e+001, 5.486404e+002
9.336774e+001, 5.475858e+002
9.384985e+001, 5.407501e+002
9.433197e+001, 5.258291e+002
9.481409e+001, 5.088251e+002
9.529620e+001, 4.904091e+002
9.577832e+001, 4.736216e+002
9.626044e+001, 4.588103e+002
9.674255e+001, 4.457666e+002
9.722467e+001, 4.343927e+002
9.770679e+001, 4.250032e+002
9.818890e+001, 4.157974e+002
9.867102e+001, 4.061032e+002
9.915314e+001, 3.964080e+002
9.963525e+001, 3.868684e+002
1.001174e+002, 3.774879e+002
1.005995e+002, 3.684434e+002
1.010816e+002, 3.604132e+002
1.015637e+002, 3.535709e+002
1.020458e+002, 3.475308e+002
1.025280e+002, 3.423757e+002
1.030101e+002, 3.378833e+002
1.034922e+002, 3.336281e+002
1.039743e+002, 3.292470e+002
1.044564e+002, 3.247318e+002
1.049385e+002, 3.219786e+002
1.054207e+002, 3.225424e+002
1.059028e+002, 3.230513e+002
1.063849e+002, 3.218198e+002
1.068670e+002, 3.187700e+002
1.073491e+002, 3.146203e+002
1.078312e+002, 3.094339e+002
1.083134e+002, 3.033534e+002
1.087955e+002, 2.988079e+002
1.092776e+002, 2.968647e+002
1.097597e+002, 2.963926e+002
1.102418e+002, 2.959547e+002
1.107239e+002, 2.955553e+002
1.112061e+002, 2.946825e+002
1.116882e+002, 2.926664e+002
1.121703e+002, 2.897313e+002
1.126524e+002, 2.868559e+002
1.131345e+002, 2.845502e+002
1.136166e+002, 2.827944e+002
1.140988e+002, 2.813664e+002
1.145809e+002, 2.806331e+002
1.150630e+002, 2.799047e+002
1.155451e+002, 2.786994e+002
1.160272e+002, 2.770301e+002
1.165093e+002, 2.753696e+002
1.169915e+002, 2.743579e+002
1.174736e+002, 2.743214e+002
1.179557e+002, 2.740862e+002
1.184378e+002, 2.731019e+002
1.189199e+002, 2.722014e+002
1.194020e+002, 2.719567e+002
1.198842e+002, 2.725579e+002
1.203663e+002, 2.738084e+002
1.208484e+002, 2.752806e+002
1.213305e+002, 2.777508e+002
1.218126e+002, 2.795141e+002
1.222947e+002, 2.807816e+002
1.227769e+002, 2.812544e+002
1.232590e+002, 2.803816e+002
1.237411e+002, 2.777630e+002
1.242232e+002, 2.738094e+002
1.247053e+002, 2.703405e+002
1.251874e+002, 2.673173e+002
1.256696e+002, 2.646721e+002
1.261517e+002, 2.624493e+002
1.266338e+002, 2.606109e+002
1.271159e+002, 2.589722e+002
1.275980e+002, 2.575992e+002
1.280801e+002, 2.562997e+002
1.285623e+002, 2.545042e+002
1.290444e+002, 2.515974e+002
1.295265e+002, 2.486050e+002
1.300086e+002, 2.466392e+002
1.304907e+002, 2.458843e+002
1.309728e+002, 2.452640e+002
1.314550e+002, 2.440136e+002
1.319371e+002, 2.424664e+002
1.324192e+002, 2.410768e+002
1.329013e+002, 2.401056e+002
1.333834e+002, 2.394076e+002
1.338655e+002, 2.385345e+002
1.343477e+002, 2.373262e+002
1.348298e+002, 2.361743e+002
1.353119e+002, 2.354300e+002
1.357940e+002, 2.348614e+002
1.362761e+002, 2.340340e+002
1.367582e+002, 2.325562e+002
1.372404e+002, 2.304163e+002
1.377225e+002, 2.284556e+002
1.382046e+002, 2.271440e+002
1.386867e+002, 2.256174e+002
1.391688e+002, 2.236673e+002
1.396509e+002, 2.212557e+002
1.401331e+002, 2.183766e+002
1.406152e+002, 2.148820e+002
1.410973e+002, 2.103940e+002
1.415794e+002, 2.068120e+002
1.420615e+002, 2.045741e+002
1.425436e+002, 2.027057e+002
1.430258e+002, 2.006253e+002
1.435079e+002, 1.982286e+002
1.439900e+002, 1.957263e+002
1.444721e+002, 1.933417e+002
1.449542e+002, 1.908927e+002
1.454363e+002, 1.892026e+002
1.459185e+002, 1.886674e+002
1.464006e+002, 1.887594e+002
1.468827e+002, 1.889234e+002
1.473648e+002, 1.890170e+002
1.478469e+002, 1.890750e+002
1.483290e+002, 1.891046e+002
1.488112e+002, 1.890603e+002
1.492933e+002, 1.892005e+002
1.497754e+002, 1.897161e+002
1.502575e+002, 1.905012e+002
1.507396e+002, 1.912883e+002
1.512217e+002, 1.921050e+002
1.517039e+002, 1.927366e+002
1.521860e+002, 1.929462e+002
1.526681e+002, 1.927007e+002
1.531502e+002, 1.923176e+002
1.536323e+002, 1.922415e+002
1.541144e+002, 1.925072e+002
1.545966e+002, 1.920730e+002
1.550787e+002, 1.902749e+002
1.555608e+002, 1.878285e+002
1.560429e+002, 1.850663e+002
1.565250e+002, 1.820300e+002
1.570071e+002, 1.789405e+002
1.574893e+002, 1.760395e+002
1.579714e+002, 1.732457e+002
1.584535e+002, 1.709050e+002
1.589356e+002, 1.691591e+002
1.594177e+002, 1.677643e+002
1.598998e+002, 1.666380e+002
1.603820e+002, 1.657483e+002
1.608641e+002, 1.649593e+002
1.613462e+002, 1.639294e+002
1.618283e+002, 1.622698e+002
1.623104e+002, 1.609260e+002
1.627925e+002, 1.602037e+002
1.632747e+002, 1.597410e+002
1.637568e+002, 1.591113e+002
1.642389e+002, 1.581011e+002
1.647210e+002, 1.568418e+002
1.652031e+002, 1.558951e+002
1.656852e+002, 1.558705e+002
1.661674e+002, 1.554695e+002
1.666495e+002, 1.541196e+002
1.671316e+002, 1.522756e+002
1.676137e+002, 1.507769e+002
1.680958e+002, 1.501481e+002
1.685779e+002, 1.502187e+002
1.690601e+002, 1.498730e+002
1.695422e+002, 1.489049e+002
1.700243e+002, 1.478354e+002
1.705064e+002, 1.467921e+002
1.709885e+002, 1.457970e+002
1.714706e+002, 1.449070e+002
1.719528e+002, 1.441610e+002
1.724349e+002, 1.435652e+002
1.729170e+002, 1.430480e+002
1.733991e+002, 1.425710e+002
1.738812e+002, 1.421973e+002
1.743633e+002, 1.420237e+002
1.748455e+002, 1.420548e+002
1.753276e+002, 1.420742e+002
1.758097e+002, 1.418818e+002
1.762918e+002, 1.416011e+002
1.767739e+002, 1.414663e+002
1.772560e+002, 1.416621e+002
1.777382e+002, 1.419295e+002
1.782203e+002, 1.418438e+002
1.787024e+002, 1.412794e+002
1.791845e+002, 1.407832e+002
1.796666e+002, 1.407006e+002
1.801487e+002, 1.408439e+002
1.806309e+002, 1.410104e+002
1.811130e+002, 1.411731e+002
1.815951e+002, 1.412701e+002
1.820772e+002, 1.411172e+002
1.825593e+002, 1.406023e+002
1.830414e+002, 1.399992e+002
1.835236e+002, 1.392558e+002
1.840057e+002, 1.385281e+002
1.844878e+002, 1.380433e+002
1.849699e+002, 1.379569e+002
1.854520e+002, 1.382181e+002
1.859341e+002, 1.385081e+002
1.864163e+002, 1.388850e+002
1.868984e+002, 1.392232e+002
1.873805e+002, 1.395940e+002
1.878626e+002, 1.399016e+002
1.883447e+002, 1.399397e+002
1.888268e+002, 1.394995e+002
1.893090e+002, 1.386127e+002
1.897911e+002, 1.383418e+002
1.902732e+002, 1.397835e+002
1.907553e+002, 1.407331e+002
1.912374e+002, 1.400342e+002
1.917195e+002, 1.383097e+002
1.922017e+002, 1.370727e+002
1.926838e+002, 1.375896e+002
1.931659e+002, 1.399833e+002
1.936480e+002, 1.411675e+002
1.941301e+002, 1.404614e+002
1.946122e+002, 1.395129e+002
1.950944e+002, 1.388833e+002
1.955765e+002, 1.386099e+002
1.960586e+002, 1.385837e+002
1.965407e+002, 1.387681e+002
1.970228e+002, 1.391705e+002
1.975049e+002, 1.393625e+002
1.979871e+002, 1.391326e+002
1.984692e+002, 1.388871e+002
1.989513e+002, 1.389698e+002
1.994334e+002, 1.393517e+002
1.999155e+002, 1.396326e+002
2.003976e+002, 1.394810e+002
2.008798e+002, 1.388891e+002
2.013619e+002, 1.382362e+002
2.018440e+002, 1.374078e+002
2.023261e+002, 1.366029e+002
2.028082e+002, 1.361006e+002
2.032903e+002, 1.359334e+002
2.037725e+002, 1.356616e+002
2.042546e+002, 1.349044e+002
2.047367e+002, 1.337653e+002
2.052188e+002, 1.325291e+002
2.057009e+002, 1.309839e+002
2.061830e+002, 1.294745e+002
2.066652e+002, 1.285635e+002
2.071473e+002, 1.283960e+002
2.076294e+002, 1.282832e+002
2.081115e+002, 1.277156e+002
2.085936e+002, 1.268949e+002
2.090757e+002, 1.261035e+002
2.095579e+002, 1.254055e+002
2.100400e+002, 1.248169e+002
2.105221e+002, 1.243892e+002
2.110042e+002, 1.241869e+002
2.114863e+002, 1.240020e+002
2.119685e+002, 1.237337e+002
2.124506e+002, 1.234131e+002
2.129327e+002, 1.230913e+002
2.134148e+002, 1.228170e+002
2.138969e+002, 1.225440e+002
2.143790e+002, 1.221121e+002
2.148612e+002, 1.213931e+002
2.153433e+002, 1.207216e+002
2.158254e+002, 1.202146e+002
2.163075e+002, 1.198224e+002
2.167896e+002, 1.194850e+002
2.172717e+002, 1.191886e+002
2.177539e+002, 1.189107e+002
2.182360e+002, 1.185584e+002
2.187181e+002, 1.181317e+002
2.192002e+002, 1.176161e+002
2.196823e+002, 1.169819e+002
2.201644e+002, 1.162718e+002
2.206466e+002, 1.155453e+002
2.211287e+002, 1.148417e+002
2.216108e+002, 1.141509e+002
2.220929e+002, 1.134198e+002
2.225750e+002, 1.124705e+002
2.230571e+002, 1.116869e+002
2.235393e+002, 1.112205e+002
2.240214e+002, 1.109464e+002
2.245035e+002, 1.106974e+002
2.249856e+002, 1.103791e+002
2.254677e+002, 1.099965e+002
2.259498e+002, 1.095838e+002
2.264320e+002, 1.090953e+002
2.269141e+002, 1.086255e+002
2.273962e+002, 1.081423e+002
2.278783e+002, 1.076946e+002
2.283604e+002, 1.073538e+002
2.288425e+002, 1.071642e+002
2.293247e+002, 1.071084e+002
2.298068e+002, 1.070890e+002
2.302889e+002, 1.071911e+002
2.307710e+002, 1.072309e+002
2.312531e+002, 1.070993e+002
2.317352e+002, 1.068856e+002
2.322174e+002, 1.067524e+002
2.326995e+002, 1.067930e+002
2.331816e+002, 1.069657e+002
2.336637e+002, 1.070889e+002
2.341458e+002, 1.071860e+002
2.346279e+002, 1.072193e+002
2.351101e+002, 1.071321e+002
2.355922e+002, 1.069754e+002
2.360743e+002, 1.068456e+002
2.365564e+002, 1.067881e+002
2.370385e+002, 1.067915e+002
2.375206e+002, 1.068257e+002
2.380028e+002, 1.069019e+002
2.384849e+002, 1.069835e+002
2.389670e+002, 1.071362e+002
2.394491e+002, 1.072883e+002
2.399312e+002, 1.072441e+002
2.404133e+002, 1.068662e+002
2.408955e+002, 1.063276e+002
2.413776e+002, 1.060148e+002
2.418597e+002, 1.059698e+002
2.423418e+002, 1.059902e+002
2.428239e+002, 1.059874e+002
2.433060e+002, 1.059848e+002
2.437882e+002, 1.060631e+002
2.442703e+002, 1.062857e+002
2.447524e+002, 1.065513e+002
2.452345e+002, 1.067275e+002
2.457166e+002, 1.068402e+002
2.461987e+002, 1.067854e+002
2.466809e+002, 1.064284e+002
2.471630e+002, 1.058474e+002
2.476451e+002, 1.052724e+002
2.481272e+002, 1.047033e+002
2.486093e+002, 1.042706e+002
2.490914e+002, 1.042153e+002
2.495736e+002, 1.045523e+002
2.500557e+002, 1.047236e+002
2.505378e+002, 1.043109e+002
2.510199e+002, 1.034461e+002
2.515020e+002, 1.026475e+002
2.519841e+002, 1.019466e+002
2.524663e+002, 1.014434e+002
2.529484e+002, 1.012716e+002
2.534305e+002, 1.013933e+002
2.539126e+002, 1.014714e+002
2.543947e+002, 1.012322e+002
2.548768e+002, 1.007570e+002
2.553590e+002, 1.004456e+002
2.558411e+002, 1.004095e+002
2.563232e+002, 1.004566e+002
2.568053e+002, 1.004920e+002
2.572874e+002, 1.005001e+002
2.577695e+002, 1.004238e+002
2.582516e+002, 1.002434e+002
2.587338e+002, 9.995323e+001
2.592159e+002, 9.947411e+001
2.596980e+002, 9.849812e+001
2.601801e+002, 9.780155e+001
2.606622e+002, 9.804843e+001
2.611443e+002, 9.885403e+001
2.616265e+002, 9.934969e+001
2.621086e+002, 9.883318e+001
2.625907e+002, 9.756693e+001
2.630728e+002, 9.680218e+001
2.635549e+002, 9.687421e+001
2.640370e+002, 9.695070e+001
2.645192e+002, 9.667480e+001
2.650013e+002, 9.617619e+001
2.654834e+002, 9.564834e+001
2.659655e+002, 9.515051e+001
2.664476e+002, 9.472653e+001
2.669297e+002, 9.458533e+001
2.674119e+002, 9.509482e+001
2.678940e+002, 9.526847e+001
2.683761e+002, 9.458750e+001
2.688582e+002, 9.352658e+001
2.693403e+002, 9.264384e+001
2.698224e+002, 9.220402e+001
2.703046e+002, 9.212540e+001
2.707867e+002, 9.224890e+001
2.712688e+002, 9.288803e+001
2.717509e+002, 9.314506e+001
2.722330e+002, 9.262421e+001
2.727151e+002, 9.179562e+001
2.731973e+002, 9.107590e+001
2.736794e+002, 9.062688e+001
2.741615e+002, 9.043514e+001
2.746436e+002, 9.051310e+001
2.751257e+002, 9.107887e+001
2.756078e+002, 9.148638e+001
2.760900e+002, 9.169077e+001
2.765721e+002, 9.171469e+001
2.770542e+002, 9.150830e+001
2.775363e+002, 9.107520e+001
2.780184e+002, 9.057382e+001
2.785005e+002, 9.027329e+001
2.789827e+002, 9.024650e+001
2.794648e+002, 9.027151e+001
2.799469e+002, 9.044396e+001
2.804290e+002, 9.058089e+001
2.809111e+002, 9.050110e+001
2.813932e+002, 9.020262e+001
2.818754e+002, 8.988272e+001
2.823575e+002, 8.983241e+001
2.828396e+002, 9.021964e+001
2.833217e+002, 9.038747e+001
2.838038e+002, 9.017677e+001
2.842859e+002, 8.991009e+001
2.847681e+002, 8.975225e+001
2.852502e+002, 8.971277e+001
2.857323e+002, 8.970726e+001
2.862144e+002, 8.963668e+001
2.866965e+002, 8.946670e+001
2.871786e+002, 8.943621e+001
2.876608e+002, 8.977967e+001
2.881429e+002, 9.003185e+001
2.886250e+002, 8.990837e+001
2.891071e+002, 8.950975e+001
2.895892e+002, 8.916079e+001
2.900714e+002, 8.914757e+001
2.905535e+002, 8.947830e+001
2.910356e+002, 8.959325e+001
2.915177e+002, 8.929591e+001
2.919998e+002, 8.899154e+001
2.924819e+002, 8.881960e+001
2.929641e+002, 8.871902e+001
2.934462e+002, 8.855211e+001
2.939283e+002, 8.822218e+001
2.944104e+002, 8.776071e+001
2.948925e+002, 8.737088e+001
2.953746e+002, 8.704975e+001
2.958568e+002, 8.681149e+001
2.963389e+002, 8.676192e+001
2.968210e+002, 8.676882e+001
2.973031e+002, 8.664149e+001
2.977852e+002, 8.628530e+001
2.982673e+002, 8.578032e+001
2.987495e+002, 8.536864e+001
2.992316e+002, 8.509682e+001
2.997137e+002, 8.486757e+001
3.001958e+002, 8.467167e+001
3.006779e+002, 8.451632e+001
3.011600e+002, 8.442760e+001
3.016422e+002, 8.440906e+001
3.021243e+002, 8.441231e+001
3.026064e+002, 8.435233e+001
3.030885e+002, 8.422073e+001
3.035706e+002, 8.402785e+001
3.040527e+002, 8.369219e+001
3.045349e+002, 8.335531e+001
3.050170e+002, 8.318237e+001
3.054991e+002, 8.317262e+001
3.059812e+002, 8.313143e+001
3.064633e+002, 8.280158e+001
3.069454e+002, 8.206078e+001
3.074276e+002, 8.145522e+001
3.079097e+002, 8.099910e+001
3.083918e+002, 8.064455e+001
3.088739e+002, 8.039688e+001
3.093560e+002, 8.023569e+001
3.098381e+002, 8.010505e+001
3.103203e+002, 7.994579e+001
3.108024e+002, 7.974940e+001
3.112845e+002, 7.968781e+001
3.117666e+002, 7.998833e+001
3.122487e+002, 8.017287e+001
3.127308e+002, 8.001411e+001
3.132130e+002, 7.960733e+001
3.136951e+002, 7.917189e+001
3.141772e+002, 7.884677e+001
3.146593e+002, 7.861504e+001
3.151414e+002, 7.837127e+001
3.156235e+002, 7.801140e+001
3.161057e+002, 7.775761e+001
3.165878e+002, 7.774641e+001
3.170699e+002, 7.783445e+001
3.175520e+002, 7.783892e+001
3.180341e+002, 7.767784e+001
3.185162e+002, 7.738074e+001
3.189984e+002, 7.701958e+001
3.194805e+002, 7.638006e+001
3.199626e+002, 7.597105e+001
3.204447e+002, 7.590532e+001
3.209268e+002, 7.600916e+001
3.214089e+002, 7.620776e+001
3.218911e+002, 7.645223e+001
3.223732e+002, 7.659184e+001
3.228553e+002, 7.636596e+001
3.233374e+002, 7.547247e+001
3.238195e+002, 7.497708e+001
3.243016e+002, 7.515343e+001
3.247838e+002, 7.545813e+001
3.252659e+002, 7.565704e+001
3.257480e+002, 7.567480e+001
3.262301e+002, 7.542796e+001
3.267122e+002, 7.476670e+001
3.271943e+002, 7.358295e+001
3.276765e+002, 7.292666e+001
3.281586e+002, 7.316909e+001
3.286407e+002, 7.349235e+001
3.291228e+002, 7.367421e+001
3.296049e+002, 7.369375e+001
3.300870e+002, 7.356234e+001
3.305692e+002, 7.326941e+001
3.310513e+002, 7.284948e+001
3.315334e+002, 7.257547e+001
3.320155e+002, 7.268177e+001
3.324976e+002, 7.267238e+001
3.329797e+002, 7.234518e+001
3.334619e+002, 7.190392e+001
3.339440e+002, 7.164439e+001
3.344261e+002, 7.169927e+001
3.349082e+002, 7.190784e+001
3.353904e+002, 7.186862e+001
3.358725e+002, 7.126208e+001
3.363546e+002, 7.091314e+001
3.368367e+002, 7.107963e+001
3.373188e+002, 7.134931e+001
3.378009e+002, 7.131847e+001
3.382831e+002, 7.093537e+001
3.387652e+002, 7.052858e+001
3.392473e+002, 7.059509e+001
3.397294e+002, 7.142722e+001
3.402115e+002, 7.180669e+001
3.406936e+002, 7.126321e+001
3.411758e+002, 7.074535e+001
3.416579e+002, 7.087945e+001
3.421400e+002, 7.151278e+001
3.426221e+002, 7.198884e+001
3.431042e+002, 7.168345e+001
3.435863e+002, 7.059837e+001
3.440685e+002, 6.995065e+001
3.445506e+002, 7.017078e+001
3.450327e+002, 7.042971e+001
3.455148e+002, 7.059618e+001
3.459969e+002, 7.067662e+001
3.464790e+002, 7.069085e+001
3.469612e+002, 7.064191e+001
3.474433e+002, 7.056810e+001
3.479254e+002, 7.060593e+001
3.484075e+002, 7.089355e+001
3.488896e+002, 7.106274e+001
3.493717e+002, 7.096379e+001
3.498539e+002, 7.079330e+001
3.503360e+002, 7.075668e+001
3.508181e+002, 7.090683e+001
3.513002e+002, 7.108298e+001
3.517823e+002, 7.100298e+001
3.522644e+002, 7.052790e+001
3.527466e+002, 7.025539e+001
3.532287e+002, 7.043900e+001
3.537108e+002, 7.064753e+001
3.541929e+002, 7.067433e+001
3.546750e+002, 7.051142e+001
3.551571e+002, 7.025209e+001
3.556393e+002, 6.994142e+001
3.561214e+002, 6.957946e+001
3.566035e+002, 6.934097e+001
3.570856e+002, 6.932231e+001
3.575677e+002, 6.932226e+001
3.580498e+002, 6.932272e+001
3.585320e+002, 6.928389e+001
3.590141e+002, 6.912942e+001
3.594962e+002, 6.879105e+001
3.599783e+002, 6.835235e+001
3.604604e+002, 6.804220e+001
3.609425e+002, 6.789792e+001
3.614247e+002, 6.779646e+001
3.619068e+002, 6.770936e+001
3.623889e+002, 6.764040e+001
3.628710e+002, 6.761089e+001
3.633531e+002, 6.762877e+001
3.638352e+002, 6.763205e+001
3.643174e+002, 6.751468e+001
3.647995e+002, 6.725606e+001
3.652816e+002, 6.708284e+001
3.657637e+002, 6.702796e+001
3.662458e+002, 6.708637e+001
3.667279e+002, 6.734480e+001
3.672101e+002, 6.775552e+001
3.676922e+002, 6.805367e+001
3.681743e+002, 6.799381e+001
3.686564e+002, 6.765188e+001
3.691385e+002, 6.737078e+001
3.696206e+002, 6.716277e+001
3.701028e+002, 6.701383e+001
3.705849e+002, 6.686053e+001
3.710670e+002, 6.675945e+001
3.715491e+002, 6.685003e+001
3.720312e+002, 6.732587e+001
3.725133e+002, 6.787017e+001
3.729955e+002, 6.797250e+001
3.734776e+002, 6.758189e+001
3.739597e+002, 6.723695e+001
3.744418e+002, 6.715987e+001
3.749239e+002, 6.725659e+001
3.754060e+002, 6.743330e+001
3.758882e+002, 6.771333e+001
3.763703e+002, 6.794340e+001
3.768524e+002, 6.794497e+001
3.773345e+002, 6.778896e+001
3.778166e+002, 6.778261e+001
3.782987e+002, 6.803698e+001
3.787809e+002, 6.838344e+001
3.792630e+002, 6.868163e+001
3.797451e+002, 6.893359e+001
3.802272e+002, 6.906205e+001
3.807093e+002, 6.888143e+001
3.811914e+002, 6.863660e+001
3.816736e+002, 6.869671e+001
3.821557e+002, 6.909930e+001
3.826378e+002, 6.953934e+001
3.831199e+002, 6.983042e+001
3.836020e+002, 6.997097e+001
3.840841e+002, 7.002234e+001
3.845663e+002, 6.985691e+001
3.850484e+002, 6.973273e+001
3.855305e+002, 6.986562e+001
3.860126e+002, 7.017316e+001
3.864947e+002, 7.037363e+001
3.869768e+002, 7.031942e+001
3.874590e+002, 7.015966e+001
3.879411e+002, 7.022221e+001
3.884232e+002, 7.054602e+001
3.889053e+002, 7.091253e+001
3.893874e+002, 7.132498e+001
3.898695e+002, 7.173564e+001
3.903517e+002, 7.207131e+001
3.908338e+002, 7.232419e+001
3.913159e+002, 7.257108e+001
3.917980e+002, 7.289065e+001
3.922801e+002, 7.329160e+001
3.927622e+002, 7.371783e+001
3.932444e+002, 7.418521e+001
3.937265e+002, 7.466006e+001
3.942086e+002, 7.508134e+001
3.946907e+002, 7.549194e+001
3.951728e+002, 7.600141e+001
3.956549e+002, 7.666830e+001
3.961371e+002, 7.748396e+001
3.966192e+002, 7.839237e+001
3.971013e+002, 7.950975e+001
3.975834e+002, 8.057841e+001
3.980655e+002, 8.163686e+001
3.985476e+002, 8.260531e+001
3.990298e+002, 8.333135e+001
3.995119e+002, 8.380183e+001
3.999940e+002, 8.423752e+001
4.004761e+002, 8.491603e+001
4.009582e+002, 8.582112e+001
4.014403e+002, 8.704740e+001
4.019225e+002, 8.880038e+001
4.024046e+002, 9.063142e+001
4.028867e+002, 9.238073e+001
4.033688e+002, 9.403357e+001
4.038509e+002, 9.562340e+001
4.043330e+002, 9.716610e+001
4.048152e+002, 9.868284e+001
4.052973e+002, 1.002840e+002
4.057794e+002, 1.019560e+002
4.062615e+002, 1.037546e+002
4.067436e+002, 1.056751e+002
4.072257e+002, 1.077199e+002
4.077079e+002, 1.098987e+002
4.081900e+002, 1.122219e+002
4.086721e+002, 1.146258e+002
4.091542e+002, 1.170485e+002
4.096363e+002, 1.195307e+002
4.101184e+002, 1.219153e+002
4.106006e+002, 1.242275e+002
4.110827e+002, 1.263889e+002
4.115648e+002, 1.282805e+002
4.120469e+002, 1.299723e+002
4.125290e+002, 1.316791e+002
4.130111e+002, 1.336936e+002
4.134933e+002, 1.358059e+002
4.139754e+002, 1.372904e+002
4.144575e+002, 1.379899e+002
4.149396e+002, 1.384754e+002
4.154217e+002, 1.388771e+002
4.159038e+002, 1.392705e+002
4.163860e+002, 1.397898e+002
4.168681e+002, 1.405373e+002
4.173502e+002, 1.411848e+002
4.178323e+002, 1.414029e+002
4.183144e+002, 1.412207e+002
4.187965e+002, 1.408756e+002
4.192787e+002, 1.404192e+002
4.197608e+002, 1.398173e+002
4.202429e+002, 1.390527e+002
4.207250e+002, 1.381344e+002
4.212071e+002, 1.370371e+002
4.216892e+002, 1.358324e+002
4.221714e+002, 1.343995e+002
4.226535e+002, 1.325269e+002
4.231356e+002, 1.301986e+002
4.236177e+002, 1.276950e+002
4.240998e+002, 1.251871e+002
4.245819e+002, 1.226433e+002
4.250641e+002, 1.199904e+002
4.255462e+002, 1.170761e+002
4.260283e+002, 1.142488e+002
4.265104e+002, 1.117262e+002
4.269925e+002, 1.093870e+002
4.274746e+002, 1.069740e+002
4.279568e+002, 1.043748e+002
4.284389e+002, 1.017667e+002
4.289210e+002, 9.937712e+001
4.294031e+002, 9.722459e+001
4.298852e+002, 9.530587e+001
4.303673e+002, 9.377081e+001
4.308495e+002, 9.233426e+001
4.313316e+002, 9.071772e+001
4.318137e+002, 8.898121e+001
4.322958e+002, 8.742034e+001
4.327779e+002, 8.625340e+001
4.332600e+002, 8.543723e+001
4.337422e+002, 8.464086e+001
4.342243e+002, 8.394123e+001
4.347064e+002, 8.316639e+001
4.351885e+002, 8.219499e+001
4.356706e+002, 8.118553e+001
4.361527e+002, 8.028847e+001
4.366349e+002, 7.955617e+001
4.371170e+002, 7.898701e+001
4.375991e+002, 7.861636e+001
4.380812e+002, 7.853027e+001
4.385633e+002, 7.832586e+001
4.390454e+002, 7.785213e+001
4.395276e+002, 7.740266e+001
4.400097e+002, 7.709145e+001
4.404918e+002, 7.689962e+001
4.409739e+002, 7.676015e+001
4.414560e+002, 7.664125e+001
4.419381e+002, 7.653841e+001
4.424203e+002, 7.641077e+001
4.429024e+002, 7.619118e+001
4.433845e+002, 7.613110e+001
4.438666e+002, 7.647515e+001
4.443487e+002, 7.690941e+001
4.448308e+002, 7.714219e+001
4.453130e+002, 7.712449e+001
4.457951e+002, 7.714558e+001
4.462772e+002, 7.752395e+001
4.467593e+002, 7.817606e+001
4.472414e+002, 7.866425e+001
4.477235e+002, 7.892278e+001
4.482057e+002, 7.904565e+001
4.486878e+002, 7.901590e+001
4.491699e+002, 7.890404e+001
4.496520e+002, 7.887791e+001
4.501341e+002, 7.891477e+001
4.506162e+002, 7.911236e+001
4.510984e+002, 7.962154e+001
4.515805e+002, 8.040291e+001
4.520626e+002, 8.122726e+001
4.525447e+002, 8.203480e+001
4.530268e+002, 8.279257e+001
4.535089e+002, 8.344019e+001
4.539911e+002, 8.400722e+001
4.544732e+002, 8.441212e+001
4.549553e+002, 8.447713e+001
4.554374e+002, 8.446282e+001
4.559195e+002, 8.464853e+001
4.564016e+002, 8.505725e+001
4.568838e+002, 8.554601e+001
4.573659e+002, 8.601501e+001
4.578480e+002, 8.646280e+001
4.583301e+002, 8.687753e+001
4.588122e+002, 8.732152e+001
4.592943e+002, 8.766794e+001
4.597765e+002, 8.781606e+001
4.602586e+002, 8.787572e+001
4.607407e+002, 8.800506e+001
4.612228e+002, 8.825224e+001
4.617049e+002, 8.853142e+001
4.621870e+002, 8.876867e+001
4.626692e+002, 8.912710e+001
4.631513e+002, 8.889201e+001
4.636334e+002, 8.768293e+001
4.641155e+002, 8.629804e+001
4.645976e+002, 8.497861e+001
4.650797e+002, 8.375441e+001
4.655619e+002, 8.257230e+001
4.660440e+002, 8.139568e+001
4.665261e+002, 8.026860e+001
4.670082e+002, 7.936478e+001
4.674903e+002, 7.879375e+001
4.679724e+002, 7.813926e+001
4.684546e+002, 7.722643e+001
4.689367e+002, 7.624216e+001
4.694188e+002, 7.529468e+001
4.699009e+002, 7.439501e+001
4.703830e+002, 7.356245e+001
4.708651e+002, 7.286672e+001
4.713473e+002, 7.225356e+001
4.718294e+002, 7.148417e+001
4.723115e+002, 7.046912e+001
4.727936e+002, 6.953531e+001
4.732757e+002, 6.902909e+001
4.737578e+002, 6.873453e+001
4.742400e+002, 6.823212e+001
4.747221e+002, 6.730954e+001
4.752042e+002, 6.641565e+001
4.756863e+002, 6.589586e+001
4.761684e+002, 6.565044e+001
4.766505e+002, 6.541000e+001
4.771327e+002, 6.510477e+001
4.776148e+002, 6.474922e+001
4.780969e+002, 6.434796e+001
4.785790e+002, 6.389649e+001
4.790611e+002, 6.344432e+001
4.795432e+002, 6.299726e+001
4.800254e+002, 6.255037e+001
4.805075e+002, 6.202618e+001
4.809896e+002, 6.149039e+001
4.814717e+002, 6.115453e+001
4.819538e+002, 6.115205e+001
4.824359e+002, 6.134795e+001
4.829181e+002, 6.135796e+001
4.834002e+002, 6.110312e+001
4.838823e+002, 6.075713e+001
4.843644e+002, 6.026331e+001
4.848465e+002, 5.972826e+001
4.853286e+002, 5.915637e+001
4.858108e+002, 5.859887e+001
4.862929e+002, 5.820248e+001
4.867750e+002, 5.812325e+001
4.872571e+002, 5.831995e+001
4.877392e+002, 5.844189e+001
4.882213e+002, 5.856197e+001
4.887035e+002, 5.846952e+001
4.891856e+002, 5.785843e+001
4.896677e+002, 5.716805e+001
4.901498e+002, 5.691670e+001
4.906319e+002, 5.722905e+001
4.911140e+002, 5.762771e+001
4.915962e+002, 5.760765e+001
4.920783e+002, 5.722265e+001
4.925604e+002, 5.691111e+001
4.930425e+002, 5.672309e+001
4.935246e+002, 5.660433e+001
4.940067e+002, 5.657500e+001
4.944889e+002, 5.658356e+001
4.949710e+002, 5.650398e+001
4.954531e+002, 5.625657e+001
4.959352e+002, 5.597263e+001
4.964173e+002, 5.577689e+001
4.968994e+002, 5.563706e+001
4.973816e+002, 5.541212e+001
4.978637e+002, 5.503417e+001
4.983458e+002, 5.462657e+001
4.988279e+002, 5.436864e+001
4.993100e+002, 5.428521e+001
4.997921e+002, 5.423784e+001
5.002743e+002, 5.424290e+001
5.007564e+002, 5.426168e+001
5.012385e+002, 5.432800e+001
5.017206e+002, 5.439149e+001
5.022027e+002, 5.430314e+001
5.026848e+002, 5.396856e+001
5.031670e+002, 5.347765e+001
5.036491e+002, 5.309240e+001
5.041312e+002, 5.277303e+001
5.046133e+002, 5.264052e+001
5.050954e+002, 5.284516e+001
5.055775e+002, 5.310173e+001
5.060597e+002, 5.323698e+001
5.065418e+002, 5.323738e+001
5.070239e+002, 5.316192e+001
5.075060e+002, 5.304176e+001
5.079881e+002, 5.288956e+001
5.084702e+002, 5.278159e+001
5.089524e+002, 5.277755e+001
5.094345e+002, 5.268072e+001
5.099166e+002, 5.230877e+001
5.103987e+002, 5.188520e+001
5.108808e+002, 5.160136e+001
5.113629e+002, 5.148702e+001
5.118451e+002, 5.148186e+001
5.123271e+002, 5.166053e+001
5.128093e+002, 5.191185e+001
5.132914e+002, 5.185814e+001
5.137735e+002, 5.140526e+001
5.142556e+002, 5.096413e+001
5.147377e+002, 5.081609e+001
5.152198e+002, 5.091138e+001
5.157020e+002, 5.103888e+001
5.161841e+002, 5.128404e+001
5.166662e+002, 5.142963e+001
5.171483e+002, 5.130917e+001
5.176304e+002, 5.104631e+001
5.181125e+002, 5.083838e+001
5.185947e+002, 5.073413e+001
5.190768e+002, 5.068228e+001
5.195589e+002, 5.063995e+001
5.200410e+002, 5.061784e+001
5.205231e+002, 5.049337e+001
5.210052e+002, 5.004052e+001
5.214874e+002, 4.975452e+001
5.219695e+002, 4.989775e+001
5.224516e+002, 5.026782e+001
5.229337e+002, 5.061409e+001
5.234158e+002, 5.083743e+001
5.238979e+002, 5.091191e+001
5.243801e+002, 5.074379e+001
5.248622e+002, 5.025645e+001
5.253443e+002, 4.993657e+001
5.258264e+002, 4.991025e+001
5.263085e+002, 4.993679e+001
5.267906e+002, 4.994167e+001
5.272728e+002, 4.991820e+001
5.277549e+002, 4.985632e+001
5.282370e+002, 4.973875e+001
5.287191e+002, 4.961003e+001
5.292012e+002, 4.951542e+001
5.296833e+002, 4.945580e+001
5.301655e+002, 4.945431e+001
5.306476e+002, 4.953923e+001
5.311297e+002, 4.964655e+001
5.316118e+002, 4.969941e+001
5.320939e+002, 4.970626e+001
5.325760e+002, 4.972691e+001
5.330582e+002, 4.979546e+001
5.335403e+002, 4.986306e+001
5.340224e+002, 4.988609e+001
5.345045e+002, 4.987607e+001
5.349866e+002, 4.988308e+001
5.354688e+002, 4.993513e+001
5.359509e+002, 4.997535e+001
5.364330e+002, 4.988055e+001
5.369151e+002, 4.950575e+001
5.373972e+002, 4.935560e+001
5.378793e+002, 4.957277e+001
5.383615e+002, 4.986113e+001
5.388436e+002, 5.012218e+001
5.393257e+002, 5.031683e+001
5.398078e+002, 5.037718e+001
5.402899e+002, 5.024956e+001
5.407720e+002, 5.005096e+001
5.412542e+002, 5.009938e+001
5.417363e+002, 5.052911e+001
5.422184e+002, 5.074660e+001
5.427005e+002, 5.034788e+001
5.431826e+002, 4.998105e+001
5.436647e+002, 5.008573e+001
5.441469e+002, 5.057465e+001
5.446290e+002, 5.103241e+001
5.451111e+002, 5.118161e+001
5.455932e+002, 5.123189e+001
5.460753e+002, 5.156118e+001
5.465574e+002, 5.215470e+001
5.470396e+002, 5.259180e+001
5.475217e+002, 5.264325e+001
5.480038e+002, 5.255834e+001
5.484859e+002, 5.274567e+001
5.489680e+002, 5.321641e+001
5.494501e+002, 5.369943e+001
5.499323e+002, 5.421194e+001
5.504144e+002, 5.466585e+001
5.508965e+002, 5.497041e+001
5.513786e+002, 5.514968e+001
5.518607e+002, 5.528878e+001
5.523428e+002, 5.542945e+001
5.528250e+002, 5.558014e+001
5.533071e+002, 5.575608e+001
5.537892e+002, 5.590922e+001
5.542713e+002, 5.618559e+001
5.547534e+002, 5.671007e+001
5.552355e+002, 5.722885e+001
5.557177e+002, 5.757159e+001
5.561998e+002, 5.778371e+001
5.566819e+002, 5.802427e+001
5.571640e+002, 5.839900e+001
5.576461e+002, 5.883134e+001
5.581282e+002, 5.914495e+001
5.586104e+002, 5.932449e+001
5.590925e+002, 5.949332e+001
5.595746e+002, 5.971489e+001
5.600567e+002, 5.989741e+001
5.605388e+002, 5.992709e+001
5.610209e+002, 5.982937e+001
5.615031e+002, 5.979093e+001
5.619852e+002, 5.984495e+001
5.624673e+002, 6.001604e+001
5.629494e+002, 6.039361e+001
5.634315e+002, 6.093261e+001
5.639136e+002, 6.140197e+001
5.643958e+002, 6.168839e+001
5.648779e+002, 6.192757e+001
5.653600e+002, 6.236931e+001
5.658421e+002, 6.313445e+001
5.663242e+002, 6.374680e+001
5.668063e+002, 6.414102e+001
5.672885e+002, 6.445066e+001
5.677706e+002, 6.469505e+001
5.682527e+002, 6.491957e+001
5.687348e+002, 6.519758e+001
5.692169e+002, 6.556672e+001
5.696990e+002, 6.599030e+001
5.701812e+002, 6.642202e+001
5.706633e+002, 6.689691e+001
5.711454e+002, 6.723289e+001
5.716275e+002, 6.739022e+001
5.721096e+002, 6.742345e+001
5.725917e+002, 6.727492e+001
5.730739e+002, 6.703148e+001
5.735560e+002, 6.687048e+001
5.740381e+002, 6.682467e+001
5.745202e+002, 6.694931e+001
5.750023e+002, 6.746107e+001
5.754844e+002, 6.825726e+001
5.759666e+002, 6.870226e+001
5.764487e+002, 6.855994e+001
5.769308e+002, 6.829610e+001
5.774129e+002, 6.839671e+001
5.778950e+002, 6.887670e+001
5.783771e+002, 6.934846e+001
5.788593e+002, 6.996812e+001
5.793414e+002, 7.040267e+001
5.798235e+002, 7.034476e+001
5.803056e+002, 7.005035e+001
5.807877e+002, 6.992262e+001
5.812698e+002, 7.008542e+001
5.817520e+002, 7.040236e+001
5.822341e+002, 7.071974e+001
5.827162e+002, 7.104844e+001
5.831984e+002, 7.129671e+001
5.836805e+002, 7.149454e+001
5.841626e+002, 7.156318e+001
5.846447e+002, 7.133208e+001
5.851268e+002, 7.103336e+001
5.856089e+002, 7.096792e+001
5.860911e+002, 7.121801e+001
5.865732e+002, 7.156145e+001
5.870553e+002, 7.180111e+001
5.875374e+002, 7.196638e+001
5.880195e+002, 7.218269e+001
5.885016e+002, 7.248223e+001
5.889838e+002, 7.270866e+001
5.894659e+002, 7.264555e+001
5.899480e+002, 7.247477e+001
5.904301e+002, 7.273655e+001
5.909122e+002, 7.367351e+001
5.913943e+002, 7.454969e+001
5.918765e+002, 7.511867e+001
5.923586e+002, 7.553257e+001
5.928407e+002, 7.592075e+001
5.933228e+002, 7.631490e+001
5.938049e+002, 7.672942e+001
5.942870e+002, 7.717051e+001
5.947692e+002, 7.765157e+001
5.952513e+002, 7.826397e+001
5.957334e+002, 7.919027e+001
5.962155e+002, 7.991478e+001
5.966976e+002, 8.017886e+001
5.971797e+002, 8.041634e+001
5.976619e+002, 8.098569e+001
5.981440e+002, 8.182556e+001
5.986261e+002, 8.257523e+001
5.991082e+002, 8.296914e+001
5.995903e+002, 8.318415e+001
6.000724e+002, 8.356555e+001
6.005546e+002, 8.411405e+001
6.010367e+002, 8.459407e+001
6.015188e+002, 8.496207e+001
6.020009e+002, 8.518504e+001
6.024830e+002, 8.509531e+001
6.029651e+002, 8.469842e+001
6.034473e+002, 8.461263e+001
6.039294e+002, 8.538221e+001
6.044115e+002, 8.604411e+001
6.048936e+002, 8.589811e+001
6.053757e+002, 8.521935e+001
6.058578e+002, 8.460242e+001
6.063400e+002, 8.426596e+001
6.068221e+002, 8.398988e+001
6.073042e+002, 8.347524e+001
6.077863e+002, 8.271536e+001
6.082684e+002, 8.177202e+001
6.087505e+002, 8.047205e+001
6.092327e+002, 7.919256e+001
6.097148e+002, 7.809777e+001
6.101969e+002, 7.706460e+001
6.106790e+002, 7.590567e+001
6.111611e+002, 7.456798e+001
6.116432e+002, 7.323341e+001
6.121254e+002, 7.212419e+001
6.126075e+002, 7.113799e+001
6.130896e+002, 6.990313e+001
6.135717e+002, 6.833945e+001
6.140538e+002, 6.687260e+001
6.145359e+002, 6.575031e+001
6.150181e+002, 6.491588e+001
6.155002e+002, 6.423298e+001
6.159823e+002, 6.379952e+001
6.164644e+002, 6.327333e+001
6.169465e+002, 6.246932e+001
6.174286e+002, 6.163326e+001
6.179108e+002, 6.103642e+001
6.183929e+002, 6.061895e+001
6.188750e+002, 6.008428e+001
6.193571e+002, 5.923216e+001
6.198392e+002, 5.822589e+001
6.203214e+002, 5.751131e+001
6.208035e+002, 5.718112e+001
6.212856e+002, 5.685953e+001
6.217677e+002, 5.652302e+001
6.222498e+002, 5.617284e+001
6.227319e+002, 5.580811e+001
6.232141e+002, 5.543081e+001
6.236962e+002, 5.503904e+001
6.241783e+002, 5.460508e+001
6.246604e+002, 5.420412e+001
6.251425e+002, 5.393912e+001
6.256246e+002, 5.376869e+001
6.261068e+002, 5.354973e+001
6.265889e+002, 5.324609e+001
6.270710e+002, 5.293095e+001
6.275531e+002, 5.268003e+001
6.280352e+002, 5.248966e+001
6.285173e+002, 5.224456e+001
6.289995e+002, 5.183364e+001
6.294816e+002, 5.151935e+001
6.299637e+002, 5.140326e+001
6.304458e+002, 5.137832e+001
6.309279e+002, 5.133592e+001
6.314100e+002, 5.126636e+001
6.318922e+002, 5.124634e+001
6.323743e+002, 5.138323e+001
6.328564e+002, 5.158525e+001
6.333385e+002, 5.144218e+001
6.338206e+002, 5.082078e+001
6.343027e+002, 5.040781e+001
6.347849e+002, 5.054119e+001
6.352670e+002, 5.082750e+001
6.357491e+002, 5.085059e+001
6.362312e+002, 5.064163e+001
6.367133e+002, 5.053130e+001
6.371954e+002, 5.075101e+001
6.376776e+002, 5.099186e+001
6.381597e+002, 5.100275e+001
6.386418e+002, 5.083898e+001
6.391239e+002, 5.064623e+001
6.396060e+002, 5.047337e+001
6.400881e+002, 5.025956e+001
6.405703e+002, 4.988555e+001
6.410524e+002, 4.930426e+001
6.415345e+002, 4.911968e+001
6.420166e+002, 4.979439e+001
6.424987e+002, 5.032954e+001
6.429808e+002, 5.043552e+001
6.434630e+002, 5.036135e+001
6.439451e+002, 5.038695e+001
6.444272e+002, 5.055236e+001
6.449093e+002, 5.066133e+001
6.453914e+002, 5.048332e+001
6.458735e+002, 5.015184e+001
6.463557e+002, 5.000289e+001
6.468378e+002, 5.004334e+001
6.473199e+002, 5.013919e+001
6.478020e+002, 5.026654e+001
6.482841e+002, 5.037610e+001
6.487662e+002, 5.035621e+001
6.492484e+002, 5.015829e+001
6.497305e+002, 5.010654e+001
6.502126e+002, 5.038322e+001
6.506947e+002, 5.065466e+001
6.511768e+002, 5.079039e+001
6.516589e+002, 5.077732e+001
6.521411e+002, 5.055359e+001
6.526232e+002, 5.011497e+001
6.531053e+002, 4.966832e+001
6.535874e+002, 4.948446e+001
6.540695e+002, 4.956542e+001
6.545516e+002, 4.972323e+001
6.550338e+002, 5.005259e+001
6.555159e+002, 5.026643e+001
6.559980e+002, 5.016113e+001
6.564801e+002, 4.991023e+001
6.569622e+002, 4.966068e+001
6.574443e+002, 4.941611e+001
6.579265e+002, 4.927952e+001
6.584086e+002, 4.932928e+001
6.588907e+002, 4.948816e+001
6.593728e+002, 4.971398e+001
6.598549e+002, 4.997963e+001
6.603370e+002, 5.022355e+001
6.608192e+002, 5.042406e+001
6.613013e+002, 5.052456e+001
6.617834e+002, 5.038832e+001
6.622655e+002, 4.987729e+001
6.627476e+002, 4.964711e+001
6.632297e+002, 4.998889e+001
6.637119e+002, 5.029433e+001
6.641940e+002, 5.037373e+001
6.646761e+002, 5.031128e+001
6.651582e+002, 5.019743e+001
6.656403e+002, 5.005610e+001
6.661224e+002, 4.996753e+001
6.666046e+002, 5.010019e+001
6.670867e+002, 5.031287e+001
6.675688e+002, 5.017175e+001
6.680509e+002, 4.965129e+001
6.685330e+002, 4.932775e+001
6.690151e+002, 4.953553e+001
6.694973e+002, 5.003676e+001
6.699794e+002, 5.037102e+001
6.704615e+002, 5.049710e+001
6.709436e+002, 5.054895e+001
6.714257e+002, 5.051016e+001
6.719078e+002, 5.041505e+001
6.723900e+002, 5.017591e+001
6.728721e+002, 4.992299e+001
6.733542e+002, 4.989507e+001
6.738363e+002, 5.017025e+001
6.743184e+002, 5.053613e+001
6.748005e+002, 5.076307e+001
6.752827e+002, 5.085724e+001
6.757648e+002, 5.085990e+001
6.762469e+002, 5.074043e+001
6.767290e+002, 5.064372e+001
6.772111e+002, 5.065748e+001
6.776932e+002, 5.072372e+001
6.781754e+002, 5.073272e+001
6.786575e+002, 5.066869e+001
6.791396e+002, 5.063629e+001
6.796217e+002, 5.063150e+001
6.801038e+002, 5.069228e+001
6.805859e+002, 5.088977e+001
6.810681e+002, 5.117112e+001
6.815502e+002, 5.143718e+001
6.820323e+002, 5.164518e+001
6.825144e+002, 5.176861e+001
6.829965e+002, 5.174148e+001
6.834786e+002, 5.155125e+001
6.839608e+002, 5.141832e+001
6.844429e+002, 5.132270e+001
6.849250e+002, 5.132210e+001
6.854071e+002, 5.155174e+001
6.858892e+002, 5.182759e+001
6.863713e+002, 5.195411e+001
6.868535e+002, 5.190906e+001
6.873356e+002, 5.179021e+001
6.878177e+002, 5.152658e+001
6.882998e+002, 5.129377e+001
6.887819e+002, 5.131588e+001
6.892640e+002, 5.153103e+001
6.897462e+002, 5.173230e+001
6.902283e+002, 5.184104e+001
6.907104e+002, 5.186235e+001
6.911925e+002, 5.177506e+001
6.916746e+002, 5.154445e+001
6.921567e+002, 5.152626e+001
6.926389e+002, 5.193989e+001
6.931210e+002, 5.226923e+001
6.936031e+002, 5.233880e+001
6.940852e+002, 5.229304e+001
6.945673e+002, 5.223914e+001
6.950494e+002, 5.220300e+001
6.955316e+002, 5.226235e+001
6.960137e+002, 5.260865e+001
6.964958e+002, 5.298316e+001
6.969779e+002, 5.299232e+001
6.974600e+002, 5.270368e+001
6.979421e+002, 5.243434e+001
6.984243e+002, 5.229119e+001
6.989064e+002, 5.224126e+001
6.993885e+002, 5.225642e+001
6.998706e+002, 5.234513e+001
7.003527e+002, 5.238944e+001
7.008348e+002, 5.235678e+001
7.013170e+002, 5.231870e+001
7.017991e+002, 5.226945e+001
7.022812e+002, 5.223239e+001
7.027633e+002, 5.224504e+001
7.032454e+002, 5.229969e+001
7.037275e+002, 5.233079e+001
7.042097e+002, 5.228423e+001
7.046918e+002, 5.220108e+001
7.051739e+002, 5.214601e+001
7.056560e+002, 5.211324e+001
7.061381e+002, 5.206885e+001
7.066202e+002, 5.200304e+001
7.071024e+002, 5.192340e+001
7.075845e+002, 5.183231e+001
7.080666e+002, 5.172960e+001
7.085487e+002, 5.165722e+001
7.090308e+002, 5.161898e+001
7.095129e+002, 5.160358e+001
7.099951e+002, 5.165783e+001
7.104772e+002, 5.169741e+001
7.109593e+002, 5.162946e+001
7.114414e+002, 5.147380e+001
7.119235e+002, 5.133706e+001
7.124056e+002, 5.128633e+001
7.128878e+002, 5.127320e+001
7.133699e+002, 5.124255e+001
7.138520e+002, 5.118874e+001
7.143341e+002, 5.105250e+001
7.148162e+002, 5.080358e+001
7.152983e+002, 5.057323e+001
7.157805e+002, 5.048643e+001
7.162626e+002, 5.050878e+001
7.167447e+002, 5.043916e+001
7.172268e+002, 5.013708e+001
7.177089e+002, 4.995075e+001
7.181910e+002, 5.009690e+001
7.186732e+002, 5.020505e+001
7.191553e+002, 4.986786e+001
7.196374e+002, 4.927914e+001
7.201195e+002, 4.899341e+001
7.206016e+002, 4.931317e+001
7.210837e+002, 4.979058e+001
7.215659e+002, 4.979961e+001
7.220480e+002, 4.942582e+001
7.225301e+002, 4.912914e+001
7.230122e+002, 4.895258e+001
7.234943e+002, 4.888467e+001
7.239764e+002, 4.899185e+001
7.244586e+002, 4.914515e+001
7.249407e+002, 4.897099e+001
7.254228e+002, 4.818251e+001
7.259049e+002, 4.778253e+001
7.263870e+002, 4.818984e+001
7.268691e+002, 4.863109e+001
7.273513e+002, 4.868419e+001
7.278334e+002, 4.847578e+001
7.283155e+002, 4.823911e+001
7.287976e+002, 4.805702e+001
7.292797e+002, 4.792939e+001
7.297618e+002, 4.788693e+001
7.302440e+002, 4.790039e+001
7.307261e+002, 4.785891e+001
7.312082e+002, 4.775739e+001
7.316903e+002, 4.762561e+001
7.321724e+002, 4.743053e+001
7.326545e+002, 4.729393e+001
7.331367e+002, 4.744310e+001
7.336188e+002, 4.797121e+001
7.341009e+002, 4.824091e+001
7.345830e+002, 4.803073e+001
7.350651e+002, 4.783138e+001
7.355472e+002, 4.783031e+001
7.360294e+002, 4.791796e+001
7.365115e+002, 4.797483e+001
7.369936e+002, 4.797585e+001
7.374757e+002, 4.794214e+001
7.379578e+002, 4.785723e+001
7.384399e+002, 4.777834e+001
7.389221e+002, 4.788654e+001
7.394042e+002, 4.815929e+001
7.398863e+002, 4.822688e+001
7.403684e+002, 4.796145e+001
7.408505e+002, 4.761155e+001
7.413326e+002, 4.739534e+001
7.418148e+002, 4.730410e+001
7.422969e+002, 4.723960e+001
7.427790e+002, 4.722849e+001
7.432611e+002, 4.720503e+001
7.437432e+002, 4.712532e+001
7.442253e+002, 4.706163e+001
7.447075e+002, 4.708413e+001
7.451896e+002, 4.716927e+001
7.456717e+002, 4.724525e+001
7.461538e+002, 4.728005e+001
7.466359e+002, 4.728596e+001
7.471180e+002, 4.727795e+001
7.476002e+002, 4.725375e+001
7.480823e+002, 4.718158e+001
7.485644e+002, 4.705341e+001
7.490465e+002, 4.700198e+001
7.495286e+002, 4.713924e+001
7.500107e+002, 4.735353e+001
7.504929e+002, 4.737662e+001
7.509750e+002, 4.712262e+001
7.514571e+002, 4.688438e+001
7.519392e+002, 4.655214e+001
7.524213e+002, 4.635609e+001
7.529034e+002, 4.649162e+001
7.533856e+002, 4.677037e+001
7.538677e+002, 4.694847e+001
7.543498e+002, 4.696838e+001
7.548319e+002, 4.690926e+001
7.553140e+002, 4.677983e+001
7.557961e+002, 4.663440e+001
7.562783e+002, 4.657240e+001
7.567604e+002, 4.658264e+001
7.572425e+002, 4.658620e+001
7.577246e+002, 4.655460e+001
7.582067e+002, 4.653671e+001
7.586888e+002, 4.660583e+001
7.591710e+002, 4.676043e+001
7.596531e+002, 4.677959e+001
7.601352e+002, 4.653833e+001
7.606173e+002, 4.635072e+001
7.610994e+002, 4.623879e+001
7.615815e+002, 4.621137e+001
7.620637e+002, 4.636338e+001
7.625458e+002, 4.661507e+001
7.630279e+002, 4.669344e+001
7.635100e+002, 4.640857e+001
7.639921e+002, 4.607347e+001
7.644742e+002, 4.597372e+001
7.649564e+002, 4.599284e+001
7.654385e+002, 4.589439e+001
7.659206e+002, 4.566729e+001
7.664027e+002, 4.548896e+001
7.668848e+002, 4.547676e+001
7.673669e+002, 4.556517e+001
7.678491e+002, 4.560093e+001
7.683312e+002, 4.557031e+001
7.688133e+002, 4.553908e+001
7.692954e+002, 4.551523e+001
7.697775e+002, 4.548133e+001
7.702596e+002, 4.546922e+001
7.707418e+002, 4.542436e+001
7.712239e+002, 4.522161e+001
7.717060e+002, 4.481902e+001
7.721881e+002, 4.457497e+001
7.726702e+002, 4.473309e+001
7.731523e+002, 4.500426e+001
7.736345e+002, 4.522392e+001
7.741166e+002, 4.535917e+001
7.745987e+002, 4.532802e+001
7.750808e+002, 4.512842e+001
7.755629e+002, 4.493303e+001
7.760450e+002, 4.491692e+001
7.765272e+002, 4.504860e+001
7.770093e+002, 4.519221e+001
7.774914e+002, 4.535888e+001
7.779735e+002, 4.548916e+001
7.784556e+002, 4.561858e+001
7.789377e+002, 4.563184e+001
7.794199e+002, 4.531253e+001
7.799020e+002, 4.476290e+001
7.803841e+002, 4.448608e+001
7.808662e+002, 4.463194e+001
7.813483e+002, 4.485593e+001
7.818304e+002, 4.524456e+001
7.823126e+002, 4.554196e+001
7.827947e+002, 4.544115e+001
7.832768e+002, 4.507454e+001
7.837589e+002, 4.480707e+001
7.842410e+002, 4.480320e+001
7.847231e+002, 4.490869e+001
7.852053e+002, 4.495599e+001
7.856874e+002, 4.495489e+001
7.861695e+002, 4.494561e+001
7.866516e+002, 4.493083e+001
7.871337e+002, 4.488738e+001
7.876158e+002, 4.479483e+001
7.880980e+002, 4.469167e+001
7.885801e+002, 4.462441e+001
7.890622e+002, 4.458143e+001
7.895443e+002, 4.465739e+001
7.900264e+002, 4.501863e+001
7.905085e+002, 4.528164e+001
7.909907e+002, 4.534583e+001
7.914728e+002, 4.528951e+001
7.919549e+002, 4.512592e+001
7.924370e+002, 4.490037e+001
7.929191e+002, 4.476433e+001
7.934012e+002, 4.486196e+001
7.938834e+002, 4.497112e+001
7.943655e+002, 4.480730e+001
7.948476e+002, 4.450969e+001
7.953297e+002, 4.438958e+001
7.958118e+002, 4.447892e+001
7.962939e+002, 4.460902e+001
7.967761e+002, 4.467202e+001
7.972582e+002, 4.469813e+001
7.977403e+002, 4.476213e+001
7.982224e+002, 4.487698e+001
7.987045e+002, 4.497936e+001
7.991866e+002, 4.509205e+001
7.996688e+002, 4.515505e+001
8.001509e+002, 4.513326e+001
8.006330e+002, 4.505070e+001
8.011151e+002, 4.489120e+001
8.015972e+002, 4.464001e+001
8.020793e+002, 4.453166e+001
8.025615e+002, 4.477144e+001
8.030436e+002, 4.502747e+001
8.035257e+002, 4.509228e+001
8.040078e+002, 4.504156e+001
8.044899e+002, 4.498933e+001
8.049720e+002, 4.496004e+001
8.054542e+002, 4.490981e+001
8.059363e+002, 4.477782e+001
8.064184e+002, 4.465085e+001
8.069005e+002, 4.480682e+001
8.073826e+002, 4.522348e+001
8.078647e+002, 4.535291e+001
8.083469e+002, 4.505073e+001
8.088290e+002, 4.469683e+001
8.093111e+002, 4.453401e+001
8.097932e+002, 4.452755e+001
8.102753e+002, 4.457755e+001
8.107574e+002, 4.474134e+001
8.112396e+002, 4.484462e+001
8.117217e+002, 4.484443e+001
8.122038e+002, 4.483401e+001
8.126859e+002, 4.483376e+001
8.131680e+002, 4.485720e+001
8.136501e+002, 4.496365e+001
8.141323e+002, 4.515122e+001
8.146144e+002, 4.522051e+001
8.150965e+002, 4.487228e+001
8.155786e+002, 4.448002e+001
8.160607e+002, 4.449917e+001
8.165428e+002, 4.482647e+001
8.170250e+002, 4.525451e+001
8.175071e+002, 4.570921e+001
8.179892e+002, 4.600652e+001
8.184713e+002, 4.597860e+001
8.189534e+002, 4.569838e+001
8.194355e+002, 4.541206e+001
8.199177e+002, 4.510160e+001
8.203998e+002, 4.485934e+001
8.208819e+002, 4.467175e+001
8.213640e+002, 4.459363e+001
8.218461e+002, 4.472908e+001
8.223282e+002, 4.497478e+001
8.228104e+002, 4.512094e+001
8.232925e+002, 4.513314e+001
8.237746e+002, 4.516454e+001
8.242567e+002, 4.531787e+001
8.247388e+002, 4.542238e+001
8.252209e+002, 4.533424e+001
8.257031e+002, 4.515691e+001
8.261852e+002, 4.503702e+001
8.266673e+002, 4.500574e+001
8.271494e+002, 4.500943e+001
8.276315e+002, 4.502012e+001
8.281136e+002, 4.502709e+001
8.285958e+002, 4.498280e+001
8.290779e+002, 4.491134e+001
8.295600e+002, 4.495222e+001
8.300421e+002, 4.513534e+001
8.305242e+002, 4.532232e+001
8.310063e+002, 4.541842e+001
8.314885e+002, 4.543235e+001
8.319706e+002, 4.536649e+001
8.324527e+002, 4.509873e+001
8.329348e+002, 4.508316e+001
8.334169e+002, 4.560789e+001
8.338990e+002, 4.602151e+001
8.343812e+002, 4.599127e+001
8.348633e+002, 4.575787e+001
8.353454e+002, 4.560842e+001
8.358275e+002, 4.557207e+001
8.363096e+002, 4.555385e+001
8.367917e+002, 4.550258e+001
8.372739e+002, 4.548259e+001
8.377560e+002, 4.550092e+001
8.382381e+002, 4.559246e+001
8.387202e+002, 4.590738e+001
8.392023e+002, 4.638116e+001
8.396844e+002, 4.663813e+001
8.401666e+002, 4.638509e+001
8.406487e+002, 4.592072e+001
8.411308e+002, 4.576015e+001
8.416129e+002, 4.586693e+001
8.420950e+002, 4.601524e+001
8.425771e+002, 4.619004e+001
8.430593e+002, 4.628315e+001
8.435414e+002, 4.621330e+001
8.440235e+002, 4.607512e+001
8.445056e+002, 4.604625e+001
8.449877e+002, 4.615339e+001
8.454698e+002, 4.623640e+001
8.459520e+002, 4.630537e+001
8.464341e+002, 4.633568e+001
8.469162e+002, 4.622437e+001
8.473983e+002, 4.614709e+001
8.478804e+002, 4.632641e+001
8.483625e+002, 4.670727e+001
8.488447e+002, 4.695646e+001
8.493268e+002, 4.694389e+001
8.498089e+002, 4.681629e+001
8.502910e+002, 4.653579e+001
8.507731e+002, 4.626357e+001
8.512552e+002, 4.621698e+001
8.517374e+002, 4.635919e+001
8.522195e+002, 4.651496e+001
8.527016e+002, 4.660363e+001
8.531837e+002, 4.666415e+001
8.536658e+002, 4.670132e+001
8.541479e+002, 4.674812e+001
8.546301e+002, 4.704832e+001
8.551122e+002, 4.761289e+001
8.555943e+002, 4.791078e+001
8.560764e+002, 4.770087e+001
8.565585e+002, 4.739777e+001
8.570406e+002, 4.748244e+001
8.575228e+002, 4.790144e+001
8.580049e+002, 4.800017e+001
8.584870e+002, 4.741046e+001
8.589691e+002, 4.712849e+001
8.594512e+002, 4.749913e+001
8.599333e+002, 4.792128e+001
8.604155e+002, 4.807112e+001
8.608976e+002, 4.805323e+001
8.613797e+002, 4.806672e+001
8.618618e+002, 4.813395e+001
8.623439e+002, 4.830938e+001
8.628260e+002, 4.886054e+001
8.633082e+002, 4.929583e+001
8.637903e+002, 4.907591e+001
8.642724e+002, 4.851835e+001
8.647545e+002, 4.817279e+001
8.652366e+002, 4.815718e+001
8.657188e+002, 4.826523e+001
8.662009e+002, 4.836265e+001
8.666830e+002, 4.843673e+001
8.671651e+002, 4.844640e+001
8.676472e+002, 4.840462e+001
8.681293e+002, 4.839626e+001
8.686115e+002, 4.843438e+001
8.690936e+002, 4.848073e+001
8.695757e+002, 4.850844e+001
8.700578e+002, 4.854106e+001
8.705399e+002, 4.863910e+001
8.710220e+002, 4.883446e+001
8.715042e+002, 4.893068e+001
8.719863e+002, 4.888180e+001
8.724684e+002, 4.880762e+001
8.729505e+002, 4.873228e+001
8.734326e+002, 4.865595e+001
8.739147e+002, 4.858166e+001
8.743969e+002, 4.850811e+001
8.748790e+002, 4.842482e+001
8.753611e+002, 4.825549e+001
8.758432e+002, 4.818285e+001
8.763253e+002, 4.846272e+001
8.768074e+002, 4.870570e+001
8.772896e+002, 4.842303e+001
8.777717e+002, 4.784339e+001
8.782538e+002, 4.758071e+001
8.787359e+002, 4.785531e+001
8.792180e+002, 4.821804e+001
8.797001e+002, 4.825104e+001
8.801823e+002, 4.809354e+001
8.806644e+002, 4.800236e+001
8.811465e+002, 4.795767e+001
8.816286e+002, 4.782119e+001
8.821107e+002, 4.756181e+001
8.825928e+002, 4.736640e+001
8.830750e+002, 4.741071e+001
8.835571e+002, 4.762365e+001
8.840392e+002, 4.779053e+001
8.845213e+002, 4.793274e+001
8.850034e+002, 4.787665e+001
8.854855e+002, 4.751167e+001
8.859677e+002, 4.716533e+001
8.864498e+002, 4.698993e+001
8.869319e+002, 4.694470e+001
8.874140e+002, 4.699696e+001
8.878961e+002, 4.718010e+001
8.883782e+002, 4.723822e+001
8.888604e+002, 4.711055e+001
8.893425e+002, 4.692798e+001
8.898246e+002, 4.664441e+001
8.903067e+002, 4.638594e+001
8.907888e+002, 4.627218e+001
8.912709e+002, 4.628137e+001
8.917531e+002, 4.631448e+001
8.922352e+002, 4.633846e+001
8.927173e+002, 4.637416e+001
8.931994e+002, 4.649524e+001
8.936815e+002, 4.659211e+001
8.941636e+002, 4.645403e+001
8.946458e+002, 4.618874e+001
8.951279e+002, 4.615075e+001
8.956100e+002, 4.642482e+001
8.960921e+002, 4.663776e+001
8.965742e+002, 4.634826e+001
8.970563e+002, 4.581729e+001
8.975385e+002, 4.585716e+001
8.980206e+002, 4.640228e+001
8.985027e+002, 4.655474e+001
8.989848e+002, 4.612996e+001
8.994669e+002, 4.559286e+001
8.999490e+002, 4.520263e+001
9.004312e+002, 4.497552e+001
9.009133e+002, 4.495789e+001
9.013954e+002, 4.518984e+001
9.018775e+002, 4.545836e+001
9.023596e+002, 4.586681e+001
9.028417e+002, 4.613676e+001
9.033239e+002, 4.611295e+001
9.038060e+002, 4.596978e+001
9.042881e+002, 4.585088e+001
9.047702e+002, 4.575605e+001
9.052523e+002, 4.567567e+001
9.057344e+002, 4.560644e+001
9.062166e+002, 4.555507e+001
9.066987e+002, 4.551200e+001
9.071808e+002, 4.549773e+001
9.076629e+002, 4.556499e+001
9.081450e+002, 4.565919e+001
9.086271e+002, 4.566160e+001
9.091093e+002, 4.554686e+001
9.095914e+002, 4.546757e+001
9.100735e+002, 4.557527e+001
9.105556e+002, 4.573204e+001
9.110377e+002, 4.579189e+001
9.115198e+002, 4.578218e+001
9.120020e+002, 4.573453e+001
9.124841e+002, 4.567223e+001
9.129662e+002, 4.566319e+001
9.134483e+002, 4.575064e+001
9.139304e+002, 4.591247e+001
9.144125e+002, 4.617374e+001
9.148947e+002, 4.650011e+001
9.153768e+002, 4.655925e+001
9.158589e+002, 4.632116e+001
9.163410e+002, 4.620150e+001
9.168231e+002, 4.636503e+001
9.173052e+002, 4.665174e+001
9.177874e+002, 4.689531e+001
9.182695e+002, 4.709787e+001
9.187516e+002, 4.726951e+001
9.192337e+002, 4.740794e+001
9.197158e+002, 4.751994e+001
9.201979e+002, 4.756278e+001
9.206801e+002, 4.763654e+001
9.211622e+002, 4.783027e+001
9.216443e+002, 4.807624e+001
9.221264e+002, 4.824447e+001
9.226085e+002, 4.830558e+001
9.230906e+002, 4.847761e+001
9.235728e+002, 4.896949e+001
9.240549e+002, 4.935382e+001
9.245370e+002, 4.925291e+001
9.250191e+002, 4.913774e+001
9.255012e+002, 4.952510e+001
9.259833e+002, 5.030717e+001
9.264655e+002, 5.103037e+001
9.269476e+002, 5.153800e+001
9.274297e+002, 5.190627e+001
9.279118e+002, 5.206056e+001
9.283939e+002, 5.220385e+001
9.288760e+002, 5.260450e+001
9.293582e+002, 5.317321e+001
9.298403e+002, 5.365338e+001
9.303224e+002, 5.399836e+001
9.308045e+002, 5.440953e+001
9.312866e+002, 5.506236e+001
9.317687e+002, 5.584974e+001
9.322509e+002, 5.658263e+001
9.327330e+002, 5.726976e+001
9.332151e+002, 5.789327e+001
9.336972e+002, 5.846319e+001
9.341793e+002, 5.924867e+001
9.346614e+002, 6.039362e+001
9.351436e+002, 6.172262e+001
9.356257e+002, 6.297455e+001
9.361078e+002, 6.415701e+001
9.365899e+002, 6.540443e+001
9.370720e+002, 6.667162e+001
9.375541e+002, 6.815879e+001
9.380363e+002, 6.989722e+001
9.385184e+002, 7.187820e+001
9.390005e+002, 7.420048e+001
9.394826e+002, 7.670798e+001
9.399647e+002, 7.896558e+001
9.404468e+002, 8.076584e+001
9.409290e+002, 8.286385e+001
9.414111e+002, 8.511304e+001
9.418932e+002, 8.784724e+001
9.423753e+002, 9.127145e+001
9.428574e+002, 9.513851e+001
9.433395e+002, 9.926852e+001
9.438217e+002, 1.036454e+002
9.443038e+002, 1.081969e+002
9.447859e+002, 1.128420e+002
9.452680e+002, 1.177900e+002
9.457501e+002, 1.230638e+002
9.462322e+002, 1.287186e+002
9.467144e+002, 1.348241e+002
9.471965e+002, 1.413238e+002
9.476786e+002, 1.481063e+002
9.481607e+002, 1.551797e+002
9.486428e+002, 1.628259e+002
9.491249e+002, 1.712585e+002
9.496071e+002, 1.802503e+002
9.500892e+002, 1.897256e+002
9.505713e+002, 1.994635e+002
9.510534e+002, 2.090806e+002
9.515355e+002, 2.185544e+002
9.520176e+002, 2.279929e+002
9.524998e+002, 2.374539e+002
9.529819e+002, 2.472532e+002
9.534640e+002, 2.581194e+002
9.539461e+002, 2.695454e+002
9.544282e+002, 2.800199e+002
9.549103e+002, 2.896388e+002
9.553925e+002, 2.992673e+002
9.558746e+002, 3.091546e+002
9.563567e+002, 3.176388e+002
9.568388e+002, 3.235859e+002
9.573209e+002, 3.273827e+002
9.578030e+002, 3.299443e+002
9.582852e+002, 3.313199e+002
9.587673e+002, 3.308231e+002
9.592494e+002, 3.283277e+002
9.597315e+002, 3.243298e+002
9.602136e+002, 3.185597e+002
9.606957e+002, 3.121252e+002
9.611779e+002, 3.058708e+002
9.616600e+002, 2.998922e+002
9.621421e+002, 2.948315e+002
9.626242e+002, 2.909118e+002
9.631063e+002, 2.874623e+002
9.635884e+002, 2.837649e+002
9.640706e+002, 2.814770e+002
9.645527e+002, 2.811836e+002
9.650348e+002, 2.825769e+002
9.655169e+002, 2.852480e+002
9.659990e+002, 2.892234e+002
9.664811e+002, 2.950248e+002
9.669633e+002, 3.026897e+002
9.674454e+002, 3.121805e+002
9.679275e+002, 3.244817e+002
9.684096e+002, 3.376777e+002
9.688917e+002, 3.509015e+002
9.693738e+002, 3.640003e+002
9.698560e+002, 3.773812e+002
9.703381e+002, 3.910594e+002
9.708202e+002, 4.031854e+002
9.713023e+002, 4.145059e+002
9.717844e+002, 4.221537e+002
9.722665e+002, 4.242168e+002
9.727487e+002, 4.214953e+002
9.732308e+002, 4.148887e+002
9.737129e+002, 4.043869e+002
9.741950e+002, 3.890408e+002
9.746771e+002, 3.685322e+002
9.751592e+002, 3.457346e+002
9.756414e+002, 3.223250e+002
9.761235e+002, 2.989311e+002
9.766056e+002, 2.758930e+002
9.770877e+002, 2.535546e+002
9.775698e+002, 2.325130e+002
9.780519e+002, 2.129763e+002
9.785341e+002, 1.952527e+002
9.790162e+002, 1.795918e+002
9.794983e+002, 1.657270e+002
9.799804e+002, 1.533115e+002
9.804625e+002, 1.423022e+002
9.809446e+002, 1.325920e+002
9.814268e+002, 1.241678e+002
9.819089e+002, 1.168299e+002
9.823910e+002, 1.105398e+002
9.828731e+002, 1.048947e+002
9.833552e+002, 9.959864e+001
9.838373e+002, 9.475446e+001
9.843195e+002, 9.068549e+001
9.848016e+002, 8.742368e+001
9.852837e+002, 8.435400e+001
9.857658e+002, 8.145657e+001
9.862479e+002, 7.881448e+001
9.867300e+002, 7.647552e+001
9.872122e+002, 7.434184e+001
9.876943e+002, 7.228467e+001
9.881764e+002, 7.032888e+001
9.886585e+002, 6.861720e+001
9.891406e+002, 6.718391e+001
9.896227e+002, 6.588261e+001
9.901049e+002, 6.469759e+001
9.905870e+002, 6.366508e+001
9.910691e+002, 6.285849e+001
9.915512e+002, 6.215745e+001
9.920333e+002, 6.140136e+001
9.925154e+002, 6.059721e+001
9.929976e+002, 5.988206e+001
9.934797e+002, 5.923439e+001
9.939618e+002, 5.870837e+001
9.944439e+002, 5.833615e+001
9.949260e+002, 5.805050e+001
9.954081e+002, 5.790571e+001
9.958903e+002, 5.778079e+001
9.963724e+002, 5.748874e+001
9.968545e+002, 5.702224e+001
9.973366e+002, 5.661635e+001
9.978187e+002, 5.632486e+001
9.983008e+002, 5.608611e+001
9.987830e+002, 5.597080e+001
9.992651e+002, 5.581513e+001
9.997472e+002, 5.542620e+001
1.000229e+003, 5.494282e+001
1.000711e+003, 5.458982e+001
1.001194e+003, 5.441410e+001
1.001676e+003, 5.438125e+001
1.002158e+003, 5.464028e+001
1.002640e+003, 5.484260e+001
1.003122e+003, 5.469728e+001
1.003604e+003, 5.446532e+001
1.004086e+003, 5.438578e+001
1.004568e+003, 5.446248e+001
1.005050e+003, 5.464375e+001
1.005533e+003, 5.491099e+001
1.006015e+003, 5.519255e+001
1.006497e+003, 5.546534e+001
1.006979e+003, 5.570363e+001
1.007461e+003, 5.588274e+001
1.007943e+003, 5.601060e+001
1.008425e+003, 5.603407e+001
1.008907e+003, 5.601606e+001
1.009390e+003, 5.614834e+001
1.009872e+003, 5.651305e+001
1.010354e+003, 5.701766e+001
1.010836e+003, 5.766058e+001
1.011318e+003, 5.832885e+001
1.011800e+003, 5.886150e+001
1.012282e+003, 5.926124e+001
1.012764e+003, 5.947152e+001
1.013246e+003, 5.953698e+001
1.013729e+003, 5.973800e+001
1.014211e+003, 6.022911e+001
1.014693e+003, 6.073863e+001
1.015175e+003, 6.090499e+001
1.015657e+003, 6.081141e+001
1.016139e+003, 6.063816e+001
1.016621e+003, 6.041831e+001
1.017103e+003, 6.037362e+001
1.017586e+003, 6.052540e+001
1.018068e+003, 6.054377e+001
1.018550e+003, 6.021476e+001
1.019032e+003, 5.974675e+001
1.019514e+003, 5.947141e+001
1.019996e+003, 5.937225e+001
1.020478e+003, 5.940783e+001
1.020960e+003, 5.956930e+001
1.021442e+003, 5.946389e+001
1.021925e+003, 5.899010e+001
1.022407e+003, 5.845723e+001
1.022889e+003, 5.807081e+001
1.023371e+003, 5.779714e+001
1.023853e+003, 5.759769e+001
1.024335e+003, 5.747429e+001
1.024817e+003, 5.719114e+001
1.025299e+003, 5.672290e+001
1.025781e+003, 5.627382e+001
1.026264e+003, 5.587653e+001
1.026746e+003, 5.558644e+001
1.027228e+003, 5.548696e+001
1.027710e+003, 5.544826e+001
1.028192e+003, 5.512453e+001
1.028674e+003, 5.445408e+001
1.029156e+003, 5.401263e+001
1.029638e+003, 5.385634e+001
1.030120e+003, 5.374263e+001
1.030603e+003, 5.359760e+001
1.031085e+003, 5.352098e+001
1.031567e+003, 5.364532e+001
1.032049e+003, 5.384837e+001
1.032531e+003, 5.379053e+001
1.033013e+003, 5.340126e+001
1.033495e+003, 5.306460e+001
1.033977e+003, 5.277289e+001
1.034460e+003, 5.255418e+001
1.034942e+003, 5.244673e+001
1.035424e+003, 5.236981e+001
1.035906e+003, 5.225324e+001
1.036388e+003, 5.212339e+001
1.036870e+003, 5.207076e+001
1.037352e+003, 5.216425e+001
1.037834e+003, 5.209307e+001
1.038317e+003, 5.170472e+001
1.038799e+003, 5.138502e+001
1.039281e+003, 5.118780e+001
1.039763e+003, 5.112242e+001
1.040245e+003, 5.126165e+001
1.040727e+003, 5.153035e+001
1.041209e+003, 5.171745e+001
1.041691e+003, 5.180258e+001
1.042173e+003, 5.186854e+001
1.042656e+003, 5.193189e+001
1.043138e+003, 5.195638e+001
1.043620e+003, 5.200629e+001
1.044102e+003, 5.194707e+001
1.044584e+003, 5.151690e+001
1.045066e+003, 5.092458e+001
1.045548e+003, 5.074504e+001
1.046030e+003, 5.115267e+001
1.046512e+003, 5.142305e+001
1.046995e+003, 5.140119e+001
1.047477e+003, 5.133495e+001
1.047959e+003, 5.119273e+001
1.048441e+003, 5.112792e+001
1.048923e+003, 5.132108e+001
1.049405e+003, 5.167118e+001
1.049887e+003, 5.189547e+001
1.050369e+003, 5.189538e+001
1.050852e+003, 5.212239e+001
1.051334e+003, 5.292775e+001
1.051816e+003, 5.362664e+001
1.052298e+003, 5.385259e+001
1.052780e+003, 5.400058e+001
1.053262e+003, 5.442038e+001
1.053744e+003, 5.501348e+001
1.054226e+003, 5.552498e+001
1.054708e+003, 5.591567e+001
1.055191e+003, 5.622885e+001
1.055673e+003, 5.634529e+001
1.056155e+003, 5.655646e+001
1.056637e+003, 5.701974e+001
1.057119e+003, 5.758314e+001
1.057601e+003, 5.823968e+001
1.058083e+003, 5.885950e+001
1.058565e+003, 5.921352e+001
1.059047e+003, 5.925340e+001
1.059530e+003, 5.910612e+001
1.060012e+003, 5.877124e+001
1.060494e+003, 5.831037e+001
1.060976e+003, 5.768701e+001
1.061458e+003, 5.700953e+001
1.061940e+003, 5.635228e+001
1.062422e+003, 5.570792e+001
1.062904e+003, 5.510425e+001
1.063387e+003, 5.454380e+001
1.063869e+003, 5.370575e+001
1.064351e+003, 5.215610e+001
1.064833e+003, 5.071275e+001
1.065315e+003, 4.979438e+001
1.065797e+003, 4.908027e+001
1.066279e+003, 4.836850e+001
1.066761e+003, 4.763623e+001
1.067244e+003, 4.684175e+001
1.067726e+003, 4.599780e+001
1.068208e+003, 4.536572e+001
1.068690e+003, 4.527155e+001
1.069172e+003, 4.511439e+001
1.069654e+003, 4.459289e+001
1.070136e+003, 4.392835e+001
1.070618e+003, 4.316466e+001
1.071100e+003, 4.244926e+001
1.071583e+003, 4.205006e+001
1.072065e+003, 4.197005e+001
1.072547e+003, 4.185034e+001
1.073029e+003, 4.144415e+001
1.073511e+003, 4.115253e+001
1.073993e+003, 4.130616e+001
1.074475e+003, 4.150745e+001
1.074957e+003, 4.141243e+001
1.075439e+003, 4.118303e+001
1.075922e+003, 4.105363e+001
1.076404e+003, 4.106395e+001
1.076886e+003, 4.117734e+001
1.077368e+003, 4.141999e+001
1.077850e+003, 4.167246e+001
1.078332e+003, 4.196235e+001
1.078814e+003, 4.215679e+001
1.079297e+003, 4.204874e+001
1.079779e+003, 4.185524e+001
1.080261e+003, 4.184615e+001
1.080743e+003, 4.203812e+001
1.081225e+003, 4.234082e+001
1.081707e+003, 4.278556e+001
1.082189e+003, 4.312793e+001
1.082671e+003, 4.313058e+001
1.083153e+003, 4.313384e+001
1.083635e+003, 4.334667e+001
1.084118e+003, 4.369002e+001
1.084600e+003, 4.412638e+001
1.085082e+003, 4.459402e+001
1.085564e+003, 4.493856e+001
1.086046e+003, 4.509676e+001
1.086528e+003, 4.524221e+001
1.087010e+003, 4.552473e+001
1.087492e+003, 4.572316e+001
1.087975e+003, 4.568947e+001
1.088457e+003, 4.553185e+001
1.088939e+003, 4.529058e+001
1.089421e+003, 4.503835e+001
1.089903e+003, 4.493663e+001
1.090385e+003, 4.503854e+001
1.090867e+003, 4.506691e+001
1.091349e+003, 4.492147e+001
1.091832e+003, 4.467286e+001
1.092314e+003, 4.433558e+001
1.092796e+003, 4.392543e+001
1.093278e+003, 4.342308e+001
1.093760e+003, 4.287120e+001
1.094242e+003, 4.234041e+001
1.094724e+003, 4.184370e+001
1.095206e+003, 4.135548e+001
1.095688e+003, 4.087032e+001
1.096171e+003, 4.039132e+001
1.096653e+003, 3.988643e+001
1.097135e+003, 3.942287e+001
1.097617e+003, 3.905331e+001
1.098099e+003, 3.874992e+001
1.098581e+003, 3.846441e+001
1.099063e+003, 3.819286e+001
1.099545e+003, 3.796729e+001
1.100027e+003, 3.787859e+001
1.100510e+003, 3.769188e+001
1.100992e+003, 3.730411e+001
1.101474e+003, 3.685146e+001
1.101956e+003, 3.626192e+001
1.102438e+003, 3.575044e+001
1.102920e+003, 3.562684e+001
1.103402e+003, 3.582410e+001
1.103884e+003, 3.593116e+001
1.104367e+003, 3.586137e+001
1.104849e+003, 3.575570e+001
1.105331e+003, 3.562624e+001
1.105813e+003, 3.548026e+001
1.106295e+003, 3.526262e+001
1.106777e+003, 3.507890e+001
1.107259e+003, 3.510912e+001
1.107741e+003, 3.524190e+001
1.108224e+003, 3.512660e+001
1.108706e+003, 3.464331e+001
1.109188e+003, 3.429033e+001
1.109670e+003, 3.426460e+001
1.110152e+003, 3.416013e+001
1.110634e+003, 3.386116e+001
1.111116e+003, 3.347709e+001
1.111598e+003, 3.293500e+001
1.112080e+003, 3.241102e+001
1.112563e+003, 3.232392e+001
1.113045e+003, 3.276229e+001
1.113527e+003, 3.284891e+001
1.114009e+003, 3.228686e+001
1.114491e+003, 3.185684e+001
1.114973e+003, 3.170234e+001
1.115455e+003, 3.160033e+001
1.115937e+003, 3.145924e+001
1.116419e+003, 3.130395e+001
1.116902e+003, 3.117443e+001
1.117384e+003, 3.106592e+001
1.117866e+003, 3.090933e+001
1.118348e+003, 3.065692e+001
1.118830e+003, 3.046644e+001
1.119312e+003, 3.034182e+001
1.119794e+003, 3.028778e+001
1.120276e+003, 3.035067e+001
1.120759e+003, 3.041422e+001
1.121241e+003, 3.036527e+001
1.121723e+003, 3.023074e+001
1.122205e+003, 3.011049e+001
1.122687e+003, 3.002062e+001
1.123169e+003, 2.985754e+001
1.123651e+003, 2.958611e+001
1.124133e+003, 2.935248e+001
1.124615e+003, 2.918691e+001
1.125098e+003, 2.907882e+001
1.125580e+003, 2.901484e+001
1.126062e+003, 2.901959e+001
1.126544e+003, 2.917032e+001
1.127026e+003, 2.946005e+001
1.127508e+003, 2.957992e+001
1.127990e+003, 2.952981e+001
1.128472e+003, 2.924956e+001
1.128954e+003, 2.867571e+001
1.129437e+003, 2.829903e+001
1.129919e+003, 2.839399e+001
1.130401e+003, 2.859631e+001
1.130883e+003, 2.842783e+001
1.131365e+003, 2.802118e+001
1.131847e+003, 2.794571e+001
1.132329e+003, 2.817970e+001
1.132811e+003, 2.831577e+001
1.133294e+003, 2.832354e+001
1.133776e+003, 2.822362e+001
1.134258e+003, 2.802218e+001
1.134740e+003, 2.794507e+001
1.135222e+003, 2.821708e+001
1.135704e+003, 2.857929e+001
1.136186e+003, 2.845658e+001
1.136668e+003, 2.798954e+001
1.137151e+003, 2.771998e+001
1.137633e+003, 2.764086e+001
1.138115e+003, 2.766256e+001
1.138597e+003, 2.775137e+001
1.139079e+003, 2.783493e+001
1.139561e+003, 2.787352e+001
1.140043e+003, 2.787564e+001
1.140525e+003, 2.782746e+001
1.141007e+003, 2.776656e+001
1.141490e+003, 2.778221e+001
1.141972e+003, 2.783528e+001
1.142454e+003, 2.782031e+001
1.142936e+003, 2.775416e+001
1.143418e+003, 2.775424e+001
1.143900e+003, 2.785100e+001
1.144382e+003, 2.792586e+001
1.144864e+003, 2.788904e+001
1.145346e+003, 2.779036e+001
1.145829e+003, 2.761072e+001
1.146311e+003, 2.745809e+001
1.146793e+003, 2.750659e+001
1.147275e+003, 2.767652e+001
1.147757e+003, 2.783276e+001
1.148239e+003, 2.793065e+001
1.148721e+003, 2.791988e+001
1.149203e+003, 2.775237e+001
1.149686e+003, 2.759506e+001
1.150168e+003, 2.759265e+001
1.150650e+003, 2.759856e+001
1.151132e+003, 2.748597e+001
1.151614e+003, 2.733667e+001
1.152096e+003, 2.722404e+001
1.152578e+003, 2.716423e+001
1.153060e+003, 2.718010e+001
1.153542e+003, 2.727937e+001
1.154025e+003, 2.735939e+001
1.154507e+003, 2.731840e+001
1.154989e+003, 2.734474e+001
1.155471e+003, 2.768770e+001
1.155953e+003, 2.792167e+001
1.156435e+003, 2.762782e+001
1.156917e+003, 2.714188e+001
1.157399e+003, 2.690196e+001
1.157881e+003, 2.693106e+001
1.158364e+003, 2.711401e+001
1.158846e+003, 2.762738e+001
1.159328e+003, 2.793515e+001
1.159810e+003, 2.793275e+001
1.160292e+003, 2.781202e+001
1.160774e+003, 2.755560e+001
1.161256e+003, 2.727777e+001
1.161738e+003, 2.702020e+001
1.162221e+003, 2.683084e+001
1.162703e+003, 2.684209e+001
1.163185e+003, 2.708395e+001
1.163667e+003, 2.729979e+001
1.164149e+003, 2.757486e+001
1.164631e+003, 2.751990e+001
1.165113e+003, 2.689682e+001
1.165595e+003, 2.648956e+001
1.166078e+003, 2.677498e+001
1.166560e+003, 2.723752e+001
1.167042e+003, 2.720696e+001
1.167524e+003, 2.682538e+001
1.168006e+003, 2.680796e+001
1.168488e+003, 2.717476e+001
1.168970e+003, 2.729528e+001
1.169452e+003, 2.713027e+001
1.169934e+003, 2.697046e+001
1.170417e+003, 2.689989e+001
1.170899e+003, 2.683559e+001
1.171381e+003, 2.671656e+001
1.171863e+003, 2.657431e+001
1.172345e+003, 2.645149e+001
1.172827e+003, 2.635185e+001
1.173309e+003, 2.629649e+001
1.173791e+003, 2.627717e+001
1.174273e+003, 2.624580e+001
1.174756e+003, 2.621101e+001
1.175238e+003, 2.628790e+001
1.175720e+003, 2.650738e+001
1.176202e+003, 2.662759e+001
1.176684e+003, 2.637109e+001
1.177166e+003, 2.604821e+001
1.177648e+003, 2.610239e+001
1.178130e+003, 2.630022e+001
1.178613e+003, 2.630892e+001
1.179095e+003, 2.617960e+001
1.179577e+003, 2.605582e+001
1.180059e+003, 2.596229e+001
1.180541e+003, 2.583258e+001
1.181023e+003, 2.561104e+001
1.181505e+003, 2.552721e+001
1.181987e+003, 2.588766e+001
1.182469e+003, 2.623346e+001
1.182952e+003, 2.625101e+001
1.183434e+003, 2.611292e+001
1.183916e+003, 2.588774e+001
1.184398e+003, 2.568804e+001
1.184880e+003, 2.575083e+001
1.185362e+003, 2.609509e+001
1.185844e+003, 2.628605e+001
1.186326e+003, 2.615131e+001
1.186808e+003, 2.596750e+001
1.187291e+003, 2.567884e+001
1.187773e+003, 2.547677e+001
1.188255e+003, 2.549883e+001
1.188737e+003, 2.559928e+001
1.189219e+003, 2.566931e+001
1.189701e+003, 2.569828e+001
1.190183e+003, 2.564343e+001
1.190665e+003, 2.547516e+001
1.191148e+003, 2.537445e+001
1.191630e+003, 2.534168e+001
1.192112e+003, 2.538593e+001
1.192594e+003, 2.554382e+001
1.193076e+003, 2.567638e+001
1.193558e+003, 2.571249e+001
1.194040e+003, 2.568411e+001
1.194522e+003, 2.562347e+001
1.195005e+003, 2.554163e+001
1.195487e+003, 2.547787e+001
1.195969e+003, 2.543333e+001
1.196451e+003, 2.545244e+001
1.196933e+003, 2.553219e+001
1.197415e+003, 2.556346e+001
1.197897e+003, 2.551793e+001
1.198379e+003, 2.541263e+001
1.198861e+003, 2.525248e+001
1.199344e+003, 2.510044e+001
1.199826e+003, 2.503628e+001
1.200308e+003, 2.504278e+001
1.200790e+003, 2.510663e+001
1.201272e+003, 2.520325e+001
1.201754e+003, 2.530878e+001
1.202236e+003, 2.539153e+001
1.202718e+003, 2.533504e+001
1.203200e+003, 2.513828e+001
1.203683e+003, 2.504917e+001
1.204165e+003, 2.526825e+001
1.204647e+003, 2.549118e+001
1.205129e+003, 2.550366e+001
1.205611e+003, 2.540766e+001
1.206093e+003, 2.522310e+001
1.206575e+003, 2.503070e+001
1.207057e+003, 2.492490e+001
1.207540e+003, 2.489130e+001
1.208022e+003, 2.483799e+001
1.208504e+003, 2.473398e+001
1.208986e+003, 2.478921e+001
1.209468e+003, 2.529699e+001
1.209950e+003, 2.560508e+001
1.210432e+003, 2.539203e+001
1.210914e+003, 2.515862e+001
1.211396e+003, 2.523749e+001
1.211879e+003, 2.534892e+001
1.212361e+003, 2.512592e+001
1.212843e+003, 2.470214e+001
1.213325e+003, 2.464908e+001
1.213807e+003, 2.509457e+001
1.214289e+003, 2.526976e+001
1.214771e+003, 2.507913e+001
1.215253e+003, 2.501697e+001
1.215735e+003, 2.520889e+001
1.216218e+003, 2.540163e+001
1.216700e+003, 2.546343e+001
1.217182e+003, 2.543411e+001
1.217664e+003, 2.534677e+001
1.218146e+003, 2.523424e+001
1.218628e+003, 2.522649e+001
1.219110e+003, 2.528919e+001
1.219592e+003, 2.521898e+001
1.220075e+003, 2.503836e+001
1.220557e+003, 2.492323e+001
1.221039e+003, 2.490853e+001
1.221521e+003, 2.493574e+001
1.222003e+003, 2.497812e+001
1.222485e+003, 2.493030e+001
1.222967e+003, 2.452499e+001
1.223449e+003, 2.413444e+001
1.223932e+003, 2.433850e+001
1.224414e+003, 2.470279e+001
1.224896e+003, 2.457440e+001
1.225378e+003, 2.417920e+001
1.225860e+003, 2.410066e+001
1.226342e+003, 2.438245e+001
1.226824e+003, 2.455845e+001
1.227306e+003, 2.440339e+001
1.227788e+003, 2.431805e+001
1.228271e+003, 2.460601e+001
1.228753e+003, 2.477114e+001
1.229235e+003, 2.447446e+001
1.229717e+003, 2.409581e+001
1.230199e+003, 2.388912e+001
1.230681e+003, 2.383517e+001
1.231163e+003, 2.390736e+001
1.231645e+003, 2.410140e+001
1.232127e+003, 2.422061e+001
1.232610e+003, 2.425419e+001
1.233092e+003, 2.423130e+001
1.233574e+003, 2.411389e+001
1.234056e+003, 2.410554e+001
1.234538e+003, 2.430923e+001
1.235020e+003, 2.441898e+001
1.235502e+003, 2.417487e+001
1.235984e+003, 2.385601e+001
1.236467e+003, 2.401497e+001
1.236949e+003, 2.448299e+001
1.237431e+003, 2.448868e+001
1.237913e+003, 2.414606e+001
1.238395e+003, 2.393412e+001
1.238877e+003, 2.389592e+001
1.239359e+003, 2.399376e+001
1.239841e+003, 2.418285e+001
1.240323e+003, 2.425580e+001
1.240806e+003, 2.406121e+001
1.241288e+003, 2.380025e+001
1.241770e+003, 2.360373e+001
1.242252e+003, 2.349776e+001
1.242734e+003, 2.357596e+001
1.243216e+003, 2.370626e+001
1.243698e+003, 2.373136e+001
1.244180e+003, 2.367312e+001
1.244662e+003, 2.358836e+001
1.245145e+003, 2.349624e+001
1.245627e+003, 2.348343e+001
1.246109e+003, 2.360833e+001
1.246591e+003, 2.374807e+001
1.247073e+003, 2.397540e+001
1.247555e+003, 2.408569e+001
1.248037e+003, 2.394681e+001
1.248519e+003, 2.374543e+001
1.249002e+003, 2.359272e+001
1.249484e+003, 2.347940e+001
1.249966e+003, 2.338393e+001
1.250448e+003, 2.330886e+001
1.250930e+003, 2.331217e+001
1.251412e+003, 2.340826e+001
1.251894e+003, 2.340881e+001
1.252376e+003, 2.329505e+001
1.252859e+003, 2.320958e+001
1.253341e+003, 2.319583e+001
1.253823e+003, 2.326045e+001
1.254305e+003, 2.341875e+001
1.254787e+003, 2.354749e+001
1.255269e+003, 2.342535e+001
1.255751e+003, 2.319636e+001
1.256233e+003, 2.311407e+001
1.256715e+003, 2.313151e+001
1.257198e+003, 2.316675e+001
1.257680e+003, 2.322025e+001
1.258162e+003, 2.334377e+001
1.258644e+003, 2.352524e+001
1.259126e+003, 2.365418e+001
1.259608e+003, 2.369622e+001
1.260090e+003, 2.363076e+001
1.260572e+003, 2.335106e+001
1.261054e+003, 2.308986e+001
1.261537e+003, 2.291702e+001
1.262019e+003, 2.284821e+001
1.262501e+003, 2.293942e+001
1.262983e+003, 2.311354e+001
1.263465e+003, 2.326389e+001
1.263947e+003, 2.338778e+001
1.264429e+003, 2.348127e+001
1.264911e+003, 2.356170e+001
1.265394e+003, 2.354064e+001
1.265876e+003, 2.339264e+001
1.266358e+003, 2.324839e+001
1.266840e+003, 2.313179e+001
1.267322e+003, 2.306922e+001
1.267804e+003, 2.308093e+001
1.268286e+003, 2.310027e+001
1.268768e+003, 2.304891e+001
1.269250e+003, 2.294325e+001
1.269733e+003, 2.277724e+001
1.270215e+003, 2.260533e+001
1.270697e+003, 2.256539e+001
1.271179e+003, 2.263859e+001
1.271661e+003, 2.281270e+001
1.272143e+003, 2.302695e+001
1.272625e+003, 2.306487e+001
1.273107e+003, 2.284621e+001
1.273589e+003, 2.270181e+001
1.274072e+003, 2.292557e+001
1.274554e+003, 2.313863e+001
1.275036e+003, 2.312760e+001
1.275518e+003, 2.307146e+001
1.276000e+003, 2.305125e+001
1.276482e+003, 2.307881e+001
1.276964e+003, 2.322087e+001
1.277446e+003, 2.340828e+001
1.277929e+003, 2.340415e+001
1.278411e+003, 2.318023e+001
1.278893e+003, 2.306564e+001
1.279375e+003, 2.310722e+001
1.279857e+003, 2.305092e+001
1.280339e+003, 2.281382e+001
1.280821e+003, 2.285148e+001
1.281303e+003, 2.336533e+001
1.281786e+003, 2.386099e+001
1.282268e+003, 2.397059e+001
##END=



