##NAMES=Wolfeite
##RRUFFID=R060545
##IDEAL CHEMISTRY=Fe^2+^_2_PO_4_(OH)
##LOCALITY=Big Fish River, Yukon Territory, Canada
##OWNER=RRUFF
##SOURCE=Michael Scott
##DESCRIPTION=Orange-brown fragment
##STATUS=The identification of this mineral is confirmed by single-crystal X-ray diffraction and chemical analysis.
##URL=rruff.info/R060545
##MEASURED CHEMISTRY=(Fe^2+^_1.72_Mg_0.22_Mn_0.06_)_Σ=2_P_1.00_O_4_((OH)_0.87_F_0.13_)_Σ=1_; (OH) estimated by difference and charge balance
9.059570e+001, 1.015730e+003
9.107782e+001, 1.015043e+003
9.155994e+001, 1.014849e+003
9.204205e+001, 1.016330e+003
9.252417e+001, 1.017457e+003
9.300629e+001, 1.017436e+003
9.348840e+001, 1.010836e+003
9.397052e+001, 9.918155e+002
9.445264e+001, 9.592963e+002
9.493475e+001, 9.255768e+002
9.541687e+001, 8.945525e+002
9.589898e+001, 8.672834e+002
9.638110e+001, 8.425412e+002
9.686321e+001, 8.192853e+002
9.734533e+001, 7.964648e+002
9.782745e+001, 7.726945e+002
9.830956e+001, 7.508411e+002
9.879168e+001, 7.298448e+002
9.927380e+001, 7.112556e+002
9.975591e+001, 6.957711e+002
1.002380e+002, 6.827089e+002
1.007201e+002, 6.708531e+002
1.012023e+002, 6.598546e+002
1.016844e+002, 6.493116e+002
1.021665e+002, 6.379573e+002
1.026486e+002, 6.245366e+002
1.031307e+002, 6.109611e+002
1.036128e+002, 5.987596e+002
1.040950e+002, 5.877343e+002
1.045771e+002, 5.784200e+002
1.050592e+002, 5.718571e+002
1.055413e+002, 5.669177e+002
1.060234e+002, 5.621754e+002
1.065055e+002, 5.566880e+002
1.069877e+002, 5.508060e+002
1.074698e+002, 5.461730e+002
1.079519e+002, 5.442734e+002
1.084340e+002, 5.417216e+002
1.089161e+002, 5.372551e+002
1.093982e+002, 5.310505e+002
1.098804e+002, 5.236921e+002
1.103625e+002, 5.152034e+002
1.108446e+002, 5.050070e+002
1.113267e+002, 4.969227e+002
1.118088e+002, 4.918183e+002
1.122909e+002, 4.878545e+002
1.127731e+002, 4.843813e+002
1.132552e+002, 4.812325e+002
1.137373e+002, 4.784694e+002
1.142194e+002, 4.762423e+002
1.147015e+002, 4.749669e+002
1.151836e+002, 4.734820e+002
1.156658e+002, 4.718993e+002
1.161479e+002, 4.700697e+002
1.166300e+002, 4.678067e+002
1.171121e+002, 4.650275e+002
1.175942e+002, 4.618780e+002
1.180763e+002, 4.586748e+002
1.185584e+002, 4.553968e+002
1.190406e+002, 4.521120e+002
1.195227e+002, 4.489402e+002
1.200048e+002, 4.457980e+002
1.204869e+002, 4.422635e+002
1.209690e+002, 4.376310e+002
1.214511e+002, 4.330112e+002
1.219333e+002, 4.304056e+002
1.224154e+002, 4.305508e+002
1.228975e+002, 4.314273e+002
1.233796e+002, 4.314362e+002
1.238617e+002, 4.305240e+002
1.243438e+002, 4.291881e+002
1.248260e+002, 4.275189e+002
1.253081e+002, 4.255854e+002
1.257902e+002, 4.233924e+002
1.262723e+002, 4.209595e+002
1.267544e+002, 4.182684e+002
1.272365e+002, 4.152018e+002
1.277187e+002, 4.112151e+002
1.282008e+002, 4.077949e+002
1.286829e+002, 4.056408e+002
1.291650e+002, 4.041578e+002
1.296471e+002, 4.026047e+002
1.301292e+002, 4.005402e+002
1.306114e+002, 3.979806e+002
1.310935e+002, 3.951328e+002
1.315756e+002, 3.912596e+002
1.320577e+002, 3.877837e+002
1.325398e+002, 3.855537e+002
1.330219e+002, 3.841043e+002
1.335041e+002, 3.823028e+002
1.339862e+002, 3.790830e+002
1.344683e+002, 3.741186e+002
1.349504e+002, 3.697387e+002
1.354325e+002, 3.657964e+002
1.359146e+002, 3.624002e+002
1.363968e+002, 3.598668e+002
1.368789e+002, 3.581295e+002
1.373610e+002, 3.565877e+002
1.378431e+002, 3.546138e+002
1.383252e+002, 3.521140e+002
1.388073e+002, 3.494589e+002
1.392895e+002, 3.461399e+002
1.397716e+002, 3.428692e+002
1.402537e+002, 3.407223e+002
1.407358e+002, 3.401558e+002
1.412179e+002, 3.398879e+002
1.417000e+002, 3.382279e+002
1.421821e+002, 3.353387e+002
1.426643e+002, 3.320985e+002
1.431464e+002, 3.285000e+002
1.436285e+002, 3.247520e+002
1.441106e+002, 3.216519e+002
1.445927e+002, 3.197558e+002
1.450748e+002, 3.181620e+002
1.455570e+002, 3.158856e+002
1.460391e+002, 3.129305e+002
1.465212e+002, 3.101515e+002
1.470033e+002, 3.084745e+002
1.474854e+002, 3.080425e+002
1.479675e+002, 3.072858e+002
1.484497e+002, 3.058681e+002
1.489318e+002, 3.040269e+002
1.494139e+002, 3.016899e+002
1.498960e+002, 2.988871e+002
1.503781e+002, 2.959513e+002
1.508602e+002, 2.933354e+002
1.513424e+002, 2.908754e+002
1.518245e+002, 2.891396e+002
1.523066e+002, 2.885776e+002
1.527887e+002, 2.883690e+002
1.532708e+002, 2.879108e+002
1.537529e+002, 2.869734e+002
1.542351e+002, 2.856747e+002
1.547172e+002, 2.842827e+002
1.551993e+002, 2.819254e+002
1.556814e+002, 2.806234e+002
1.561635e+002, 2.814969e+002
1.566456e+002, 2.831609e+002
1.571278e+002, 2.839584e+002
1.576099e+002, 2.830466e+002
1.580920e+002, 2.807731e+002
1.585741e+002, 2.785536e+002
1.590562e+002, 2.760293e+002
1.595383e+002, 2.739294e+002
1.600205e+002, 2.726920e+002
1.605026e+002, 2.720418e+002
1.609847e+002, 2.713621e+002
1.614668e+002, 2.703258e+002
1.619489e+002, 2.689683e+002
1.624310e+002, 2.675587e+002
1.629131e+002, 2.659086e+002
1.633953e+002, 2.643877e+002
1.638774e+002, 2.634992e+002
1.643595e+002, 2.631440e+002
1.648416e+002, 2.623041e+002
1.653237e+002, 2.599899e+002
1.658058e+002, 2.568087e+002
1.662880e+002, 2.542045e+002
1.667701e+002, 2.524753e+002
1.672522e+002, 2.512529e+002
1.677343e+002, 2.502696e+002
1.682164e+002, 2.496113e+002
1.686985e+002, 2.487912e+002
1.691807e+002, 2.472920e+002
1.696628e+002, 2.455186e+002
1.701449e+002, 2.439477e+002
1.706270e+002, 2.427757e+002
1.711091e+002, 2.419110e+002
1.715912e+002, 2.412133e+002
1.720734e+002, 2.409092e+002
1.725555e+002, 2.403326e+002
1.730376e+002, 2.390115e+002
1.735197e+002, 2.373390e+002
1.740018e+002, 2.358834e+002
1.744839e+002, 2.350408e+002
1.749661e+002, 2.346857e+002
1.754482e+002, 2.340567e+002
1.759303e+002, 2.329155e+002
1.764124e+002, 2.317413e+002
1.768945e+002, 2.305760e+002
1.773766e+002, 2.294760e+002
1.778588e+002, 2.285148e+002
1.783409e+002, 2.277281e+002
1.788230e+002, 2.271142e+002
1.793051e+002, 2.267998e+002
1.797872e+002, 2.272068e+002
1.802693e+002, 2.274964e+002
1.807515e+002, 2.274366e+002
1.812336e+002, 2.270439e+002
1.817157e+002, 2.264172e+002
1.821978e+002, 2.256115e+002
1.826799e+002, 2.245928e+002
1.831620e+002, 2.237347e+002
1.836441e+002, 2.230701e+002
1.841263e+002, 2.224922e+002
1.846084e+002, 2.220934e+002
1.850905e+002, 2.217968e+002
1.855726e+002, 2.212738e+002
1.860547e+002, 2.201357e+002
1.865368e+002, 2.182547e+002
1.870190e+002, 2.169893e+002
1.875011e+002, 2.167303e+002
1.879832e+002, 2.167885e+002
1.884653e+002, 2.167381e+002
1.889474e+002, 2.165231e+002
1.894296e+002, 2.161830e+002
1.899117e+002, 2.157727e+002
1.903938e+002, 2.152809e+002
1.908759e+002, 2.145518e+002
1.913580e+002, 2.131707e+002
1.918401e+002, 2.117295e+002
1.923223e+002, 2.109745e+002
1.928044e+002, 2.110735e+002
1.932865e+002, 2.114165e+002
1.937686e+002, 2.115258e+002
1.942507e+002, 2.114366e+002
1.947328e+002, 2.111550e+002
1.952150e+002, 2.104932e+002
1.956971e+002, 2.096676e+002
1.961792e+002, 2.091726e+002
1.966613e+002, 2.092243e+002
1.971434e+002, 2.092093e+002
1.976255e+002, 2.085344e+002
1.981077e+002, 2.074196e+002
1.985898e+002, 2.064357e+002
1.990719e+002, 2.060083e+002
1.995540e+002, 2.059834e+002
2.000361e+002, 2.056558e+002
2.005182e+002, 2.046879e+002
2.010004e+002, 2.038755e+002
2.014825e+002, 2.037398e+002
2.019646e+002, 2.040865e+002
2.024467e+002, 2.044391e+002
2.029288e+002, 2.045387e+002
2.034109e+002, 2.043846e+002
2.038930e+002, 2.038989e+002
2.043752e+002, 2.025116e+002
2.048573e+002, 2.013958e+002
2.053394e+002, 2.012090e+002
2.058215e+002, 2.016790e+002
2.063036e+002, 2.021190e+002
2.067857e+002, 2.019438e+002
2.072679e+002, 2.011180e+002
2.077500e+002, 2.003742e+002
2.082321e+002, 1.998060e+002
2.087142e+002, 1.992377e+002
2.091963e+002, 1.986064e+002
2.096784e+002, 1.979261e+002
2.101606e+002, 1.972356e+002
2.106427e+002, 1.965414e+002
2.111248e+002, 1.958148e+002
2.116069e+002, 1.953819e+002
2.120890e+002, 1.955264e+002
2.125711e+002, 1.956704e+002
2.130533e+002, 1.956204e+002
2.135354e+002, 1.953662e+002
2.140175e+002, 1.949596e+002
2.144996e+002, 1.944172e+002
2.149817e+002, 1.936850e+002
2.154638e+002, 1.932214e+002
2.159460e+002, 1.933631e+002
2.164281e+002, 1.934159e+002
2.169102e+002, 1.929943e+002
2.173923e+002, 1.921325e+002
2.178744e+002, 1.910955e+002
2.183565e+002, 1.900723e+002
2.188387e+002, 1.890409e+002
2.193208e+002, 1.884639e+002
2.198029e+002, 1.887234e+002
2.202850e+002, 1.890661e+002
2.207671e+002, 1.889743e+002
2.212492e+002, 1.884639e+002
2.217314e+002, 1.879838e+002
2.222135e+002, 1.880188e+002
2.226956e+002, 1.885885e+002
2.231777e+002, 1.884726e+002
2.236598e+002, 1.869659e+002
2.241419e+002, 1.852976e+002
2.246240e+002, 1.844076e+002
2.251062e+002, 1.843313e+002
2.255883e+002, 1.845227e+002
2.260704e+002, 1.846075e+002
2.265525e+002, 1.845908e+002
2.270346e+002, 1.845608e+002
2.275167e+002, 1.846821e+002
2.279989e+002, 1.846929e+002
2.284810e+002, 1.842500e+002
2.289631e+002, 1.833247e+002
2.294452e+002, 1.824040e+002
2.299273e+002, 1.818484e+002
2.304094e+002, 1.815806e+002
2.308916e+002, 1.813776e+002
2.313737e+002, 1.814263e+002
2.318558e+002, 1.814031e+002
2.323379e+002, 1.807951e+002
2.328200e+002, 1.794994e+002
2.333021e+002, 1.783398e+002
2.337843e+002, 1.779209e+002
2.342664e+002, 1.779700e+002
2.347485e+002, 1.781513e+002
2.352306e+002, 1.786113e+002
2.357127e+002, 1.789731e+002
2.361948e+002, 1.785719e+002
2.366770e+002, 1.771883e+002
2.371591e+002, 1.759441e+002
2.376412e+002, 1.754866e+002
2.381233e+002, 1.754682e+002
2.386054e+002, 1.755972e+002
2.390875e+002, 1.758830e+002
2.395697e+002, 1.761357e+002
2.400518e+002, 1.759808e+002
2.405339e+002, 1.752592e+002
2.410160e+002, 1.746384e+002
2.414981e+002, 1.744892e+002
2.419802e+002, 1.745144e+002
2.424624e+002, 1.744464e+002
2.429445e+002, 1.741906e+002
2.434266e+002, 1.738174e+002
2.439087e+002, 1.734278e+002
2.443908e+002, 1.729969e+002
2.448729e+002, 1.726204e+002
2.453550e+002, 1.723799e+002
2.458372e+002, 1.721722e+002
2.463193e+002, 1.718834e+002
2.468014e+002, 1.714678e+002
2.472835e+002, 1.710405e+002
2.477656e+002, 1.708431e+002
2.482477e+002, 1.710615e+002
2.487299e+002, 1.710542e+002
2.492120e+002, 1.706174e+002
2.496941e+002, 1.699993e+002
2.501762e+002, 1.693601e+002
2.506583e+002, 1.687517e+002
2.511404e+002, 1.681669e+002
2.516226e+002, 1.676096e+002
2.521047e+002, 1.671638e+002
2.525868e+002, 1.665507e+002
2.530689e+002, 1.654197e+002
2.535510e+002, 1.643489e+002
2.540331e+002, 1.638002e+002
2.545153e+002, 1.638697e+002
2.549974e+002, 1.642456e+002
2.554795e+002, 1.644953e+002
2.559616e+002, 1.646952e+002
2.564437e+002, 1.645666e+002
2.569258e+002, 1.637507e+002
2.574080e+002, 1.629248e+002
2.578901e+002, 1.626868e+002
2.583722e+002, 1.630651e+002
2.588543e+002, 1.634785e+002
2.593364e+002, 1.630606e+002
2.598185e+002, 1.612144e+002
2.603007e+002, 1.600602e+002
2.607828e+002, 1.597743e+002
2.612649e+002, 1.598713e+002
2.617470e+002, 1.602527e+002
2.622291e+002, 1.607970e+002
2.627112e+002, 1.612208e+002
2.631934e+002, 1.612007e+002
2.636755e+002, 1.606638e+002
2.641576e+002, 1.598855e+002
2.646397e+002, 1.586093e+002
2.651218e+002, 1.573559e+002
2.656039e+002, 1.564344e+002
2.660861e+002, 1.558389e+002
2.665682e+002, 1.553569e+002
2.670503e+002, 1.547715e+002
2.675324e+002, 1.540372e+002
2.680145e+002, 1.535262e+002
2.684966e+002, 1.534267e+002
2.689788e+002, 1.533317e+002
2.694609e+002, 1.530646e+002
2.699430e+002, 1.526237e+002
2.704251e+002, 1.520690e+002
2.709072e+002, 1.514250e+002
2.713893e+002, 1.506876e+002
2.718715e+002, 1.501200e+002
2.723536e+002, 1.497809e+002
2.728357e+002, 1.495138e+002
2.733178e+002, 1.493342e+002
2.737999e+002, 1.491838e+002
2.742820e+002, 1.489217e+002
2.747642e+002, 1.484359e+002
2.752463e+002, 1.477496e+002
2.757284e+002, 1.471590e+002
2.762105e+002, 1.465823e+002
2.766926e+002, 1.461560e+002
2.771747e+002, 1.459301e+002
2.776568e+002, 1.458874e+002
2.781389e+002, 1.460565e+002
2.786211e+002, 1.465146e+002
2.791032e+002, 1.471086e+002
2.795853e+002, 1.471374e+002
2.800674e+002, 1.460248e+002
2.805495e+002, 1.451426e+002
2.810316e+002, 1.450449e+002
2.815138e+002, 1.453829e+002
2.819959e+002, 1.455238e+002
2.824780e+002, 1.451798e+002
2.829601e+002, 1.445404e+002
2.834422e+002, 1.440969e+002
2.839243e+002, 1.439371e+002
2.844065e+002, 1.437681e+002
2.848886e+002, 1.436267e+002
2.853707e+002, 1.434170e+002
2.858528e+002, 1.428691e+002
2.863349e+002, 1.418382e+002
2.868170e+002, 1.407943e+002
2.872992e+002, 1.406327e+002
2.877813e+002, 1.416426e+002
2.882634e+002, 1.424577e+002
2.887455e+002, 1.429746e+002
2.892276e+002, 1.431407e+002
2.897097e+002, 1.427686e+002
2.901919e+002, 1.417986e+002
2.906740e+002, 1.406456e+002
2.911561e+002, 1.397619e+002
2.916382e+002, 1.391625e+002
2.921203e+002, 1.387974e+002
2.926024e+002, 1.387698e+002
2.930846e+002, 1.389153e+002
2.935667e+002, 1.391343e+002
2.940488e+002, 1.394090e+002
2.945309e+002, 1.396165e+002
2.950130e+002, 1.396275e+002
2.954951e+002, 1.394328e+002
2.959773e+002, 1.392395e+002
2.964594e+002, 1.390624e+002
2.969415e+002, 1.388826e+002
2.974236e+002, 1.387345e+002
2.979057e+002, 1.386028e+002
2.983878e+002, 1.383222e+002
2.988700e+002, 1.376864e+002
2.993521e+002, 1.367928e+002
2.998342e+002, 1.362422e+002
3.003163e+002, 1.363389e+002
3.007984e+002, 1.364968e+002
3.012805e+002, 1.364203e+002
3.017627e+002, 1.361228e+002
3.022448e+002, 1.356370e+002
3.027269e+002, 1.348590e+002
3.032090e+002, 1.339969e+002
3.036911e+002, 1.336764e+002
3.041732e+002, 1.343145e+002
3.046554e+002, 1.347666e+002
3.051375e+002, 1.343769e+002
3.056196e+002, 1.334032e+002
3.061017e+002, 1.324804e+002
3.065838e+002, 1.318133e+002
3.070659e+002, 1.313727e+002
3.075481e+002, 1.311586e+002
3.080302e+002, 1.312210e+002
3.085123e+002, 1.312523e+002
3.089944e+002, 1.311173e+002
3.094765e+002, 1.308951e+002
3.099586e+002, 1.307503e+002
3.104408e+002, 1.307478e+002
3.109229e+002, 1.307272e+002
3.114050e+002, 1.303881e+002
3.118871e+002, 1.297065e+002
3.123692e+002, 1.292594e+002
3.128513e+002, 1.293764e+002
3.133335e+002, 1.296864e+002
3.138156e+002, 1.297386e+002
3.142977e+002, 1.294626e+002
3.147798e+002, 1.290797e+002
3.152619e+002, 1.287787e+002
3.157440e+002, 1.285526e+002
3.162262e+002, 1.282984e+002
3.167083e+002, 1.278413e+002
3.171904e+002, 1.274710e+002
3.176725e+002, 1.275395e+002
3.181546e+002, 1.280173e+002
3.186367e+002, 1.284194e+002
3.191188e+002, 1.284079e+002
3.196010e+002, 1.280454e+002
3.200831e+002, 1.277404e+002
3.205652e+002, 1.275940e+002
3.210473e+002, 1.274027e+002
3.215294e+002, 1.270005e+002
3.220115e+002, 1.264475e+002
3.224937e+002, 1.259646e+002
3.229758e+002, 1.256900e+002
3.234579e+002, 1.255094e+002
3.239400e+002, 1.251177e+002
3.244221e+002, 1.243879e+002
3.249042e+002, 1.237564e+002
3.253864e+002, 1.234140e+002
3.258685e+002, 1.232687e+002
3.263506e+002, 1.231618e+002
3.268327e+002, 1.230557e+002
3.273148e+002, 1.229300e+002
3.277969e+002, 1.227216e+002
3.282791e+002, 1.223977e+002
3.287612e+002, 1.221861e+002
3.292433e+002, 1.223034e+002
3.297254e+002, 1.224752e+002
3.302075e+002, 1.222985e+002
3.306896e+002, 1.217038e+002
3.311718e+002, 1.211207e+002
3.316539e+002, 1.210660e+002
3.321360e+002, 1.215900e+002
3.326181e+002, 1.216649e+002
3.331002e+002, 1.207411e+002
3.335823e+002, 1.197512e+002
3.340645e+002, 1.195219e+002
3.345466e+002, 1.199806e+002
3.350287e+002, 1.203083e+002
3.355108e+002, 1.198757e+002
3.359929e+002, 1.188141e+002
3.364750e+002, 1.181638e+002
3.369572e+002, 1.180603e+002
3.374393e+002, 1.181597e+002
3.379214e+002, 1.185007e+002
3.384035e+002, 1.189404e+002
3.388856e+002, 1.190923e+002
3.393677e+002, 1.187254e+002
3.398499e+002, 1.180842e+002
3.403320e+002, 1.178501e+002
3.408141e+002, 1.181874e+002
3.412962e+002, 1.185583e+002
3.417783e+002, 1.190939e+002
3.422604e+002, 1.195253e+002
3.427426e+002, 1.193676e+002
3.432247e+002, 1.184819e+002
3.437068e+002, 1.174068e+002
3.441889e+002, 1.169129e+002
3.446710e+002, 1.173004e+002
3.451531e+002, 1.174364e+002
3.456353e+002, 1.170333e+002
3.461174e+002, 1.165729e+002
3.465995e+002, 1.164711e+002
3.470816e+002, 1.167319e+002
3.475637e+002, 1.170479e+002
3.480458e+002, 1.171522e+002
3.485280e+002, 1.170338e+002
3.490101e+002, 1.168695e+002
3.494922e+002, 1.166337e+002
3.499743e+002, 1.163873e+002
3.504564e+002, 1.162023e+002
3.509385e+002, 1.160308e+002
3.514207e+002, 1.157180e+002
3.519028e+002, 1.151455e+002
3.523849e+002, 1.144303e+002
3.528670e+002, 1.140821e+002
3.533491e+002, 1.144518e+002
3.538312e+002, 1.147516e+002
3.543134e+002, 1.149296e+002
3.547955e+002, 1.149728e+002
3.552776e+002, 1.148202e+002
3.557597e+002, 1.144579e+002
3.562418e+002, 1.140265e+002
3.567239e+002, 1.137684e+002
3.572061e+002, 1.138188e+002
3.576882e+002, 1.137720e+002
3.581703e+002, 1.134651e+002
3.586524e+002, 1.131899e+002
3.591345e+002, 1.132450e+002
3.596166e+002, 1.135887e+002
3.600987e+002, 1.138627e+002
3.605808e+002, 1.136789e+002
3.610630e+002, 1.129587e+002
3.615451e+002, 1.125450e+002
3.620272e+002, 1.127305e+002
3.625093e+002, 1.128974e+002
3.629914e+002, 1.128269e+002
3.634735e+002, 1.125866e+002
3.639557e+002, 1.123212e+002
3.644378e+002, 1.121117e+002
3.649199e+002, 1.119643e+002
3.654020e+002, 1.119138e+002
3.658841e+002, 1.121171e+002
3.663662e+002, 1.121990e+002
3.668484e+002, 1.120835e+002
3.673305e+002, 1.118507e+002
3.678126e+002, 1.115164e+002
3.682947e+002, 1.111046e+002
3.687768e+002, 1.107525e+002
3.692589e+002, 1.107436e+002
3.697411e+002, 1.113375e+002
3.702232e+002, 1.115558e+002
3.707053e+002, 1.111806e+002
3.711874e+002, 1.106058e+002
3.716695e+002, 1.098776e+002
3.721516e+002, 1.090996e+002
3.726338e+002, 1.084995e+002
3.731159e+002, 1.083092e+002
3.735980e+002, 1.085175e+002
3.740801e+002, 1.087574e+002
3.745622e+002, 1.090371e+002
3.750443e+002, 1.093426e+002
3.755265e+002, 1.097605e+002
3.760086e+002, 1.101806e+002
3.764907e+002, 1.104465e+002
3.769728e+002, 1.104939e+002
3.774549e+002, 1.103219e+002
3.779370e+002, 1.098215e+002
3.784192e+002, 1.087409e+002
3.789013e+002, 1.080557e+002
3.793834e+002, 1.083960e+002
3.798655e+002, 1.090107e+002
3.803476e+002, 1.093349e+002
3.808297e+002, 1.092570e+002
3.813119e+002, 1.090399e+002
3.817940e+002, 1.089058e+002
3.822761e+002, 1.088545e+002
3.827582e+002, 1.089143e+002
3.832403e+002, 1.092495e+002
3.837224e+002, 1.094987e+002
3.842046e+002, 1.092830e+002
3.846867e+002, 1.087516e+002
3.851688e+002, 1.084418e+002
3.856509e+002, 1.088626e+002
3.861330e+002, 1.096685e+002
3.866151e+002, 1.101198e+002
3.870973e+002, 1.102187e+002
3.875794e+002, 1.099372e+002
3.880615e+002, 1.087131e+002
3.885436e+002, 1.072384e+002
3.890257e+002, 1.065718e+002
3.895078e+002, 1.071641e+002
3.899900e+002, 1.081411e+002
3.904721e+002, 1.088814e+002
3.909542e+002, 1.093815e+002
3.914363e+002, 1.095487e+002
3.919184e+002, 1.092023e+002
3.924005e+002, 1.086901e+002
3.928827e+002, 1.085127e+002
3.933648e+002, 1.086872e+002
3.938469e+002, 1.088703e+002
3.943290e+002, 1.088945e+002
3.948111e+002, 1.088559e+002
3.952932e+002, 1.089150e+002
3.957754e+002, 1.091012e+002
3.962575e+002, 1.093231e+002
3.967396e+002, 1.095000e+002
3.972217e+002, 1.096393e+002
3.977038e+002, 1.098192e+002
3.981859e+002, 1.101844e+002
3.986681e+002, 1.104697e+002
3.991501e+002, 1.103340e+002
3.996323e+002, 1.099297e+002
4.001144e+002, 1.098663e+002
4.005965e+002, 1.105321e+002
4.010786e+002, 1.115985e+002
4.015607e+002, 1.120647e+002
4.020428e+002, 1.114939e+002
4.025250e+002, 1.111876e+002
4.030071e+002, 1.114665e+002
4.034892e+002, 1.120817e+002
4.039713e+002, 1.128092e+002
4.044534e+002, 1.135796e+002
4.049355e+002, 1.143267e+002
4.054177e+002, 1.149463e+002
4.058998e+002, 1.153616e+002
4.063819e+002, 1.160450e+002
4.068640e+002, 1.172183e+002
4.073461e+002, 1.184093e+002
4.078282e+002, 1.193595e+002
4.083104e+002, 1.201356e+002
4.087925e+002, 1.209766e+002
4.092746e+002, 1.220593e+002
4.097567e+002, 1.232831e+002
4.102388e+002, 1.241915e+002
4.107209e+002, 1.242447e+002
4.112031e+002, 1.246850e+002
4.116852e+002, 1.259278e+002
4.121673e+002, 1.274233e+002
4.126494e+002, 1.286194e+002
4.131315e+002, 1.293872e+002
4.136136e+002, 1.300285e+002
4.140958e+002, 1.309507e+002
4.145779e+002, 1.322333e+002
4.150600e+002, 1.334960e+002
4.155421e+002, 1.347172e+002
4.160242e+002, 1.359329e+002
4.165063e+002, 1.372408e+002
4.169885e+002, 1.385613e+002
4.174706e+002, 1.397079e+002
4.179527e+002, 1.405903e+002
4.184348e+002, 1.411982e+002
4.189169e+002, 1.414578e+002
4.193990e+002, 1.411948e+002
4.198812e+002, 1.409654e+002
4.203633e+002, 1.410921e+002
4.208454e+002, 1.412490e+002
4.213275e+002, 1.411530e+002
4.218096e+002, 1.407385e+002
4.222917e+002, 1.400645e+002
4.227739e+002, 1.389538e+002
4.232560e+002, 1.374553e+002
4.237381e+002, 1.366184e+002
4.242202e+002, 1.370186e+002
4.247023e+002, 1.375422e+002
4.251844e+002, 1.373939e+002
4.256666e+002, 1.366681e+002
4.261487e+002, 1.356824e+002
4.266308e+002, 1.344040e+002
4.271129e+002, 1.330142e+002
4.275950e+002, 1.318789e+002
4.280771e+002, 1.310198e+002
4.285593e+002, 1.299222e+002
4.290414e+002, 1.281675e+002
4.295235e+002, 1.260700e+002
4.300056e+002, 1.243792e+002
4.304877e+002, 1.232914e+002
4.309698e+002, 1.221667e+002
4.314520e+002, 1.204572e+002
4.319341e+002, 1.185294e+002
4.324162e+002, 1.172116e+002
4.328983e+002, 1.167721e+002
4.333804e+002, 1.165488e+002
4.338625e+002, 1.157334e+002
4.343447e+002, 1.142161e+002
4.348268e+002, 1.130118e+002
4.353089e+002, 1.124251e+002
4.357910e+002, 1.119285e+002
4.362731e+002, 1.111678e+002
4.367552e+002, 1.101900e+002
4.372374e+002, 1.092180e+002
4.377195e+002, 1.083769e+002
4.382016e+002, 1.076484e+002
4.386837e+002, 1.069798e+002
4.391658e+002, 1.064040e+002
4.396479e+002, 1.058459e+002
4.401301e+002, 1.052108e+002
4.406122e+002, 1.046446e+002
4.410943e+002, 1.043041e+002
4.415764e+002, 1.042131e+002
4.420585e+002, 1.042817e+002
4.425406e+002, 1.044589e+002
4.430227e+002, 1.048119e+002
4.435049e+002, 1.047877e+002
4.439870e+002, 1.039432e+002
4.444691e+002, 1.031776e+002
4.449512e+002, 1.027912e+002
4.454333e+002, 1.026683e+002
4.459154e+002, 1.025898e+002
4.463976e+002, 1.024475e+002
4.468797e+002, 1.022829e+002
4.473618e+002, 1.021544e+002
4.478439e+002, 1.019908e+002
4.483260e+002, 1.020780e+002
4.488081e+002, 1.030197e+002
4.492903e+002, 1.038241e+002
4.497724e+002, 1.036630e+002
4.502545e+002, 1.025921e+002
4.507366e+002, 1.015436e+002
4.512187e+002, 1.012486e+002
4.517008e+002, 1.015701e+002
4.521830e+002, 1.019697e+002
4.526651e+002, 1.024768e+002
4.531472e+002, 1.029586e+002
4.536293e+002, 1.032975e+002
4.541114e+002, 1.035699e+002
4.545935e+002, 1.039010e+002
4.550757e+002, 1.043827e+002
4.555578e+002, 1.047960e+002
4.560399e+002, 1.048545e+002
4.565220e+002, 1.046588e+002
4.570041e+002, 1.046734e+002
4.574862e+002, 1.050775e+002
4.579684e+002, 1.056356e+002
4.584505e+002, 1.061091e+002
4.589326e+002, 1.065139e+002
4.594147e+002, 1.066794e+002
4.598968e+002, 1.064668e+002
4.603789e+002, 1.060797e+002
4.608611e+002, 1.054910e+002
4.613432e+002, 1.048158e+002
4.618253e+002, 1.045864e+002
4.623074e+002, 1.051996e+002
4.627895e+002, 1.064376e+002
4.632716e+002, 1.074112e+002
4.637538e+002, 1.083332e+002
4.642359e+002, 1.087398e+002
4.647180e+002, 1.083208e+002
4.652001e+002, 1.075031e+002
4.656822e+002, 1.065195e+002
4.661643e+002, 1.055119e+002
4.666465e+002, 1.048913e+002
4.671286e+002, 1.052376e+002
4.676107e+002, 1.067460e+002
4.680928e+002, 1.073394e+002
4.685749e+002, 1.059480e+002
4.690570e+002, 1.047705e+002
4.695392e+002, 1.046272e+002
4.700213e+002, 1.050058e+002
4.705034e+002, 1.051288e+002
4.709855e+002, 1.046544e+002
4.714676e+002, 1.037948e+002
4.719497e+002, 1.027980e+002
4.724319e+002, 1.015219e+002
4.729140e+002, 1.007437e+002
4.733961e+002, 1.010111e+002
4.738782e+002, 1.014583e+002
4.743603e+002, 1.016791e+002
4.748424e+002, 1.016566e+002
4.753246e+002, 1.014664e+002
4.758067e+002, 1.010211e+002
4.762888e+002, 1.004849e+002
4.767709e+002, 1.003358e+002
4.772530e+002, 1.006853e+002
4.777351e+002, 1.007045e+002
4.782173e+002, 9.975563e+001
4.786994e+002, 9.837085e+001
4.791815e+002, 9.737039e+001
4.796636e+002, 9.680858e+001
4.801457e+002, 9.655180e+001
4.806278e+002, 9.689954e+001
4.811100e+002, 9.741639e+001
4.815920e+002, 9.718233e+001
4.820742e+002, 9.600898e+001
4.825563e+002, 9.469046e+001
4.830384e+002, 9.389595e+001
4.835205e+002, 9.364025e+001
4.840026e+002, 9.348370e+001
4.844847e+002, 9.364601e+001
4.849669e+002, 9.366431e+001
4.854490e+002, 9.323373e+001
4.859311e+002, 9.255418e+001
4.864132e+002, 9.192429e+001
4.868953e+002, 9.145638e+001
4.873774e+002, 9.121373e+001
4.878596e+002, 9.136002e+001
4.883417e+002, 9.223787e+001
4.888238e+002, 9.254899e+001
4.893059e+002, 9.185466e+001
4.897880e+002, 9.111235e+001
4.902701e+002, 9.072827e+001
4.907523e+002, 9.067722e+001
4.912344e+002, 9.081955e+001
4.917165e+002, 9.109507e+001
4.921986e+002, 9.144187e+001
4.926807e+002, 9.172527e+001
4.931628e+002, 9.202302e+001
4.936450e+002, 9.204041e+001
4.941271e+002, 9.140849e+001
4.946092e+002, 9.069544e+001
4.950913e+002, 9.024736e+001
4.955734e+002, 9.009223e+001
4.960555e+002, 9.009809e+001
4.965377e+002, 9.028438e+001
4.970198e+002, 9.055495e+001
4.975019e+002, 9.059616e+001
4.979840e+002, 9.033929e+001
4.984661e+002, 9.016071e+001
4.989482e+002, 9.041657e+001
4.994304e+002, 9.082138e+001
4.999125e+002, 9.081992e+001
5.003946e+002, 9.026189e+001
5.008767e+002, 8.959941e+001
5.013588e+002, 8.888703e+001
5.018409e+002, 8.826252e+001
5.023231e+002, 8.807995e+001
5.028052e+002, 8.841941e+001
5.032873e+002, 8.871835e+001
5.037694e+002, 8.833527e+001
5.042515e+002, 8.723489e+001
5.047336e+002, 8.690369e+001
5.052158e+002, 8.823730e+001
5.056979e+002, 8.925052e+001
5.061800e+002, 8.903748e+001
5.066621e+002, 8.811075e+001
5.071442e+002, 8.719262e+001
5.076263e+002, 8.655958e+001
5.081085e+002, 8.618840e+001
5.085906e+002, 8.608628e+001
5.090727e+002, 8.636386e+001
5.095548e+002, 8.650847e+001
5.100369e+002, 8.637521e+001
5.105190e+002, 8.625240e+001
5.110012e+002, 8.630875e+001
5.114833e+002, 8.644740e+001
5.119654e+002, 8.645550e+001
5.124475e+002, 8.620147e+001
5.129296e+002, 8.585136e+001
5.134117e+002, 8.571692e+001
5.138939e+002, 8.582549e+001
5.143760e+002, 8.595805e+001
5.148581e+002, 8.627443e+001
5.153402e+002, 8.637443e+001
5.158223e+002, 8.574706e+001
5.163044e+002, 8.452818e+001
5.167866e+002, 8.361846e+001
5.172687e+002, 8.357254e+001
5.177508e+002, 8.393574e+001
5.182329e+002, 8.416300e+001
5.187150e+002, 8.425292e+001
5.191971e+002, 8.435564e+001
5.196793e+002, 8.459278e+001
5.201614e+002, 8.482498e+001
5.206435e+002, 8.470597e+001
5.211256e+002, 8.417809e+001
5.216077e+002, 8.356141e+001
5.220898e+002, 8.265897e+001
5.225720e+002, 8.186418e+001
5.230541e+002, 8.162550e+001
5.235362e+002, 8.188541e+001
5.240183e+002, 8.219482e+001
5.245004e+002, 8.222287e+001
5.249825e+002, 8.204305e+001
5.254647e+002, 8.204196e+001
5.259468e+002, 8.238810e+001
5.264289e+002, 8.267928e+001
5.269110e+002, 8.294674e+001
5.273931e+002, 8.310539e+001
5.278752e+002, 8.303352e+001
5.283574e+002, 8.275262e+001
5.288395e+002, 8.244480e+001
5.293216e+002, 8.227178e+001
5.298037e+002, 8.221160e+001
5.302858e+002, 8.211996e+001
5.307679e+002, 8.196568e+001
5.312501e+002, 8.185336e+001
5.317322e+002, 8.186784e+001
5.322143e+002, 8.192879e+001
5.326964e+002, 8.194309e+001
5.331785e+002, 8.188570e+001
5.336606e+002, 8.186231e+001
5.341428e+002, 8.199406e+001
5.346249e+002, 8.219894e+001
5.351070e+002, 8.230849e+001
5.355891e+002, 8.230075e+001
5.360712e+002, 8.219048e+001
5.365533e+002, 8.192368e+001
5.370355e+002, 8.155956e+001
5.375176e+002, 8.145020e+001
5.379997e+002, 8.188212e+001
5.384818e+002, 8.219434e+001
5.389639e+002, 8.209492e+001
5.394460e+002, 8.182237e+001
5.399282e+002, 8.170989e+001
5.404103e+002, 8.180818e+001
5.408924e+002, 8.186351e+001
5.413745e+002, 8.156277e+001
5.418566e+002, 8.088444e+001
5.423387e+002, 8.060217e+001
5.428209e+002, 8.116525e+001
5.433029e+002, 8.160326e+001
5.437850e+002, 8.159164e+001
5.442672e+002, 8.141848e+001
5.447493e+002, 8.145119e+001
5.452314e+002, 8.177785e+001
5.457135e+002, 8.211999e+001
5.461956e+002, 8.205966e+001
5.466777e+002, 8.165654e+001
5.471599e+002, 8.167155e+001
5.476420e+002, 8.231973e+001
5.481241e+002, 8.301305e+001
5.486062e+002, 8.333756e+001
5.490883e+002, 8.347508e+001
5.495704e+002, 8.374715e+001
5.500526e+002, 8.434305e+001
5.505347e+002, 8.478415e+001
5.510168e+002, 8.456658e+001
5.514989e+002, 8.401486e+001
5.519810e+002, 8.384093e+001
5.524631e+002, 8.419874e+001
5.529453e+002, 8.471725e+001
5.534274e+002, 8.506492e+001
5.539095e+002, 8.524126e+001
5.543916e+002, 8.541808e+001
5.548737e+002, 8.550747e+001
5.553558e+002, 8.570035e+001
5.558380e+002, 8.614853e+001
5.563201e+002, 8.668535e+001
5.568022e+002, 8.710323e+001
5.572843e+002, 8.735144e+001
5.577664e+002, 8.751480e+001
5.582485e+002, 8.768674e+001
5.587307e+002, 8.786701e+001
5.592128e+002, 8.803085e+001
5.596949e+002, 8.811980e+001
5.601770e+002, 8.827909e+001
5.606591e+002, 8.858665e+001
5.611412e+002, 8.896925e+001
5.616234e+002, 8.938045e+001
5.621055e+002, 8.982107e+001
5.625876e+002, 9.013908e+001
5.630697e+002, 9.014286e+001
5.635518e+002, 8.991335e+001
5.640339e+002, 8.967435e+001
5.645161e+002, 8.941592e+001
5.649982e+002, 8.934063e+001
5.654803e+002, 8.969375e+001
5.659624e+002, 9.035509e+001
5.664445e+002, 9.076636e+001
5.669266e+002, 9.074353e+001
5.674088e+002, 9.073478e+001
5.678909e+002, 9.082639e+001
5.683730e+002, 9.104743e+001
5.688551e+002, 9.147237e+001
5.693372e+002, 9.209238e+001
5.698193e+002, 9.279508e+001
5.703015e+002, 9.348296e+001
5.707836e+002, 9.415445e+001
5.712657e+002, 9.473179e+001
5.717478e+002, 9.520435e+001
5.722299e+002, 9.558921e+001
5.727120e+002, 9.580885e+001
5.731942e+002, 9.599763e+001
5.736763e+002, 9.629081e+001
5.741584e+002, 9.670345e+001
5.746405e+002, 9.713245e+001
5.751226e+002, 9.752370e+001
5.756047e+002, 9.786146e+001
5.760869e+002, 9.803031e+001
5.765690e+002, 9.796195e+001
5.770511e+002, 9.802144e+001
5.775332e+002, 9.852585e+001
5.780153e+002, 9.917399e+001
5.784974e+002, 9.946252e+001
5.789796e+002, 9.930869e+001
5.794617e+002, 9.913449e+001
5.799438e+002, 9.907902e+001
5.804259e+002, 9.909818e+001
5.809080e+002, 9.912881e+001
5.813901e+002, 9.917590e+001
5.818723e+002, 9.931397e+001
5.823544e+002, 9.960423e+001
5.828365e+002, 9.999401e+001
5.833186e+002, 1.003042e+002
5.838007e+002, 1.004792e+002
5.842828e+002, 1.006584e+002
5.847650e+002, 1.008096e+002
5.852471e+002, 1.009960e+002
5.857292e+002, 1.012933e+002
5.862113e+002, 1.016675e+002
5.866934e+002, 1.020240e+002
5.871755e+002, 1.023237e+002
5.876577e+002, 1.025305e+002
5.881398e+002, 1.024674e+002
5.886219e+002, 1.020536e+002
5.891040e+002, 1.019378e+002
5.895861e+002, 1.024027e+002
5.900682e+002, 1.030858e+002
5.905504e+002, 1.037965e+002
5.910325e+002, 1.044813e+002
5.915146e+002, 1.047493e+002
5.919967e+002, 1.040288e+002
5.924788e+002, 1.032251e+002
5.929609e+002, 1.032178e+002
5.934431e+002, 1.037759e+002
5.939252e+002, 1.041917e+002
5.944073e+002, 1.042075e+002
5.948894e+002, 1.040177e+002
5.953715e+002, 1.039149e+002
5.958536e+002, 1.039937e+002
5.963358e+002, 1.037097e+002
5.968179e+002, 1.025295e+002
5.973000e+002, 1.016319e+002
5.977821e+002, 1.016465e+002
5.982642e+002, 1.021234e+002
5.987463e+002, 1.024507e+002
5.992285e+002, 1.024122e+002
5.997106e+002, 1.021029e+002
6.001927e+002, 1.015383e+002
6.006748e+002, 1.007315e+002
6.011569e+002, 1.001445e+002
6.016390e+002, 9.990505e+001
6.021212e+002, 9.965630e+001
6.026033e+002, 9.899919e+001
6.030854e+002, 9.826527e+001
6.035675e+002, 9.804151e+001
6.040496e+002, 9.857226e+001
6.045317e+002, 9.908446e+001
6.050139e+002, 9.922078e+001
6.054960e+002, 9.908567e+001
6.059781e+002, 9.870875e+001
6.064602e+002, 9.814564e+001
6.069423e+002, 9.777974e+001
6.074244e+002, 9.794714e+001
6.079066e+002, 9.847158e+001
6.083887e+002, 9.854637e+001
6.088708e+002, 9.772043e+001
6.093529e+002, 9.707613e+001
6.098350e+002, 9.686134e+001
6.103171e+002, 9.666799e+001
6.107993e+002, 9.607064e+001
6.112814e+002, 9.520502e+001
6.117635e+002, 9.461929e+001
6.122456e+002, 9.473176e+001
6.127277e+002, 9.521495e+001
6.132098e+002, 9.539772e+001
6.136920e+002, 9.526302e+001
6.141741e+002, 9.503112e+001
6.146562e+002, 9.476080e+001
6.151383e+002, 9.439904e+001
6.156204e+002, 9.389156e+001
6.161025e+002, 9.324796e+001
6.165847e+002, 9.249097e+001
6.170668e+002, 9.147697e+001
6.175489e+002, 9.049847e+001
6.180310e+002, 8.971748e+001
6.185131e+002, 8.911343e+001
6.189952e+002, 8.869064e+001
6.194774e+002, 8.844035e+001
6.199595e+002, 8.817854e+001
6.204416e+002, 8.766404e+001
6.209237e+002, 8.686622e+001
6.214058e+002, 8.626001e+001
6.218879e+002, 8.609021e+001
6.223701e+002, 8.581361e+001
6.228522e+002, 8.524308e+001
6.233343e+002, 8.455840e+001
6.238164e+002, 8.383524e+001
6.242985e+002, 8.313195e+001
6.247806e+002, 8.275113e+001
6.252628e+002, 8.338047e+001
6.257448e+002, 8.446109e+001
6.262269e+002, 8.428769e+001
6.267090e+002, 8.271513e+001
6.271912e+002, 8.122989e+001
6.276733e+002, 8.053799e+001
6.281554e+002, 8.029118e+001
6.286375e+002, 7.976382e+001
6.291196e+002, 7.880432e+001
6.296017e+002, 7.829862e+001
6.300839e+002, 7.874534e+001
6.305660e+002, 7.935475e+001
6.310481e+002, 7.956312e+001
6.315302e+002, 7.948606e+001
6.320123e+002, 7.956776e+001
6.324944e+002, 8.001249e+001
6.329766e+002, 8.044991e+001
6.334587e+002, 8.011363e+001
6.339408e+002, 7.873678e+001
6.344229e+002, 7.798698e+001
6.349050e+002, 7.846941e+001
6.353871e+002, 7.882378e+001
6.358693e+002, 7.824314e+001
6.363514e+002, 7.724046e+001
6.368335e+002, 7.660876e+001
6.373156e+002, 7.658006e+001
6.377977e+002, 7.673383e+001
6.382798e+002, 7.680583e+001
6.387620e+002, 7.684461e+001
6.392441e+002, 7.699817e+001
6.397262e+002, 7.727177e+001
6.402083e+002, 7.740977e+001
6.406904e+002, 7.723501e+001
6.411725e+002, 7.681506e+001
6.416547e+002, 7.636776e+001
6.421368e+002, 7.568300e+001
6.426189e+002, 7.529890e+001
6.431010e+002, 7.538750e+001
6.435831e+002, 7.562128e+001
6.440652e+002, 7.585644e+001
6.445474e+002, 7.605762e+001
6.450295e+002, 7.621982e+001
6.455116e+002, 7.634831e+001
6.459937e+002, 7.639565e+001
6.464758e+002, 7.621606e+001
6.469579e+002, 7.581280e+001
6.474401e+002, 7.558675e+001
6.479222e+002, 7.563419e+001
6.484043e+002, 7.579300e+001
6.488864e+002, 7.602042e+001
6.493685e+002, 7.626301e+001
6.498506e+002, 7.633162e+001
6.503328e+002, 7.600986e+001
6.508149e+002, 7.582700e+001
6.512970e+002, 7.622991e+001
6.517791e+002, 7.675346e+001
6.522612e+002, 7.678664e+001
6.527433e+002, 7.630981e+001
6.532255e+002, 7.571209e+001
6.537076e+002, 7.525035e+001
6.541897e+002, 7.495802e+001
6.546718e+002, 7.500970e+001
6.551539e+002, 7.562691e+001
6.556360e+002, 7.604873e+001
6.561182e+002, 7.591258e+001
6.566003e+002, 7.577575e+001
6.570824e+002, 7.605467e+001
6.575645e+002, 7.659718e+001
6.580466e+002, 7.690453e+001
6.585287e+002, 7.673556e+001
6.590109e+002, 7.635013e+001
6.594930e+002, 7.575721e+001
6.599751e+002, 7.515032e+001
6.604572e+002, 7.524109e+001
6.609393e+002, 7.620593e+001
6.614214e+002, 7.709608e+001
6.619036e+002, 7.700410e+001
6.623857e+002, 7.605637e+001
6.628678e+002, 7.562330e+001
6.633499e+002, 7.627336e+001
6.638320e+002, 7.669297e+001
6.643141e+002, 7.680994e+001
6.647963e+002, 7.662827e+001
6.652784e+002, 7.590749e+001
6.657605e+002, 7.485281e+001
6.662426e+002, 7.414291e+001
6.667247e+002, 7.427398e+001
6.672068e+002, 7.485242e+001
6.676890e+002, 7.524614e+001
6.681711e+002, 7.545403e+001
6.686532e+002, 7.534355e+001
6.691353e+002, 7.470273e+001
6.696174e+002, 7.418610e+001
6.700995e+002, 7.459371e+001
6.705817e+002, 7.579493e+001
6.710638e+002, 7.640386e+001
6.715459e+002, 7.597090e+001
6.720280e+002, 7.547076e+001
6.725101e+002, 7.506255e+001
6.729922e+002, 7.482979e+001
6.734744e+002, 7.492388e+001
6.739565e+002, 7.531150e+001
6.744386e+002, 7.577913e+001
6.749207e+002, 7.619402e+001
6.754028e+002, 7.652163e+001
6.758849e+002, 7.662476e+001
6.763671e+002, 7.645242e+001
6.768492e+002, 7.628210e+001
6.773313e+002, 7.618211e+001
6.778134e+002, 7.608073e+001
6.782955e+002, 7.587711e+001
6.787776e+002, 7.561785e+001
6.792598e+002, 7.548128e+001
6.797419e+002, 7.566842e+001
6.802240e+002, 7.578207e+001
6.807061e+002, 7.537741e+001
6.811882e+002, 7.482946e+001
6.816703e+002, 7.482986e+001
6.821525e+002, 7.543758e+001
6.826346e+002, 7.606786e+001
6.831167e+002, 7.623997e+001
6.835988e+002, 7.603995e+001
6.840809e+002, 7.588113e+001
6.845630e+002, 7.573858e+001
6.850452e+002, 7.569286e+001
6.855273e+002, 7.585973e+001
6.860094e+002, 7.603462e+001
6.864915e+002, 7.607125e+001
6.869736e+002, 7.601546e+001
6.874557e+002, 7.602639e+001
6.879379e+002, 7.620841e+001
6.884200e+002, 7.639465e+001
6.889021e+002, 7.653244e+001
6.893842e+002, 7.654617e+001
6.898663e+002, 7.609283e+001
6.903484e+002, 7.512991e+001
6.908306e+002, 7.442410e+001
6.913127e+002, 7.464803e+001
6.917948e+002, 7.556980e+001
6.922769e+002, 7.600200e+001
6.927590e+002, 7.530541e+001
6.932411e+002, 7.514980e+001
6.937233e+002, 7.623242e+001
6.942054e+002, 7.727660e+001
6.946875e+002, 7.740332e+001
6.951696e+002, 7.685650e+001
6.956517e+002, 7.635539e+001
6.961339e+002, 7.617037e+001
6.966160e+002, 7.627839e+001
6.970981e+002, 7.696293e+001
6.975802e+002, 7.794123e+001
6.980623e+002, 7.808244e+001
6.985444e+002, 7.716630e+001
6.990266e+002, 7.612489e+001
6.995087e+002, 7.553819e+001
6.999908e+002, 7.537350e+001
7.004729e+002, 7.552487e+001
7.009550e+002, 7.633481e+001
7.014371e+002, 7.693677e+001
7.019193e+002, 7.717052e+001
7.024014e+002, 7.733144e+001
7.028835e+002, 7.771951e+001
7.033656e+002, 7.815830e+001
7.038477e+002, 7.819804e+001
7.043298e+002, 7.761251e+001
7.048120e+002, 7.688557e+001
7.052941e+002, 7.662020e+001
7.057762e+002, 7.673978e+001
7.062583e+002, 7.688961e+001
7.067404e+002, 7.704585e+001
7.072225e+002, 7.718446e+001
7.077046e+002, 7.733583e+001
7.081867e+002, 7.742765e+001
7.086688e+002, 7.723519e+001
7.091509e+002, 7.655352e+001
7.096331e+002, 7.612536e+001
7.101152e+002, 7.613655e+001
7.105973e+002, 7.627759e+001
7.110794e+002, 7.638062e+001
7.115615e+002, 7.647707e+001
7.120436e+002, 7.667482e+001
7.125258e+002, 7.701051e+001
7.130079e+002, 7.734945e+001
7.134900e+002, 7.757197e+001
7.139721e+002, 7.767052e+001
7.144542e+002, 7.756059e+001
7.149363e+002, 7.719909e+001
7.154185e+002, 7.689749e+001
7.159006e+002, 7.682951e+001
7.163827e+002, 7.686902e+001
7.168648e+002, 7.677952e+001
7.173469e+002, 7.651796e+001
7.178290e+002, 7.639841e+001
7.183112e+002, 7.650803e+001
7.187933e+002, 7.670090e+001
7.192754e+002, 7.712098e+001
7.197575e+002, 7.748830e+001
7.202396e+002, 7.729859e+001
7.207217e+002, 7.648708e+001
7.212039e+002, 7.563195e+001
7.216860e+002, 7.521291e+001
7.221681e+002, 7.522569e+001
7.226502e+002, 7.584256e+001
7.231323e+002, 7.719633e+001
7.236144e+002, 7.804675e+001
7.240966e+002, 7.784222e+001
7.245787e+002, 7.721384e+001
7.250608e+002, 7.684229e+001
7.255429e+002, 7.672146e+001
7.260250e+002, 7.665392e+001
7.265071e+002, 7.672996e+001
7.269893e+002, 7.673742e+001
7.274714e+002, 7.654042e+001
7.279535e+002, 7.627022e+001
7.284356e+002, 7.607750e+001
7.289177e+002, 7.597660e+001
7.293998e+002, 7.588267e+001
7.298820e+002, 7.572023e+001
7.303641e+002, 7.554844e+001
7.308462e+002, 7.550327e+001
7.313283e+002, 7.558688e+001
7.318104e+002, 7.576479e+001
7.322925e+002, 7.610181e+001
7.327747e+002, 7.636279e+001
7.332568e+002, 7.631778e+001
7.337389e+002, 7.602149e+001
7.342210e+002, 7.579606e+001
7.347031e+002, 7.571944e+001
7.351852e+002, 7.559359e+001
7.356674e+002, 7.518263e+001
7.361495e+002, 7.486308e+001
7.366316e+002, 7.506523e+001
7.371137e+002, 7.563288e+001
7.375958e+002, 7.609782e+001
7.380779e+002, 7.623619e+001
7.385601e+002, 7.612866e+001
7.390422e+002, 7.571915e+001
7.395243e+002, 7.508419e+001
7.400064e+002, 7.508422e+001
7.404885e+002, 7.595110e+001
7.409706e+002, 7.667949e+001
7.414528e+002, 7.659111e+001
7.419349e+002, 7.609418e+001
7.424170e+002, 7.618208e+001
7.428991e+002, 7.718347e+001
7.433812e+002, 7.759480e+001
7.438633e+002, 7.665044e+001
7.443455e+002, 7.576031e+001
7.448276e+002, 7.576485e+001
7.453097e+002, 7.627688e+001
7.457918e+002, 7.665102e+001
7.462739e+002, 7.670486e+001
7.467560e+002, 7.669924e+001
7.472382e+002, 7.695002e+001
7.477203e+002, 7.732597e+001
7.482024e+002, 7.737724e+001
7.486845e+002, 7.709554e+001
7.491666e+002, 7.682803e+001
7.496487e+002, 7.668096e+001
7.501309e+002, 7.661098e+001
7.506130e+002, 7.654795e+001
7.510951e+002, 7.648448e+001
7.515772e+002, 7.661567e+001
7.520593e+002, 7.720147e+001
7.525414e+002, 7.762587e+001
7.530236e+002, 7.774045e+001
7.535057e+002, 7.764584e+001
7.539878e+002, 7.727792e+001
7.544699e+002, 7.676775e+001
7.549520e+002, 7.653358e+001
7.554341e+002, 7.689362e+001
7.559163e+002, 7.746578e+001
7.563984e+002, 7.770451e+001
7.568805e+002, 7.768483e+001
7.573626e+002, 7.777324e+001
7.578447e+002, 7.804373e+001
7.583268e+002, 7.818279e+001
7.588090e+002, 7.793327e+001
7.592911e+002, 7.742037e+001
7.597732e+002, 7.705639e+001
7.602553e+002, 7.683643e+001
7.607374e+002, 7.678549e+001
7.612195e+002, 7.711523e+001
7.617017e+002, 7.738188e+001
7.621838e+002, 7.722414e+001
7.626659e+002, 7.692048e+001
7.631480e+002, 7.698080e+001
7.636301e+002, 7.756068e+001
7.641122e+002, 7.811805e+001
7.645944e+002, 7.814941e+001
7.650765e+002, 7.795827e+001
7.655586e+002, 7.813454e+001
7.660407e+002, 7.858812e+001
7.665228e+002, 7.866844e+001
7.670049e+002, 7.810705e+001
7.674871e+002, 7.730651e+001
7.679692e+002, 7.676860e+001
7.684513e+002, 7.649061e+001
7.689334e+002, 7.645314e+001
7.694155e+002, 7.673911e+001
7.698976e+002, 7.713409e+001
7.703798e+002, 7.783470e+001
7.708619e+002, 7.843047e+001
7.713440e+002, 7.856104e+001
7.718261e+002, 7.826878e+001
7.723082e+002, 7.784914e+001
7.727903e+002, 7.715380e+001
7.732725e+002, 7.669882e+001
7.737546e+002, 7.705622e+001
7.742367e+002, 7.779660e+001
7.747188e+002, 7.834237e+001
7.752009e+002, 7.857458e+001
7.756830e+002, 7.840237e+001
7.761652e+002, 7.769896e+001
7.766473e+002, 7.687466e+001
7.771294e+002, 7.709152e+001
7.776115e+002, 7.862354e+001
7.780936e+002, 7.930087e+001
7.785757e+002, 7.855849e+001
7.790579e+002, 7.773968e+001
7.795400e+002, 7.748891e+001
7.800221e+002, 7.765508e+001
7.805042e+002, 7.808897e+001
7.809863e+002, 7.892193e+001
7.814684e+002, 7.935590e+001
7.819506e+002, 7.880470e+001
7.824327e+002, 7.819028e+001
7.829148e+002, 7.810808e+001
7.833969e+002, 7.837092e+001
7.838790e+002, 7.868098e+001
7.843611e+002, 7.892833e+001
7.848433e+002, 7.903563e+001
7.853254e+002, 7.885522e+001
7.858075e+002, 7.852766e+001
7.862896e+002, 7.854517e+001
7.867717e+002, 7.891495e+001
7.872538e+002, 7.909280e+001
7.877360e+002, 7.889116e+001
7.882181e+002, 7.862406e+001
7.887002e+002, 7.858435e+001
7.891823e+002, 7.874149e+001
7.896644e+002, 7.883709e+001
7.901465e+002, 7.877694e+001
7.906286e+002, 7.879443e+001
7.911107e+002, 7.903578e+001
7.915928e+002, 7.924067e+001
7.920750e+002, 7.914284e+001
7.925571e+002, 7.889609e+001
7.930392e+002, 7.889668e+001
7.935213e+002, 7.932480e+001
7.940034e+002, 7.967842e+001
7.944855e+002, 7.935347e+001
7.949677e+002, 7.872153e+001
7.954498e+002, 7.851310e+001
7.959319e+002, 7.871119e+001
7.964140e+002, 7.889168e+001
7.968961e+002, 7.887346e+001
7.973782e+002, 7.883233e+001
7.978604e+002, 7.904243e+001
7.983425e+002, 7.952534e+001
7.988246e+002, 7.972303e+001
7.993067e+002, 7.941640e+001
7.997888e+002, 7.922103e+001
8.002709e+002, 7.948409e+001
8.007531e+002, 7.975736e+001
8.012352e+002, 7.963448e+001
8.017173e+002, 7.919855e+001
8.021994e+002, 7.890011e+001
8.026815e+002, 7.888066e+001
8.031636e+002, 7.898687e+001
8.036458e+002, 7.918864e+001
8.041279e+002, 7.944345e+001
8.046100e+002, 7.972912e+001
8.050921e+002, 8.002068e+001
8.055742e+002, 8.028353e+001
8.060563e+002, 8.050111e+001
8.065385e+002, 8.062308e+001
8.070206e+002, 8.052242e+001
8.075027e+002, 8.021985e+001
8.079848e+002, 7.999919e+001
8.084669e+002, 7.987719e+001
8.089490e+002, 7.981858e+001
8.094312e+002, 7.985131e+001
8.099133e+002, 7.988084e+001
8.103954e+002, 7.975212e+001
8.108775e+002, 7.943362e+001
8.113596e+002, 7.915829e+001
8.118417e+002, 7.866943e+001
8.123239e+002, 7.854839e+001
8.128060e+002, 7.939497e+001
8.132881e+002, 8.036361e+001
8.137702e+002, 8.056455e+001
8.142523e+002, 8.007591e+001
8.147344e+002, 7.964320e+001
8.152166e+002, 7.965477e+001
8.156987e+002, 7.982722e+001
8.161808e+002, 7.981551e+001
8.166629e+002, 7.975612e+001
8.171450e+002, 8.007589e+001
8.176271e+002, 8.075471e+001
8.181093e+002, 8.117734e+001
8.185914e+002, 8.097014e+001
8.190735e+002, 8.043642e+001
8.195556e+002, 8.015221e+001
8.200377e+002, 8.014658e+001
8.205198e+002, 8.020954e+001
8.210020e+002, 8.036778e+001
8.214841e+002, 8.054246e+001
8.219662e+002, 8.066650e+001
8.224483e+002, 8.081987e+001
8.229304e+002, 8.119155e+001
8.234125e+002, 8.176340e+001
8.238947e+002, 8.199309e+001
8.243768e+002, 8.156211e+001
8.248589e+002, 8.102293e+001
8.253410e+002, 8.038106e+001
8.258231e+002, 7.990930e+001
8.263052e+002, 8.002832e+001
8.267874e+002, 8.063508e+001
8.272695e+002, 8.126096e+001
8.277516e+002, 8.168626e+001
8.282337e+002, 8.182529e+001
8.287158e+002, 8.134483e+001
8.291979e+002, 8.045265e+001
8.296801e+002, 8.008057e+001
8.301622e+002, 8.031350e+001
8.306443e+002, 8.060835e+001
8.311264e+002, 8.072144e+001
8.316085e+002, 8.067592e+001
8.320906e+002, 8.047729e+001
8.325728e+002, 8.007735e+001
8.330549e+002, 7.987576e+001
8.335370e+002, 7.990492e+001
8.340191e+002, 8.009474e+001
8.345012e+002, 8.060729e+001
8.349833e+002, 8.112063e+001
8.354655e+002, 8.132978e+001
8.359476e+002, 8.128467e+001
8.364297e+002, 8.130456e+001
8.369118e+002, 8.150853e+001
8.373939e+002, 8.175967e+001
8.378760e+002, 8.212806e+001
8.383582e+002, 8.240935e+001
8.388403e+002, 8.225175e+001
8.393224e+002, 8.177551e+001
8.398045e+002, 8.141387e+001
8.402866e+002, 8.137114e+001
8.407687e+002, 8.153461e+001
8.412509e+002, 8.194070e+001
8.417330e+002, 8.246336e+001
8.422151e+002, 8.220531e+001
8.426972e+002, 8.109350e+001
8.431793e+002, 8.020473e+001
8.436614e+002, 7.993356e+001
8.441436e+002, 8.001665e+001
8.446257e+002, 8.016208e+001
8.451078e+002, 8.037242e+001
8.455899e+002, 8.079069e+001
8.460720e+002, 8.184940e+001
8.465541e+002, 8.246870e+001
8.470363e+002, 8.226376e+001
8.475184e+002, 8.188157e+001
8.480005e+002, 8.171348e+001
8.484826e+002, 8.168437e+001
8.489647e+002, 8.154345e+001
8.494468e+002, 8.118118e+001
8.499290e+002, 8.091323e+001
8.504111e+002, 8.094450e+001
8.508932e+002, 8.112533e+001
8.513753e+002, 8.136665e+001
8.518574e+002, 8.161940e+001
8.523395e+002, 8.181859e+001
8.528217e+002, 8.193745e+001
8.533038e+002, 8.194372e+001
8.537859e+002, 8.176064e+001
8.542680e+002, 8.147878e+001
8.547501e+002, 8.141051e+001
8.552322e+002, 8.155556e+001
8.557144e+002, 8.164565e+001
8.561965e+002, 8.161131e+001
8.566786e+002, 8.159790e+001
8.571607e+002, 8.175610e+001
8.576428e+002, 8.198557e+001
8.581249e+002, 8.194962e+001
8.586071e+002, 8.145309e+001
8.590892e+002, 8.111357e+001
8.595713e+002, 8.107474e+001
8.600534e+002, 8.101949e+001
8.605355e+002, 8.075997e+001
8.610176e+002, 8.046545e+001
8.614998e+002, 8.040796e+001
8.619819e+002, 8.059464e+001
8.624640e+002, 8.061650e+001
8.629461e+002, 7.997779e+001
8.634282e+002, 7.947607e+001
8.639103e+002, 7.980654e+001
8.643925e+002, 8.053393e+001
8.648746e+002, 8.117454e+001
8.653567e+002, 8.159165e+001
8.658388e+002, 8.166111e+001
8.663209e+002, 8.130019e+001
8.668030e+002, 8.065902e+001
8.672852e+002, 7.971244e+001
8.677673e+002, 7.863867e+001
8.682494e+002, 7.856266e+001
8.687315e+002, 7.958163e+001
8.692136e+002, 8.049425e+001
8.696957e+002, 8.080367e+001
8.701779e+002, 8.080250e+001
8.706600e+002, 8.087638e+001
8.711421e+002, 8.102758e+001
8.716242e+002, 8.099471e+001
8.721063e+002, 8.062993e+001
8.725884e+002, 8.034110e+001
8.730705e+002, 8.013183e+001
8.735526e+002, 8.007938e+001
8.740347e+002, 8.043968e+001
8.745168e+002, 8.096818e+001
8.749990e+002, 8.102422e+001
8.754811e+002, 8.030041e+001
8.759632e+002, 7.973265e+001
8.764453e+002, 7.977441e+001
8.769274e+002, 7.996766e+001
8.774095e+002, 7.983619e+001
8.778917e+002, 7.966964e+001
8.783738e+002, 8.025366e+001
8.788559e+002, 8.159760e+001
8.793380e+002, 8.242423e+001
8.798201e+002, 8.138499e+001
8.803022e+002, 7.967525e+001
8.807844e+002, 7.938824e+001
8.812665e+002, 8.013798e+001
8.817486e+002, 8.054798e+001
8.822307e+002, 8.039748e+001
8.827128e+002, 7.994105e+001
8.831949e+002, 7.928806e+001
8.836771e+002, 7.864925e+001
8.841592e+002, 7.853413e+001
8.846413e+002, 7.904945e+001
8.851234e+002, 7.927157e+001
8.856055e+002, 7.912151e+001
8.860876e+002, 7.885632e+001
8.865698e+002, 7.843850e+001
8.870519e+002, 7.807362e+001
8.875340e+002, 7.806343e+001
8.880161e+002, 7.837607e+001
8.884982e+002, 7.850804e+001
8.889803e+002, 7.830634e+001
8.894625e+002, 7.811997e+001
8.899446e+002, 7.810527e+001
8.904267e+002, 7.803352e+001
8.909088e+002, 7.770405e+001
8.913909e+002, 7.721019e+001
8.918730e+002, 7.669616e+001
8.923552e+002, 7.618780e+001
8.928373e+002, 7.591630e+001
8.933194e+002, 7.625046e+001
8.938015e+002, 7.670936e+001
8.942836e+002, 7.694032e+001
8.947657e+002, 7.685280e+001
8.952479e+002, 7.602452e+001
8.957300e+002, 7.455164e+001
8.962121e+002, 7.348618e+001
8.966942e+002, 7.366759e+001
8.971763e+002, 7.454826e+001
8.976584e+002, 7.512365e+001
8.981406e+002, 7.540139e+001
8.986227e+002, 7.540903e+001
8.991048e+002, 7.511771e+001
8.995869e+002, 7.500423e+001
9.000690e+002, 7.540910e+001
9.005511e+002, 7.575373e+001
9.010333e+002, 7.505392e+001
9.015154e+002, 7.322611e+001
9.019975e+002, 7.226527e+001
9.024796e+002, 7.262655e+001
9.029617e+002, 7.300975e+001
9.034438e+002, 7.330983e+001
9.039260e+002, 7.342675e+001
9.044081e+002, 7.309147e+001
9.048902e+002, 7.254582e+001
9.053723e+002, 7.248485e+001
9.058544e+002, 7.328759e+001
9.063365e+002, 7.369778e+001
9.068187e+002, 7.309947e+001
9.073008e+002, 7.235233e+001
9.077829e+002, 7.196235e+001
9.082650e+002, 7.174947e+001
9.087471e+002, 7.134550e+001
9.092292e+002, 7.075389e+001
9.097114e+002, 7.041319e+001
9.101935e+002, 7.070681e+001
9.106756e+002, 7.116212e+001
9.111577e+002, 7.136408e+001
9.116398e+002, 7.135655e+001
9.121219e+002, 7.109456e+001
9.126041e+002, 7.067657e+001
9.130862e+002, 7.051705e+001
9.135683e+002, 7.081308e+001
9.140504e+002, 7.126279e+001
9.145325e+002, 7.147952e+001
9.150146e+002, 7.149336e+001
9.154968e+002, 7.145261e+001
9.159789e+002, 7.135329e+001
9.164610e+002, 7.138072e+001
9.169431e+002, 7.163871e+001
9.174252e+002, 7.174942e+001
9.179073e+002, 7.133582e+001
9.183895e+002, 7.058395e+001
9.188716e+002, 7.019422e+001
9.193537e+002, 7.038258e+001
9.198358e+002, 7.035882e+001
9.203179e+002, 6.983464e+001
9.208000e+002, 6.950878e+001
9.212822e+002, 6.980029e+001
9.217643e+002, 7.033470e+001
9.222464e+002, 7.084373e+001
9.227285e+002, 7.129774e+001
9.232106e+002, 7.127810e+001
9.236927e+002, 7.009286e+001
9.241749e+002, 6.928520e+001
9.246570e+002, 6.960938e+001
9.251391e+002, 7.018517e+001
9.256212e+002, 7.029283e+001
9.261033e+002, 7.010847e+001
9.265854e+002, 7.014455e+001
9.270676e+002, 7.055714e+001
9.275497e+002, 7.097112e+001
9.280318e+002, 7.109132e+001
9.285139e+002, 7.113607e+001
9.289960e+002, 7.142864e+001
9.294781e+002, 7.177845e+001
9.299603e+002, 7.168661e+001
9.304424e+002, 7.118380e+001
9.309245e+002, 7.089883e+001
9.314066e+002, 7.124988e+001
9.318887e+002, 7.191376e+001
9.323708e+002, 7.244271e+001
9.328530e+002, 7.284598e+001
9.333351e+002, 7.312383e+001
9.338172e+002, 7.328619e+001
9.342993e+002, 7.354220e+001
9.347814e+002, 7.398583e+001
9.352635e+002, 7.432465e+001
9.357457e+002, 7.417014e+001
9.362278e+002, 7.367282e+001
9.367099e+002, 7.379225e+001
9.371920e+002, 7.472094e+001
9.376741e+002, 7.539993e+001
9.381563e+002, 7.557711e+001
9.386384e+002, 7.577863e+001
9.391205e+002, 7.619888e+001
9.396026e+002, 7.690717e+001
9.400847e+002, 7.813675e+001
9.405668e+002, 8.006199e+001
9.410490e+002, 8.146346e+001
9.415311e+002, 8.212305e+001
9.420132e+002, 8.258583e+001
9.424953e+002, 8.253896e+001
9.429774e+002, 8.270377e+001
9.434595e+002, 8.362559e+001
9.439417e+002, 8.518047e+001
9.444238e+002, 8.702892e+001
9.449059e+002, 8.920223e+001
9.453880e+002, 9.130544e+001
9.458701e+002, 9.319923e+001
9.463522e+002, 9.499196e+001
9.468344e+002, 9.641328e+001
9.473165e+002, 9.794891e+001
9.477986e+002, 1.003929e+002
9.482807e+002, 1.036763e+002
9.487628e+002, 1.069125e+002
9.492449e+002, 1.095732e+002
9.497271e+002, 1.121694e+002
9.502092e+002, 1.150805e+002
9.506913e+002, 1.183223e+002
9.511734e+002, 1.219301e+002
9.516555e+002, 1.259122e+002
9.521376e+002, 1.303567e+002
9.526198e+002, 1.352704e+002
9.531019e+002, 1.404017e+002
9.535840e+002, 1.455652e+002
9.540661e+002, 1.507517e+002
9.545482e+002, 1.559464e+002
9.550303e+002, 1.611579e+002
9.555124e+002, 1.664594e+002
9.559945e+002, 1.718890e+002
9.564766e+002, 1.772586e+002
9.569587e+002, 1.824746e+002
9.574409e+002, 1.877046e+002
9.579230e+002, 1.932453e+002
9.584051e+002, 1.991197e+002
9.588872e+002, 2.045401e+002
9.593693e+002, 2.096443e+002
9.598514e+002, 2.137182e+002
9.603336e+002, 2.163660e+002
9.608157e+002, 2.185309e+002
9.612978e+002, 2.210896e+002
9.617799e+002, 2.235459e+002
9.622620e+002, 2.244908e+002
9.627441e+002, 2.236898e+002
9.632263e+002, 2.221025e+002
9.637084e+002, 2.195404e+002
9.641905e+002, 2.164419e+002
9.646726e+002, 2.124760e+002
9.651547e+002, 2.084130e+002
9.656368e+002, 2.048045e+002
9.661190e+002, 2.016526e+002
9.666011e+002, 1.988767e+002
9.670832e+002, 1.964579e+002
9.675653e+002, 1.944110e+002
9.680474e+002, 1.926602e+002
9.685295e+002, 1.913652e+002
9.690117e+002, 1.900909e+002
9.694938e+002, 1.896316e+002
9.699759e+002, 1.913315e+002
9.704580e+002, 1.951040e+002
9.709401e+002, 1.990789e+002
9.714222e+002, 2.019508e+002
9.719044e+002, 2.055937e+002
9.723865e+002, 2.115322e+002
9.728686e+002, 2.185713e+002
9.733507e+002, 2.257632e+002
9.738328e+002, 2.328660e+002
9.743149e+002, 2.399038e+002
9.747971e+002, 2.467803e+002
9.752792e+002, 2.527527e+002
9.757613e+002, 2.575520e+002
9.762434e+002, 2.607165e+002
9.767255e+002, 2.614666e+002
9.772076e+002, 2.601581e+002
9.776898e+002, 2.576563e+002
9.781719e+002, 2.539292e+002
9.786540e+002, 2.481576e+002
9.791361e+002, 2.399280e+002
9.796182e+002, 2.303935e+002
9.801003e+002, 2.210347e+002
9.805825e+002, 2.114739e+002
9.810646e+002, 2.001054e+002
9.815467e+002, 1.873193e+002
9.820288e+002, 1.762613e+002
9.825109e+002, 1.675944e+002
9.829930e+002, 1.595730e+002
9.834752e+002, 1.510975e+002
9.839573e+002, 1.426352e+002
9.844394e+002, 1.350529e+002
9.849215e+002, 1.283641e+002
9.854036e+002, 1.221898e+002
9.858857e+002, 1.164878e+002
9.863679e+002, 1.116511e+002
9.868500e+002, 1.078820e+002
9.873321e+002, 1.046373e+002
9.878142e+002, 1.014956e+002
9.882963e+002, 9.852428e+001
9.887784e+002, 9.595820e+001
9.892606e+002, 9.393024e+001
9.897427e+002, 9.185160e+001
9.902248e+002, 8.953732e+001
9.907069e+002, 8.753652e+001
9.911890e+002, 8.616132e+001
9.916711e+002, 8.499883e+001
9.921533e+002, 8.363585e+001
9.926354e+002, 8.212762e+001
9.931175e+002, 8.080599e+001
9.935996e+002, 7.945047e+001
9.940817e+002, 7.868265e+001
9.945638e+002, 7.907243e+001
9.950460e+002, 7.937503e+001
9.955281e+002, 7.925502e+001
9.960102e+002, 7.871255e+001
9.964923e+002, 7.747881e+001
9.969744e+002, 7.571843e+001
9.974565e+002, 7.458282e+001
9.979387e+002, 7.473478e+001
9.984208e+002, 7.478442e+001
9.989029e+002, 7.408460e+001
9.993850e+002, 7.349318e+001
9.998671e+002, 7.373403e+001
1.000349e+003, 7.432991e+001
1.000831e+003, 7.463356e+001
1.001313e+003, 7.454115e+001
1.001796e+003, 7.416885e+001
1.002278e+003, 7.314610e+001
1.002760e+003, 7.249269e+001
1.003242e+003, 7.334594e+001
1.003724e+003, 7.431562e+001
1.004206e+003, 7.388618e+001
1.004688e+003, 7.262167e+001
1.005170e+003, 7.181464e+001
1.005653e+003, 7.176338e+001
1.006135e+003, 7.183250e+001
1.006617e+003, 7.163723e+001
1.007099e+003, 7.137289e+001
1.007581e+003, 7.120502e+001
1.008063e+003, 7.109480e+001
1.008545e+003, 7.092710e+001
1.009027e+003, 7.077170e+001
1.009509e+003, 7.091187e+001
1.009992e+003, 7.141453e+001
1.010474e+003, 7.184098e+001
1.010956e+003, 7.169224e+001
1.011438e+003, 7.136779e+001
1.011920e+003, 7.146780e+001
1.012402e+003, 7.186509e+001
1.012884e+003, 7.236034e+001
1.013366e+003, 7.286366e+001
1.013849e+003, 7.310250e+001
1.014331e+003, 7.296709e+001
1.014813e+003, 7.282145e+001
1.015295e+003, 7.317265e+001
1.015777e+003, 7.373831e+001
1.016259e+003, 7.364406e+001
1.016741e+003, 7.309366e+001
1.017223e+003, 7.311624e+001
1.017705e+003, 7.381918e+001
1.018188e+003, 7.461108e+001
1.018670e+003, 7.519968e+001
1.019152e+003, 7.552141e+001
1.019634e+003, 7.536501e+001
1.020116e+003, 7.490162e+001
1.020598e+003, 7.506181e+001
1.021080e+003, 7.581611e+001
1.021562e+003, 7.640666e+001
1.022044e+003, 7.670425e+001
1.022527e+003, 7.676027e+001
1.023009e+003, 7.656075e+001
1.023491e+003, 7.635148e+001
1.023973e+003, 7.655197e+001
1.024455e+003, 7.713644e+001
1.024937e+003, 7.771831e+001
1.025419e+003, 7.833275e+001
1.025901e+003, 7.857731e+001
1.026384e+003, 7.829411e+001
1.026866e+003, 7.801499e+001
1.027348e+003, 7.807565e+001
1.027830e+003, 7.833450e+001
1.028312e+003, 7.854427e+001
1.028794e+003, 7.870774e+001
1.029276e+003, 7.879354e+001
1.029758e+003, 7.880569e+001
1.030240e+003, 7.875591e+001
1.030723e+003, 7.874702e+001
1.031205e+003, 7.839021e+001
1.031687e+003, 7.718111e+001
1.032169e+003, 7.573719e+001
1.032651e+003, 7.540325e+001
1.033133e+003, 7.637767e+001
1.033615e+003, 7.677901e+001
1.034097e+003, 7.637858e+001
1.034579e+003, 7.588168e+001
1.035062e+003, 7.527227e+001
1.035544e+003, 7.482268e+001
1.036026e+003, 7.480947e+001
1.036508e+003, 7.502491e+001
1.036990e+003, 7.503690e+001
1.037472e+003, 7.481545e+001
1.037954e+003, 7.455819e+001
1.038436e+003, 7.430979e+001
1.038919e+003, 7.395104e+001
1.039401e+003, 7.325110e+001
1.039883e+003, 7.266887e+001
1.040365e+003, 7.272575e+001
1.040847e+003, 7.303797e+001
1.041329e+003, 7.269160e+001
1.041811e+003, 7.145625e+001
1.042293e+003, 7.078517e+001
1.042776e+003, 7.128696e+001
1.043258e+003, 7.153506e+001
1.043740e+003, 7.097578e+001
1.044222e+003, 7.037674e+001
1.044704e+003, 7.035487e+001
1.045186e+003, 7.060547e+001
1.045668e+003, 7.052269e+001
1.046150e+003, 7.003822e+001
1.046632e+003, 6.944154e+001
1.047115e+003, 6.850142e+001
1.047597e+003, 6.781431e+001
1.048079e+003, 6.763466e+001
1.048561e+003, 6.765137e+001
1.049043e+003, 6.780512e+001
1.049525e+003, 6.794190e+001
1.050007e+003, 6.778781e+001
1.050489e+003, 6.729504e+001
1.050971e+003, 6.672865e+001
1.051454e+003, 6.600865e+001
1.051936e+003, 6.540296e+001
1.052418e+003, 6.503276e+001
1.052900e+003, 6.476374e+001
1.053382e+003, 6.449181e+001
1.053864e+003, 6.425161e+001
1.054346e+003, 6.411868e+001
1.054828e+003, 6.410399e+001
1.055311e+003, 6.415838e+001
1.055793e+003, 6.420946e+001
1.056275e+003, 6.440823e+001
1.056757e+003, 6.510571e+001
1.057239e+003, 6.568008e+001
1.057721e+003, 6.555720e+001
1.058203e+003, 6.502357e+001
1.058685e+003, 6.458876e+001
1.059167e+003, 6.433530e+001
1.059650e+003, 6.413084e+001
1.060132e+003, 6.386436e+001
1.060614e+003, 6.373148e+001
1.061096e+003, 6.388322e+001
1.061578e+003, 6.412012e+001
1.062060e+003, 6.440910e+001
1.062542e+003, 6.462199e+001
1.063024e+003, 6.453457e+001
1.063506e+003, 6.413309e+001
1.063989e+003, 6.371789e+001
1.064471e+003, 6.316722e+001
1.064953e+003, 6.294720e+001
1.065435e+003, 6.371420e+001
1.065917e+003, 6.442395e+001
1.066399e+003, 6.412994e+001
1.066881e+003, 6.331192e+001
1.067363e+003, 6.274866e+001
1.067846e+003, 6.255230e+001
1.068328e+003, 6.241866e+001
1.068810e+003, 6.232316e+001
1.069292e+003, 6.211660e+001
1.069774e+003, 6.170063e+001
1.070256e+003, 6.118144e+001
1.070738e+003, 6.046602e+001
1.071220e+003, 5.979600e+001
1.071703e+003, 5.950287e+001
1.072185e+003, 5.960158e+001
1.072667e+003, 5.988420e+001
1.073149e+003, 6.049577e+001
1.073631e+003, 6.077008e+001
1.074113e+003, 6.009662e+001
1.074595e+003, 5.928724e+001
1.075077e+003, 5.892064e+001
1.075559e+003, 5.878418e+001
1.076042e+003, 5.848933e+001
1.076524e+003, 5.807858e+001
1.077006e+003, 5.800637e+001
1.077488e+003, 5.858757e+001
1.077970e+003, 5.900060e+001
1.078452e+003, 5.869805e+001
1.078934e+003, 5.828074e+001
1.079416e+003, 5.803183e+001
1.079898e+003, 5.798616e+001
1.080380e+003, 5.823285e+001
1.080863e+003, 5.869233e+001
1.081345e+003, 5.914723e+001
1.081827e+003, 5.957168e+001
1.082309e+003, 5.977441e+001
1.082791e+003, 5.945592e+001
1.083273e+003, 5.913858e+001
1.083755e+003, 5.911579e+001
1.084237e+003, 5.928009e+001
1.084720e+003, 5.952806e+001
1.085202e+003, 5.984402e+001
1.085684e+003, 6.026209e+001
1.086166e+003, 6.080714e+001
1.086648e+003, 6.127708e+001
1.087130e+003, 6.166162e+001
1.087612e+003, 6.185542e+001
1.088094e+003, 6.155876e+001
1.088577e+003, 6.126126e+001
1.089059e+003, 6.161243e+001
1.089541e+003, 6.226587e+001
1.090023e+003, 6.229390e+001
1.090505e+003, 6.150401e+001
1.090987e+003, 6.116047e+001
1.091469e+003, 6.234016e+001
1.091951e+003, 6.325792e+001
1.092433e+003, 6.297217e+001
1.092916e+003, 6.230472e+001
1.093398e+003, 6.170757e+001
1.093880e+003, 6.128375e+001
1.094362e+003, 6.118438e+001
1.094844e+003, 6.139507e+001
1.095326e+003, 6.148244e+001
1.095808e+003, 6.125785e+001
1.096290e+003, 6.096822e+001
1.096772e+003, 6.066040e+001
1.097255e+003, 6.034915e+001
1.097737e+003, 6.003617e+001
1.098219e+003, 5.972663e+001
1.098701e+003, 5.939486e+001
1.099183e+003, 5.906124e+001
1.099665e+003, 5.886090e+001
1.100147e+003, 5.899032e+001
1.100629e+003, 5.890552e+001
1.101112e+003, 5.797188e+001
1.101594e+003, 5.738021e+001
1.102076e+003, 5.809026e+001
1.102558e+003, 5.915123e+001
1.103040e+003, 5.973788e+001
1.103522e+003, 5.976130e+001
1.104004e+003, 5.907275e+001
1.104486e+003, 5.715067e+001
1.104969e+003, 5.612180e+001
1.105451e+003, 5.707808e+001
1.105933e+003, 5.805537e+001
1.106415e+003, 5.841396e+001
1.106897e+003, 5.849030e+001
1.107379e+003, 5.855870e+001
1.107861e+003, 5.857293e+001
1.108343e+003, 5.834545e+001
1.108825e+003, 5.779127e+001
1.109307e+003, 5.741092e+001
1.109790e+003, 5.746369e+001
1.110272e+003, 5.738539e+001
1.110754e+003, 5.681665e+001
1.111236e+003, 5.634806e+001
1.111718e+003, 5.639402e+001
1.112200e+003, 5.673864e+001
1.112682e+003, 5.708802e+001
1.113164e+003, 5.744854e+001
1.113647e+003, 5.757658e+001
1.114129e+003, 5.735231e+001
1.114611e+003, 5.709154e+001
1.115093e+003, 5.671869e+001
1.115575e+003, 5.645108e+001
1.116057e+003, 5.654629e+001
1.116539e+003, 5.663074e+001
1.117021e+003, 5.609437e+001
1.117504e+003, 5.510391e+001
1.117986e+003, 5.496787e+001
1.118468e+003, 5.647966e+001
1.118950e+003, 5.689535e+001
1.119432e+003, 5.552507e+001
1.119914e+003, 5.440507e+001
1.120396e+003, 5.426571e+001
1.120878e+003, 5.442661e+001
1.121360e+003, 5.431263e+001
1.121843e+003, 5.404676e+001
1.122325e+003, 5.401894e+001
1.122807e+003, 5.430787e+001
1.123289e+003, 5.436883e+001
1.123771e+003, 5.421329e+001
1.124253e+003, 5.372358e+001
1.124735e+003, 5.269738e+001
1.125217e+003, 5.188896e+001
1.125699e+003, 5.183131e+001
1.126182e+003, 5.216419e+001
1.126664e+003, 5.229968e+001
1.127146e+003, 5.224079e+001
1.127628e+003, 5.199048e+001
1.128110e+003, 5.150645e+001
1.128592e+003, 5.125333e+001
1.129074e+003, 5.132549e+001
1.129556e+003, 5.136438e+001
1.130039e+003, 5.119527e+001
1.130521e+003, 5.101509e+001
1.131003e+003, 5.108212e+001
1.131485e+003, 5.126707e+001
1.131967e+003, 5.108872e+001
1.132449e+003, 5.056630e+001
1.132931e+003, 4.990166e+001
1.133413e+003, 4.912587e+001
1.133896e+003, 4.908546e+001
1.134378e+003, 5.003646e+001
1.134860e+003, 5.104673e+001
1.135342e+003, 5.140819e+001
1.135824e+003, 5.131990e+001
1.136306e+003, 5.097731e+001
1.136788e+003, 5.051287e+001
1.137270e+003, 5.058496e+001
1.137752e+003, 5.103806e+001
1.138234e+003, 5.101363e+001
1.138717e+003, 5.042526e+001
1.139199e+003, 4.989151e+001
1.139681e+003, 4.972729e+001
1.140163e+003, 4.976741e+001
1.140645e+003, 4.992609e+001
1.141127e+003, 5.006960e+001
1.141609e+003, 4.990771e+001
1.142091e+003, 4.955931e+001
1.142574e+003, 4.920965e+001
1.143056e+003, 4.893227e+001
1.143538e+003, 4.890448e+001
1.144020e+003, 4.914816e+001
1.144502e+003, 4.937790e+001
1.144984e+003, 4.941809e+001
1.145466e+003, 4.929871e+001
1.145948e+003, 4.886240e+001
1.146431e+003, 4.843756e+001
1.146913e+003, 4.859416e+001
1.147395e+003, 4.900932e+001
1.147877e+003, 4.902331e+001
1.148359e+003, 4.861547e+001
1.148841e+003, 4.821296e+001
1.149323e+003, 4.795991e+001
1.149805e+003, 4.794994e+001
1.150287e+003, 4.850315e+001
1.150770e+003, 4.902390e+001
1.151252e+003, 4.904078e+001
1.151734e+003, 4.883143e+001
1.152216e+003, 4.859499e+001
1.152698e+003, 4.842773e+001
1.153180e+003, 4.854350e+001
1.153662e+003, 4.898292e+001
1.154144e+003, 4.912861e+001
1.154626e+003, 4.836850e+001
1.155109e+003, 4.785994e+001
1.155591e+003, 4.829339e+001
1.156073e+003, 4.875417e+001
1.156555e+003, 4.853731e+001
1.157037e+003, 4.810035e+001
1.157519e+003, 4.810128e+001
1.158001e+003, 4.850570e+001
1.158483e+003, 4.878242e+001
1.158966e+003, 4.884921e+001
1.159448e+003, 4.886042e+001
1.159930e+003, 4.880173e+001
1.160412e+003, 4.872016e+001
1.160894e+003, 4.860564e+001
1.161376e+003, 4.850083e+001
1.161858e+003, 4.850230e+001
1.162340e+003, 4.849689e+001
1.162822e+003, 4.819566e+001
1.163305e+003, 4.754650e+001
1.163787e+003, 4.714484e+001
1.164269e+003, 4.697999e+001
1.164751e+003, 4.713755e+001
1.165233e+003, 4.775391e+001
1.165715e+003, 4.835206e+001
1.166197e+003, 4.877296e+001
1.166679e+003, 4.888546e+001
1.167161e+003, 4.845336e+001
1.167644e+003, 4.766866e+001
1.168126e+003, 4.732835e+001
1.168608e+003, 4.744429e+001
1.169090e+003, 4.769279e+001
1.169572e+003, 4.806741e+001
1.170054e+003, 4.824266e+001
1.170536e+003, 4.812472e+001
1.171018e+003, 4.799632e+001
1.171500e+003, 4.805177e+001
1.171983e+003, 4.820826e+001
1.172465e+003, 4.835858e+001
1.172947e+003, 4.849150e+001
1.173429e+003, 4.861232e+001
1.173911e+003, 4.868099e+001
1.174393e+003, 4.847764e+001
1.174875e+003, 4.804395e+001
1.175357e+003, 4.767771e+001
1.175840e+003, 4.750105e+001
1.176322e+003, 4.754845e+001
1.176804e+003, 4.789788e+001
1.177286e+003, 4.836822e+001
1.177768e+003, 4.902247e+001
1.178250e+003, 4.944196e+001
1.178732e+003, 4.866026e+001
1.179214e+003, 4.731056e+001
1.179697e+003, 4.669210e+001
1.180179e+003, 4.689441e+001
1.180661e+003, 4.722338e+001
1.181143e+003, 4.740517e+001
1.181625e+003, 4.757393e+001
1.182107e+003, 4.792514e+001
1.182589e+003, 4.815058e+001
1.183071e+003, 4.795008e+001
1.183553e+003, 4.761439e+001
1.184036e+003, 4.744727e+001
1.184518e+003, 4.734943e+001
1.185000e+003, 4.705110e+001
1.185482e+003, 4.653134e+001
1.185964e+003, 4.613484e+001
1.186446e+003, 4.585717e+001
1.186928e+003, 4.583872e+001
1.187410e+003, 4.640776e+001
1.187892e+003, 4.686122e+001
1.188375e+003, 4.671788e+001
1.188857e+003, 4.649254e+001
1.189339e+003, 4.673980e+001
1.189821e+003, 4.726027e+001
1.190303e+003, 4.745957e+001
1.190785e+003, 4.727142e+001
1.191267e+003, 4.714497e+001
1.191749e+003, 4.705628e+001
1.192232e+003, 4.713241e+001
1.192714e+003, 4.750696e+001
1.193196e+003, 4.768217e+001
1.193678e+003, 4.733672e+001
1.194160e+003, 4.689036e+001
1.194642e+003, 4.687593e+001
1.195124e+003, 4.716602e+001
1.195606e+003, 4.724039e+001
1.196089e+003, 4.711037e+001
1.196571e+003, 4.712588e+001
1.197053e+003, 4.728905e+001
1.197535e+003, 4.727973e+001
1.198017e+003, 4.702889e+001
1.198499e+003, 4.681304e+001
1.198981e+003, 4.680784e+001
1.199463e+003, 4.685841e+001
1.199945e+003, 4.670235e+001
1.200427e+003, 4.650211e+001
1.200910e+003, 4.659421e+001
1.201392e+003, 4.689326e+001
1.201874e+003, 4.732294e+001
1.202356e+003, 4.776418e+001
1.202838e+003, 4.793502e+001
1.203320e+003, 4.777512e+001
1.203802e+003, 4.743065e+001
1.204284e+003, 4.686715e+001
1.204767e+003, 4.650982e+001
1.205249e+003, 4.701276e+001
1.205731e+003, 4.750076e+001
1.206213e+003, 4.706844e+001
1.206695e+003, 4.632772e+001
1.207177e+003, 4.599343e+001
1.207659e+003, 4.603727e+001
1.208141e+003, 4.621455e+001
1.208624e+003, 4.649611e+001
1.209106e+003, 4.657674e+001
1.209588e+003, 4.608470e+001
1.210070e+003, 4.583303e+001
1.210552e+003, 4.607358e+001
1.211034e+003, 4.649401e+001
1.211516e+003, 4.724263e+001
1.211998e+003, 4.782840e+001
1.212480e+003, 4.761848e+001
1.212963e+003, 4.686257e+001
1.213445e+003, 4.654787e+001
1.213927e+003, 4.683002e+001
1.214409e+003, 4.668805e+001
1.214891e+003, 4.588044e+001
1.215373e+003, 4.570414e+001
1.215855e+003, 4.656334e+001
1.216337e+003, 4.728286e+001
1.216819e+003, 4.723219e+001
1.217302e+003, 4.677894e+001
1.217784e+003, 4.630320e+001
1.218266e+003, 4.589556e+001
1.218748e+003, 4.588799e+001
1.219230e+003, 4.620838e+001
1.219712e+003, 4.663522e+001
1.220194e+003, 4.705507e+001
1.220676e+003, 4.680367e+001
1.221159e+003, 4.589021e+001
1.221641e+003, 4.544631e+001
1.222123e+003, 4.610295e+001
1.222605e+003, 4.684764e+001
1.223087e+003, 4.643111e+001
1.223569e+003, 4.579643e+001
1.224051e+003, 4.624861e+001
1.224533e+003, 4.696755e+001
1.225016e+003, 4.672390e+001
1.225498e+003, 4.594073e+001
1.225980e+003, 4.558174e+001
1.226462e+003, 4.579345e+001
1.226944e+003, 4.620882e+001
1.227426e+003, 4.681461e+001
1.227908e+003, 4.727408e+001
1.228390e+003, 4.733324e+001
1.228872e+003, 4.740099e+001
1.229354e+003, 4.793431e+001
1.229837e+003, 4.826147e+001
1.230319e+003, 4.754074e+001
1.230801e+003, 4.641170e+001
1.231283e+003, 4.608705e+001
1.231765e+003, 4.653517e+001
1.232247e+003, 4.668442e+001
1.232729e+003, 4.648515e+001
1.233211e+003, 4.609839e+001
1.233694e+003, 4.541369e+001
1.234176e+003, 4.496568e+001
1.234658e+003, 4.493541e+001
1.235140e+003, 4.510997e+001
1.235622e+003, 4.536858e+001
1.236104e+003, 4.559968e+001
1.236586e+003, 4.556643e+001
1.237068e+003, 4.536493e+001
1.237551e+003, 4.543852e+001
1.238033e+003, 4.571311e+001
1.238515e+003, 4.579740e+001
1.238997e+003, 4.573258e+001
1.239479e+003, 4.599372e+001
1.239961e+003, 4.665148e+001
1.240443e+003, 4.715853e+001
1.240925e+003, 4.716929e+001
1.241407e+003, 4.690767e+001
1.241890e+003, 4.628399e+001
1.242372e+003, 4.581199e+001
1.242854e+003, 4.627588e+001
1.243336e+003, 4.696650e+001
1.243818e+003, 4.691491e+001
1.244300e+003, 4.639985e+001
1.244782e+003, 4.623529e+001
1.245264e+003, 4.652009e+001
1.245746e+003, 4.659533e+001
1.246229e+003, 4.608265e+001
1.246711e+003, 4.573561e+001
1.247193e+003, 4.580711e+001
1.247675e+003, 4.589208e+001
1.248157e+003, 4.586443e+001
1.248639e+003, 4.579457e+001
1.249121e+003, 4.575414e+001
1.249603e+003, 4.567212e+001
1.250085e+003, 4.534856e+001
1.250568e+003, 4.482618e+001
1.251050e+003, 4.493706e+001
1.251532e+003, 4.577284e+001
1.252014e+003, 4.619149e+001
1.252496e+003, 4.609188e+001
1.252978e+003, 4.606900e+001
1.253460e+003, 4.630050e+001
1.253942e+003, 4.643472e+001
1.254425e+003, 4.622357e+001
1.254907e+003, 4.586156e+001
1.255389e+003, 4.551541e+001
1.255871e+003, 4.528519e+001
1.256353e+003, 4.545596e+001
1.256835e+003, 4.583184e+001
1.257317e+003, 4.607779e+001
1.257799e+003, 4.619111e+001
1.258281e+003, 4.626544e+001
1.258764e+003, 4.632018e+001
1.259246e+003, 4.633522e+001
1.259728e+003, 4.632671e+001
1.260210e+003, 4.618198e+001
1.260692e+003, 4.565575e+001
1.261174e+003, 4.523566e+001
1.261656e+003, 4.516406e+001
1.262138e+003, 4.527413e+001
1.262620e+003, 4.561293e+001
1.263103e+003, 4.594094e+001
1.263585e+003, 4.580137e+001
1.264067e+003, 4.527738e+001
1.264549e+003, 4.507856e+001
1.265031e+003, 4.525181e+001
1.265513e+003, 4.567342e+001
1.265995e+003, 4.651821e+001
1.266477e+003, 4.668319e+001
1.266960e+003, 4.578311e+001
1.267442e+003, 4.521952e+001
1.267924e+003, 4.581976e+001
1.268406e+003, 4.668465e+001
1.268888e+003, 4.673486e+001
1.269370e+003, 4.629726e+001
1.269852e+003, 4.605426e+001
1.270334e+003, 4.596357e+001
1.270817e+003, 4.596829e+001
1.271299e+003, 4.601580e+001
1.271781e+003, 4.601941e+001
1.272263e+003, 4.594248e+001
1.272745e+003, 4.560740e+001
1.273227e+003, 4.494572e+001
1.273709e+003, 4.477249e+001
1.274191e+003, 4.632701e+001
1.274673e+003, 4.744188e+001
1.275156e+003, 4.649156e+001
1.275638e+003, 4.535941e+001
1.276120e+003, 4.522826e+001
1.276602e+003, 4.565325e+001
1.277084e+003, 4.623411e+001
1.277566e+003, 4.686082e+001
1.278048e+003, 4.731322e+001
1.278530e+003, 4.761865e+001
1.279012e+003, 4.742576e+001
1.279495e+003, 4.645958e+001
1.279977e+003, 4.600919e+001
1.280459e+003, 4.627381e+001
1.280941e+003, 4.681836e+001
1.281423e+003, 4.754601e+001
1.281905e+003, 4.792489e+001
1.282387e+003, 4.748878e+001
1.282869e+003, 4.673189e+001
1.283352e+003, 4.647326e+001
1.283834e+003, 4.653252e+001
1.284316e+003, 4.652188e+001
1.284798e+003, 4.644356e+001
##END=



