##NAMES=Wollastonite
##RRUFFID=R120016
##IDEAL CHEMISTRY=CaSiO_3_
##LOCALITY=Saint-Sauveur Graphite occurrence, Saint-Sauveur, Les Pays-d'en-Haut RCM, Laurentides, Qu√©bec, Canada
##OWNER=RRUFF
##SOURCE=Donald Doell
##DESCRIPTION=Massive aggregate of colorless parallel acicular crystals
##STATUS=The identification of this mineral has been confirmed by single-crystal X-ray diffraction.
##URL=rruff.info/R120016
9.001007e+001, 0.000000e+000
9.049219e+001, 2.636083e+003
9.097430e+001, 2.639699e+003
9.145642e+001, 2.638885e+003
9.193854e+001, 2.634026e+003
9.242065e+001, 2.628365e+003
9.290277e+001, 2.624086e+003
9.338489e+001, 2.620930e+003
9.386700e+001, 2.618063e+003
9.434912e+001, 2.610904e+003
9.483124e+001, 2.605122e+003
9.531335e+001, 2.618166e+003
9.579547e+001, 2.652788e+003
9.627759e+001, 2.686673e+003
9.675970e+001, 2.687334e+003
9.724182e+001, 2.657504e+003
9.772394e+001, 2.635206e+003
9.820605e+001, 2.642671e+003
9.868817e+001, 2.676899e+003
9.917029e+001, 2.699162e+003
9.965240e+001, 2.706833e+003
1.001345e+002, 2.706277e+003
1.006166e+002, 2.709081e+003
1.010988e+002, 2.715781e+003
1.015809e+002, 2.723649e+003
1.020630e+002, 2.731776e+003
1.025451e+002, 2.740694e+003
1.030272e+002, 2.746779e+003
1.035093e+002, 2.746942e+003
1.039915e+002, 2.744385e+003
1.044736e+002, 2.753683e+003
1.049557e+002, 2.779734e+003
1.054378e+002, 2.810521e+003
1.059199e+002, 2.840042e+003
1.064020e+002, 2.878397e+003
1.068842e+002, 2.896018e+003
1.073663e+002, 2.875862e+003
1.078484e+002, 2.817105e+003
1.083305e+002, 2.797208e+003
1.088126e+002, 2.850603e+003
1.092947e+002, 2.923547e+003
1.097769e+002, 2.966673e+003
1.102590e+002, 2.946856e+003
1.107411e+002, 2.930709e+003
1.112232e+002, 2.930563e+003
1.117053e+002, 2.950150e+003
1.121874e+002, 2.969691e+003
1.126696e+002, 2.988753e+003
1.131517e+002, 3.006856e+003
1.136338e+002, 3.023383e+003
1.141159e+002, 3.042849e+003
1.145980e+002, 3.056900e+003
1.150801e+002, 3.060089e+003
1.155623e+002, 3.043945e+003
1.160444e+002, 3.036031e+003
1.165265e+002, 3.044891e+003
1.170086e+002, 3.067168e+003
1.174907e+002, 3.095492e+003
1.179728e+002, 3.133953e+003
1.184550e+002, 3.173704e+003
1.189371e+002, 3.210224e+003
1.194192e+002, 3.247060e+003
1.199013e+002, 3.273520e+003
1.203834e+002, 3.273667e+003
1.208655e+002, 3.254830e+003
1.213477e+002, 3.245658e+003
1.218298e+002, 3.273272e+003
1.223119e+002, 3.314808e+003
1.227940e+002, 3.345240e+003
1.232761e+002, 3.343242e+003
1.237582e+002, 3.339695e+003
1.242404e+002, 3.366190e+003
1.247225e+002, 3.420407e+003
1.252046e+002, 3.473883e+003
1.256867e+002, 3.506684e+003
1.261688e+002, 3.523105e+003
1.266509e+002, 3.530505e+003
1.271331e+002, 3.521630e+003
1.276152e+002, 3.508851e+003
1.280973e+002, 3.511978e+003
1.285794e+002, 3.531805e+003
1.290615e+002, 3.557927e+003
1.295436e+002, 3.580375e+003
1.300258e+002, 3.600112e+003
1.305079e+002, 3.620748e+003
1.309900e+002, 3.648091e+003
1.314721e+002, 3.678023e+003
1.319542e+002, 3.694748e+003
1.324363e+002, 3.693779e+003
1.329185e+002, 3.692122e+003
1.334006e+002, 3.719191e+003
1.338827e+002, 3.775257e+003
1.343648e+002, 3.832080e+003
1.348469e+002, 3.880328e+003
1.353290e+002, 3.919432e+003
1.358112e+002, 3.937432e+003
1.362933e+002, 3.926370e+003
1.367754e+002, 3.902139e+003
1.372575e+002, 3.901254e+003
1.377396e+002, 3.926624e+003
1.382217e+002, 3.962967e+003
1.387039e+002, 4.005749e+003
1.391860e+002, 4.057680e+003
1.396681e+002, 4.097079e+003
1.401502e+002, 4.119407e+003
1.406323e+002, 4.127921e+003
1.411144e+002, 4.137205e+003
1.415966e+002, 4.147305e+003
1.420787e+002, 4.158178e+003
1.425608e+002, 4.169130e+003
1.430429e+002, 4.178389e+003
1.435250e+002, 4.192372e+003
1.440071e+002, 4.211570e+003
1.444893e+002, 4.235881e+003
1.449714e+002, 4.268920e+003
1.454535e+002, 4.318171e+003
1.459356e+002, 4.368716e+003
1.464177e+002, 4.403585e+003
1.468998e+002, 4.405598e+003
1.473820e+002, 4.419825e+003
1.478641e+002, 4.456129e+003
1.483462e+002, 4.516839e+003
1.488283e+002, 4.581672e+003
1.493104e+002, 4.638948e+003
1.497925e+002, 4.705993e+003
1.502747e+002, 4.805022e+003
1.507568e+002, 4.948202e+003
1.512389e+002, 5.108055e+003
1.517210e+002, 5.269003e+003
1.522031e+002, 5.404782e+003
1.526852e+002, 5.620737e+003
1.531674e+002, 5.928354e+003
1.536495e+002, 6.316109e+003
1.541316e+002, 6.768311e+003
1.546137e+002, 7.260423e+003
1.550958e+002, 7.836923e+003
1.555779e+002, 8.510268e+003
1.560601e+002, 9.277154e+003
1.565422e+002, 1.014605e+004
1.570243e+002, 1.110534e+004
1.575064e+002, 1.216431e+004
1.579885e+002, 1.334094e+004
1.584706e+002, 1.456473e+004
1.589528e+002, 1.596152e+004
1.594349e+002, 1.758200e+004
1.599170e+002, 1.940867e+004
1.603991e+002, 2.150472e+004
1.608812e+002, 2.386437e+004
1.613633e+002, 2.650339e+004
1.618455e+002, 2.946315e+004
1.623276e+002, 3.279538e+004
1.628097e+002, 3.641027e+004
1.632918e+002, 4.033162e+004
1.637739e+002, 4.461261e+004
1.642560e+002, 4.908522e+004
1.647382e+002, 5.376512e+004
1.652203e+002, 5.860574e+004
1.657024e+002, 6.342892e+004
1.661845e+002, 6.826002e+004
1.666666e+002, 7.300630e+004
1.671487e+002, 7.752976e+004
1.676309e+002, 8.184283e+004
1.681130e+002, 8.594445e+004
1.685951e+002, 8.975702e+004
1.690772e+002, 9.331369e+004
1.695593e+002, 9.670776e+004
1.700414e+002, 9.995314e+004
1.705236e+002, 1.030925e+005
1.710057e+002, 1.061323e+005
1.714878e+002, 1.090575e+005
1.719699e+002, 1.119441e+005
1.724520e+002, 1.147887e+005
1.729341e+002, 1.176089e+005
1.734163e+002, 1.204766e+005
1.738984e+002, 1.233516e+005
1.743805e+002, 1.263461e+005
1.748626e+002, 1.295492e+005
1.753447e+002, 1.330229e+005
1.758268e+002, 1.367636e+005
1.763090e+002, 1.408047e+005
1.767911e+002, 1.451123e+005
1.772732e+002, 1.496402e+005
1.777553e+002, 1.537734e+005
1.782374e+002, 1.573673e+005
1.787195e+002, 1.608172e+005
1.792017e+002, 1.642624e+005
1.796838e+002, 1.677323e+005
1.801659e+002, 1.711871e+005
1.806480e+002, 1.746594e+005
1.811301e+002, 1.781552e+005
1.816122e+002, 1.818139e+005
1.820944e+002, 1.855856e+005
1.825765e+002, 1.892055e+005
1.830586e+002, 1.925809e+005
1.835407e+002, 1.957375e+005
1.840228e+002, 1.989074e+005
1.845049e+002, 2.020858e+005
1.849871e+002, 2.051901e+005
1.854692e+002, 2.080605e+005
1.859513e+002, 2.107382e+005
1.864334e+002, 2.132815e+005
1.869155e+002, 2.157057e+005
1.873976e+002, 2.180298e+005
1.878798e+002, 2.203759e+005
1.883619e+002, 2.227557e+005
1.888440e+002, 2.250930e+005
1.893261e+002, 2.272387e+005
1.898082e+002, 2.292160e+005
1.902903e+002, 2.310757e+005
1.907725e+002, 2.328165e+005
1.912546e+002, 2.344728e+005
1.917367e+002, 2.361056e+005
1.922188e+002, 2.377416e+005
1.927009e+002, 2.393198e+005
1.931830e+002, 2.406925e+005
1.936652e+002, 2.418550e+005
1.941473e+002, 2.429421e+005
1.946294e+002, 2.440058e+005
1.951115e+002, 2.450447e+005
1.955936e+002, 2.460355e+005
1.960757e+002, 2.469588e+005
1.965579e+002, 2.478633e+005
1.970400e+002, 2.488555e+005
1.975221e+002, 2.499437e+005
1.980042e+002, 2.510263e+005
1.984863e+002, 2.520423e+005
1.989684e+002, 2.529874e+005
1.994506e+002, 2.539842e+005
1.999327e+002, 2.550296e+005
2.004148e+002, 2.561325e+005
2.008969e+002, 2.573137e+005
2.013790e+002, 2.585975e+005
2.018611e+002, 2.598993e+005
2.023433e+002, 2.611846e+005
2.028254e+002, 2.624567e+005
2.033075e+002, 2.636942e+005
2.037896e+002, 2.648743e+005
2.042717e+002, 2.660222e+005
2.047538e+002, 2.672021e+005
2.052360e+002, 2.684309e+005
2.057181e+002, 2.696142e+005
2.062002e+002, 2.706713e+005
2.066823e+002, 2.715728e+005
2.071644e+002, 2.725224e+005
2.076465e+002, 2.735771e+005
2.081287e+002, 2.746593e+005
2.086108e+002, 2.755638e+005
2.090929e+002, 2.762571e+005
2.095750e+002, 2.768616e+005
2.100571e+002, 2.774394e+005
2.105392e+002, 2.779953e+005
2.110214e+002, 2.785190e+005
2.115035e+002, 2.790094e+005
2.119856e+002, 2.794716e+005
2.124677e+002, 2.799403e+005
2.129498e+002, 2.804433e+005
2.134319e+002, 2.809120e+005
2.139140e+002, 2.813093e+005
2.143962e+002, 2.816278e+005
2.148783e+002, 2.819167e+005
2.153604e+002, 2.821513e+005
2.158425e+002, 2.823659e+005
2.163246e+002, 2.826987e+005
2.168067e+002, 2.832056e+005
2.172889e+002, 2.837237e+005
2.177710e+002, 2.841412e+005
2.182531e+002, 2.843987e+005
2.187352e+002, 2.847182e+005
2.192173e+002, 2.851083e+005
2.196994e+002, 2.855722e+005
2.201816e+002, 2.861143e+005
2.206637e+002, 2.867482e+005
2.211458e+002, 2.874349e+005
2.216279e+002, 2.881507e+005
2.221100e+002, 2.889213e+005
2.225921e+002, 2.896633e+005
2.230743e+002, 2.903858e+005
2.235564e+002, 2.910776e+005
2.240385e+002, 2.917164e+005
2.245206e+002, 2.922847e+005
2.250027e+002, 2.928186e+005
2.254848e+002, 2.933391e+005
2.259670e+002, 2.938444e+005
2.264491e+002, 2.943535e+005
2.269312e+002, 2.949025e+005
2.274133e+002, 2.954654e+005
2.278954e+002, 2.959273e+005
2.283775e+002, 2.962478e+005
2.288597e+002, 2.965184e+005
2.293418e+002, 2.967939e+005
2.298239e+002, 2.971034e+005
2.303060e+002, 2.973349e+005
2.307881e+002, 2.974253e+005
2.312702e+002, 2.974175e+005
2.317524e+002, 2.975264e+005
2.322345e+002, 2.977696e+005
2.327166e+002, 2.980848e+005
2.331987e+002, 2.984429e+005
2.336808e+002, 2.988812e+005
2.341629e+002, 2.992577e+005
2.346451e+002, 2.995374e+005
2.351272e+002, 2.997428e+005
2.356093e+002, 2.999951e+005
2.360914e+002, 3.003488e+005
2.365735e+002, 3.006757e+005
2.370556e+002, 3.009043e+005
2.375378e+002, 3.010080e+005
2.380199e+002, 3.010839e+005
2.385020e+002, 3.011413e+005
2.389841e+002, 3.011838e+005
2.394662e+002, 3.012053e+005
2.399483e+002, 3.011879e+005
2.404305e+002, 3.011928e+005
2.409126e+002, 3.012611e+005
2.413947e+002, 3.014388e+005
2.418768e+002, 3.015932e+005
2.423589e+002, 3.017035e+005
2.428410e+002, 3.017907e+005
2.433232e+002, 3.019213e+005
2.438053e+002, 3.020747e+005
2.442874e+002, 3.022961e+005
2.447695e+002, 3.026153e+005
2.452516e+002, 3.030930e+005
2.457337e+002, 3.035154e+005
2.462159e+002, 3.038427e+005
2.466980e+002, 3.041060e+005
2.471801e+002, 3.044143e+005
2.476622e+002, 3.048050e+005
2.481443e+002, 3.051763e+005
2.486264e+002, 3.054683e+005
2.491086e+002, 3.056354e+005
2.495907e+002, 3.058323e+005
2.500728e+002, 3.060668e+005
2.505549e+002, 3.063338e+005
2.510370e+002, 3.066232e+005
2.515191e+002, 3.069642e+005
2.520013e+002, 3.072941e+005
2.524834e+002, 3.075904e+005
2.529655e+002, 3.078444e+005
2.534476e+002, 3.080999e+005
2.539297e+002, 3.083800e+005
2.544118e+002, 3.086565e+005
2.548940e+002, 3.088606e+005
2.553761e+002, 3.089479e+005
2.558582e+002, 3.090402e+005
2.563403e+002, 3.091833e+005
2.568224e+002, 3.093796e+005
2.573046e+002, 3.095979e+005
2.577867e+002, 3.098313e+005
2.582688e+002, 3.100788e+005
2.587509e+002, 3.103487e+005
2.592330e+002, 3.106592e+005
2.597151e+002, 3.109367e+005
2.601973e+002, 3.111434e+005
2.606794e+002, 3.112537e+005
2.611615e+002, 3.113859e+005
2.616436e+002, 3.115404e+005
2.621257e+002, 3.117189e+005
2.626078e+002, 3.119327e+005
2.630900e+002, 3.122073e+005
2.635721e+002, 3.124702e+005
2.640542e+002, 3.126877e+005
2.645363e+002, 3.128545e+005
2.650184e+002, 3.130891e+005
2.655005e+002, 3.134440e+005
2.659827e+002, 3.138235e+005
2.664648e+002, 3.140627e+005
2.669469e+002, 3.140825e+005
2.674290e+002, 3.141990e+005
2.679111e+002, 3.145671e+005
2.683932e+002, 3.152109e+005
2.688754e+002, 3.156092e+005
2.693575e+002, 3.156750e+005
2.698396e+002, 3.156152e+005
2.703217e+002, 3.156827e+005
2.708038e+002, 3.158910e+005
2.712859e+002, 3.161430e+005
2.717681e+002, 3.164146e+005
2.722502e+002, 3.167001e+005
2.727323e+002, 3.169832e+005
2.732144e+002, 3.172571e+005
2.736965e+002, 3.175282e+005
2.741786e+002, 3.177985e+005
2.746608e+002, 3.180676e+005
2.751429e+002, 3.183605e+005
2.756250e+002, 3.187077e+005
2.761071e+002, 3.190913e+005
2.765892e+002, 3.193629e+005
2.770714e+002, 3.194884e+005
2.775535e+002, 3.195878e+005
2.780356e+002, 3.197690e+005
2.785177e+002, 3.200356e+005
2.789998e+002, 3.203325e+005
2.794819e+002, 3.206647e+005
2.799641e+002, 3.210139e+005
2.804462e+002, 3.213166e+005
2.809283e+002, 3.215904e+005
2.814104e+002, 3.217392e+005
2.818925e+002, 3.216277e+005
2.823746e+002, 3.212531e+005
2.828568e+002, 3.209492e+005
2.833389e+002, 3.207750e+005
2.838210e+002, 3.207145e+005
2.843031e+002, 3.207444e+005
2.847852e+002, 3.208832e+005
2.852673e+002, 3.210297e+005
2.857495e+002, 3.210908e+005
2.862316e+002, 3.210832e+005
2.867137e+002, 3.211659e+005
2.871958e+002, 3.213766e+005
2.876779e+002, 3.216696e+005
2.881600e+002, 3.219528e+005
2.886422e+002, 3.222249e+005
2.891243e+002, 3.225063e+005
2.896064e+002, 3.227942e+005
2.900885e+002, 3.230896e+005
2.905706e+002, 3.233997e+005
2.910527e+002, 3.237150e+005
2.915349e+002, 3.240466e+005
2.920170e+002, 3.244352e+005
2.924991e+002, 3.248658e+005
2.929812e+002, 3.252671e+005
2.934633e+002, 3.255888e+005
2.939454e+002, 3.258444e+005
2.944276e+002, 3.260657e+005
2.949097e+002, 3.262454e+005
2.953918e+002, 3.264255e+005
2.958739e+002, 3.266676e+005
2.963560e+002, 3.269604e+005
2.968381e+002, 3.272556e+005
2.973203e+002, 3.275129e+005
2.978024e+002, 3.277590e+005
2.982845e+002, 3.280538e+005
2.987666e+002, 3.284028e+005
2.992487e+002, 3.287791e+005
2.997308e+002, 3.291533e+005
3.002130e+002, 3.295372e+005
3.006951e+002, 3.299572e+005
3.011772e+002, 3.304205e+005
3.016593e+002, 3.309246e+005
3.021414e+002, 3.315171e+005
3.026235e+002, 3.321883e+005
3.031057e+002, 3.327999e+005
3.035878e+002, 3.331838e+005
3.040699e+002, 3.334268e+005
3.045520e+002, 3.336888e+005
3.050341e+002, 3.341034e+005
3.055162e+002, 3.344863e+005
3.059984e+002, 3.346032e+005
3.064805e+002, 3.344853e+005
3.069626e+002, 3.343515e+005
3.074447e+002, 3.343517e+005
3.079268e+002, 3.344251e+005
3.084089e+002, 3.344920e+005
3.088911e+002, 3.345201e+005
3.093732e+002, 3.345557e+005
3.098553e+002, 3.346316e+005
3.103374e+002, 3.347447e+005
3.108195e+002, 3.348858e+005
3.113016e+002, 3.350208e+005
3.117838e+002, 3.351933e+005
3.122659e+002, 3.354552e+005
3.127480e+002, 3.358471e+005
3.132301e+002, 3.362489e+005
3.137122e+002, 3.365558e+005
3.141943e+002, 3.368229e+005
3.146765e+002, 3.371608e+005
3.151586e+002, 3.376965e+005
3.156407e+002, 3.382642e+005
3.161228e+002, 3.387532e+005
3.166049e+002, 3.391239e+005
3.170870e+002, 3.395227e+005
3.175692e+002, 3.401128e+005
3.180513e+002, 3.407471e+005
3.185334e+002, 3.412151e+005
3.190155e+002, 3.412993e+005
3.194976e+002, 3.413336e+005
3.199797e+002, 3.414409e+005
3.204619e+002, 3.416306e+005
3.209440e+002, 3.418866e+005
3.214261e+002, 3.423168e+005
3.219082e+002, 3.427562e+005
3.223903e+002, 3.430459e+005
3.228724e+002, 3.430004e+005
3.233546e+002, 3.429470e+005
3.238367e+002, 3.429396e+005
3.243188e+002, 3.429810e+005
3.248009e+002, 3.431109e+005
3.252830e+002, 3.434107e+005
3.257651e+002, 3.437584e+005
3.262473e+002, 3.440762e+005
3.267294e+002, 3.443962e+005
3.272115e+002, 3.446564e+005
3.276936e+002, 3.447711e+005
3.281757e+002, 3.448008e+005
3.286578e+002, 3.450283e+005
3.291400e+002, 3.456561e+005
3.296221e+002, 3.463285e+005
3.301042e+002, 3.469001e+005
3.305863e+002, 3.472809e+005
3.310684e+002, 3.477121e+005
3.315505e+002, 3.481442e+005
3.320327e+002, 3.486267e+005
3.325148e+002, 3.492769e+005
3.329969e+002, 3.501923e+005
3.334790e+002, 3.511241e+005
3.339611e+002, 3.519939e+005
3.344432e+002, 3.527755e+005
3.349254e+002, 3.535660e+005
3.354075e+002, 3.544273e+005
3.358896e+002, 3.552173e+005
3.363717e+002, 3.557351e+005
3.368538e+002, 3.559314e+005
3.373359e+002, 3.559453e+005
3.378180e+002, 3.557793e+005
3.383001e+002, 3.554391e+005
3.387823e+002, 3.551095e+005
3.392644e+002, 3.548232e+005
3.397465e+002, 3.545088e+005
3.402286e+002, 3.540763e+005
3.407107e+002, 3.535095e+005
3.411928e+002, 3.529816e+005
3.416750e+002, 3.525248e+005
3.421571e+002, 3.521468e+005
3.426392e+002, 3.519384e+005
3.431213e+002, 3.519374e+005
3.436034e+002, 3.519163e+005
3.440855e+002, 3.516833e+005
3.445677e+002, 3.512506e+005
3.450498e+002, 3.508399e+005
3.455319e+002, 3.504750e+005
3.460140e+002, 3.501536e+005
3.464961e+002, 3.498878e+005
3.469782e+002, 3.496764e+005
3.474604e+002, 3.494580e+005
3.479425e+002, 3.491188e+005
3.484246e+002, 3.487323e+005
3.489067e+002, 3.486295e+005
3.493888e+002, 3.488689e+005
3.498709e+002, 3.491866e+005
3.503531e+002, 3.492330e+005
3.508352e+002, 3.490753e+005
3.513173e+002, 3.489648e+005
3.517994e+002, 3.490232e+005
3.522815e+002, 3.491874e+005
3.527636e+002, 3.493490e+005
3.532458e+002, 3.495043e+005
3.537279e+002, 3.496968e+005
3.542100e+002, 3.499862e+005
3.546921e+002, 3.503298e+005
3.551742e+002, 3.506610e+005
3.556563e+002, 3.510091e+005
3.561385e+002, 3.512818e+005
3.566206e+002, 3.513197e+005
3.571027e+002, 3.511716e+005
3.575848e+002, 3.510854e+005
3.580669e+002, 3.512823e+005
3.585490e+002, 3.515757e+005
3.590312e+002, 3.517858e+005
3.595133e+002, 3.518563e+005
3.599954e+002, 3.519017e+005
3.604775e+002, 3.519752e+005
3.609596e+002, 3.520776e+005
3.614417e+002, 3.522059e+005
3.619239e+002, 3.524028e+005
3.624060e+002, 3.526001e+005
3.628881e+002, 3.527612e+005
3.633702e+002, 3.528802e+005
3.638523e+002, 3.529849e+005
3.643344e+002, 3.530606e+005
3.648166e+002, 3.531360e+005
3.652987e+002, 3.532455e+005
3.657808e+002, 3.533995e+005
3.662629e+002, 3.535845e+005
3.667450e+002, 3.538023e+005
3.672271e+002, 3.540516e+005
3.677093e+002, 3.543115e+005
3.681914e+002, 3.546036e+005
3.686735e+002, 3.548852e+005
3.691556e+002, 3.551285e+005
3.696377e+002, 3.552580e+005
3.701198e+002, 3.554282e+005
3.706020e+002, 3.556644e+005
3.710841e+002, 3.559433e+005
3.715662e+002, 3.561872e+005
3.720483e+002, 3.563763e+005
3.725304e+002, 3.565449e+005
3.730125e+002, 3.567111e+005
3.734947e+002, 3.568938e+005
3.739768e+002, 3.570032e+005
3.744589e+002, 3.570022e+005
3.749410e+002, 3.569578e+005
3.754231e+002, 3.569782e+005
3.759052e+002, 3.570811e+005
3.763874e+002, 3.572188e+005
3.768695e+002, 3.573899e+005
3.773516e+002, 3.576018e+005
3.778337e+002, 3.578200e+005
3.783158e+002, 3.580641e+005
3.787979e+002, 3.582955e+005
3.792801e+002, 3.584522e+005
3.797622e+002, 3.585328e+005
3.802443e+002, 3.586726e+005
3.807264e+002, 3.589043e+005
3.812085e+002, 3.592089e+005
3.816906e+002, 3.595400e+005
3.821728e+002, 3.598925e+005
3.826549e+002, 3.602713e+005
3.831370e+002, 3.606640e+005
3.836191e+002, 3.610738e+005
3.841012e+002, 3.615191e+005
3.845833e+002, 3.620063e+005
3.850655e+002, 3.624985e+005
3.855476e+002, 3.629443e+005
3.860297e+002, 3.633510e+005
3.865118e+002, 3.637341e+005
3.869939e+002, 3.640913e+005
3.874760e+002, 3.644393e+005
3.879582e+002, 3.648329e+005
3.884403e+002, 3.652802e+005
3.889224e+002, 3.656694e+005
3.894045e+002, 3.659408e+005
3.898866e+002, 3.660946e+005
3.903687e+002, 3.661194e+005
3.908509e+002, 3.658978e+005
3.913330e+002, 3.656807e+005
3.918151e+002, 3.657102e+005
3.922972e+002, 3.659211e+005
3.927793e+002, 3.660377e+005
3.932614e+002, 3.657530e+005
3.937436e+002, 3.654314e+005
3.942257e+002, 3.653348e+005
3.947078e+002, 3.655666e+005
3.951899e+002, 3.658793e+005
3.956720e+002, 3.662093e+005
3.961541e+002, 3.665548e+005
3.966363e+002, 3.669149e+005
3.971184e+002, 3.672976e+005
3.976005e+002, 3.676817e+005
3.980826e+002, 3.680548e+005
3.985647e+002, 3.684120e+005
3.990468e+002, 3.687856e+005
3.995290e+002, 3.692373e+005
4.000111e+002, 3.696729e+005
4.004932e+002, 3.700145e+005
4.009753e+002, 3.701472e+005
4.014574e+002, 3.703466e+005
4.019395e+002, 3.706658e+005
4.024217e+002, 3.710787e+005
4.029038e+002, 3.714520e+005
4.033859e+002, 3.717770e+005
4.038680e+002, 3.720788e+005
4.043501e+002, 3.723887e+005
4.048322e+002, 3.727493e+005
4.053144e+002, 3.729523e+005
4.057965e+002, 3.729608e+005
4.062786e+002, 3.728525e+005
4.067607e+002, 3.727371e+005
4.072428e+002, 3.726096e+005
4.077249e+002, 3.724953e+005
4.082071e+002, 3.724011e+005
4.086892e+002, 3.723259e+005
4.091713e+002, 3.722539e+005
4.096534e+002, 3.721742e+005
4.101355e+002, 3.721506e+005
4.106176e+002, 3.722907e+005
4.110998e+002, 3.725577e+005
4.115819e+002, 3.727283e+005
4.120640e+002, 3.727265e+005
4.125461e+002, 3.726603e+005
4.130282e+002, 3.727292e+005
4.135103e+002, 3.729071e+005
4.139925e+002, 3.730454e+005
4.144746e+002, 3.730136e+005
4.149567e+002, 3.729014e+005
4.154388e+002, 3.728540e+005
4.159209e+002, 3.728883e+005
4.164030e+002, 3.729365e+005
4.168852e+002, 3.729900e+005
4.173673e+002, 3.730143e+005
4.178494e+002, 3.729540e+005
4.183315e+002, 3.727076e+005
4.188136e+002, 3.724432e+005
4.192957e+002, 3.722350e+005
4.197779e+002, 3.720951e+005
4.202600e+002, 3.720643e+005
4.207421e+002, 3.722548e+005
4.212242e+002, 3.725143e+005
4.217063e+002, 3.727294e+005
4.221884e+002, 3.728663e+005
4.226706e+002, 3.729991e+005
4.231527e+002, 3.731359e+005
4.236348e+002, 3.732841e+005
4.241169e+002, 3.734562e+005
4.245990e+002, 3.737283e+005
4.250811e+002, 3.739499e+005
4.255633e+002, 3.740053e+005
4.260454e+002, 3.738306e+005
4.265275e+002, 3.739104e+005
4.270096e+002, 3.743919e+005
4.274917e+002, 3.750007e+005
4.279738e+002, 3.755199e+005
4.284560e+002, 3.759278e+005
4.289381e+002, 3.762720e+005
4.294202e+002, 3.765458e+005
4.299023e+002, 3.767523e+005
4.303844e+002, 3.769231e+005
4.308665e+002, 3.770657e+005
4.313487e+002, 3.771461e+005
4.318308e+002, 3.771063e+005
4.323129e+002, 3.769359e+005
4.327950e+002, 3.769132e+005
4.332771e+002, 3.770738e+005
4.337592e+002, 3.773052e+005
4.342414e+002, 3.774719e+005
4.347235e+002, 3.775804e+005
4.352056e+002, 3.776786e+005
4.356877e+002, 3.777806e+005
4.361698e+002, 3.778883e+005
4.366519e+002, 3.780040e+005
4.371341e+002, 3.781304e+005
4.376162e+002, 3.782710e+005
4.380983e+002, 3.784681e+005
4.385804e+002, 3.786757e+005
4.390625e+002, 3.787798e+005
4.395446e+002, 3.787150e+005
4.400268e+002, 3.787074e+005
4.405089e+002, 3.790074e+005
4.409910e+002, 3.795125e+005
4.414731e+002, 3.800073e+005
4.419552e+002, 3.804255e+005
4.424373e+002, 3.807775e+005
4.429195e+002, 3.810623e+005
4.434016e+002, 3.812778e+005
4.438837e+002, 3.814558e+005
4.443658e+002, 3.815749e+005
4.448479e+002, 3.816718e+005
4.453300e+002, 3.817721e+005
4.458122e+002, 3.818561e+005
4.462943e+002, 3.819673e+005
4.467764e+002, 3.821465e+005
4.472585e+002, 3.823566e+005
4.477406e+002, 3.825053e+005
4.482227e+002, 3.825514e+005
4.487049e+002, 3.825710e+005
4.491870e+002, 3.825871e+005
4.496691e+002, 3.826045e+005
4.501512e+002, 3.826051e+005
4.506333e+002, 3.825763e+005
4.511154e+002, 3.825547e+005
4.515976e+002, 3.825840e+005
4.520797e+002, 3.826906e+005
4.525618e+002, 3.827866e+005
4.530439e+002, 3.828747e+005
4.535260e+002, 3.829444e+005
4.540081e+002, 3.829187e+005
4.544903e+002, 3.827709e+005
4.549724e+002, 3.827169e+005
4.554545e+002, 3.829164e+005
4.559366e+002, 3.833318e+005
4.564187e+002, 3.837267e+005
4.569008e+002, 3.840897e+005
4.573830e+002, 3.844167e+005
4.578651e+002, 3.846697e+005
4.583472e+002, 3.848675e+005
4.588293e+002, 3.850698e+005
4.593114e+002, 3.853021e+005
4.597935e+002, 3.855320e+005
4.602757e+002, 3.857168e+005
4.607578e+002, 3.858587e+005
4.612399e+002, 3.859918e+005
4.617220e+002, 3.861539e+005
4.622041e+002, 3.863071e+005
4.626862e+002, 3.863949e+005
4.631684e+002, 3.863873e+005
4.636505e+002, 3.864321e+005
4.641326e+002, 3.867155e+005
4.646147e+002, 3.870703e+005
4.650968e+002, 3.872825e+005
4.655789e+002, 3.871487e+005
4.660611e+002, 3.870133e+005
4.665432e+002, 3.869906e+005
4.670253e+002, 3.870774e+005
4.675074e+002, 3.871596e+005
4.679895e+002, 3.872418e+005
4.684716e+002, 3.873092e+005
4.689538e+002, 3.873457e+005
4.694359e+002, 3.872999e+005
4.699180e+002, 3.873341e+005
4.704001e+002, 3.874802e+005
4.708822e+002, 3.876769e+005
4.713643e+002, 3.878356e+005
4.718465e+002, 3.879471e+005
4.723286e+002, 3.880280e+005
4.728107e+002, 3.880611e+005
4.732928e+002, 3.880602e+005
4.737749e+002, 3.881384e+005
4.742570e+002, 3.883098e+005
4.747392e+002, 3.884698e+005
4.752213e+002, 3.885035e+005
4.757034e+002, 3.884389e+005
4.761855e+002, 3.884812e+005
4.766676e+002, 3.886715e+005
4.771497e+002, 3.889161e+005
4.776319e+002, 3.890958e+005
4.781140e+002, 3.892276e+005
4.785961e+002, 3.893569e+005
4.790782e+002, 3.895089e+005
4.795603e+002, 3.896689e+005
4.800424e+002, 3.898226e+005
4.805246e+002, 3.899695e+005
4.810067e+002, 3.901052e+005
4.814888e+002, 3.901866e+005
4.819709e+002, 3.902736e+005
4.824530e+002, 3.904268e+005
4.829352e+002, 3.906860e+005
4.834173e+002, 3.909325e+005
4.838994e+002, 3.911273e+005
4.843815e+002, 3.912743e+005
4.848636e+002, 3.913789e+005
4.853457e+002, 3.913742e+005
4.858279e+002, 3.913934e+005
4.863100e+002, 3.914899e+005
4.867921e+002, 3.916669e+005
4.872742e+002, 3.918061e+005
4.877563e+002, 3.918502e+005
4.882384e+002, 3.919292e+005
4.887206e+002, 3.921371e+005
4.892027e+002, 3.925759e+005
4.896848e+002, 3.928797e+005
4.901669e+002, 3.930079e+005
4.906490e+002, 3.930481e+005
4.911311e+002, 3.931213e+005
4.916133e+002, 3.932225e+005
4.920954e+002, 3.933916e+005
4.925775e+002, 3.936523e+005
4.930596e+002, 3.939837e+005
4.935417e+002, 3.943304e+005
4.940238e+002, 3.946870e+005
4.945060e+002, 3.950153e+005
4.949881e+002, 3.952682e+005
4.954702e+002, 3.954607e+005
4.959523e+002, 3.956341e+005
4.964344e+002, 3.957789e+005
4.969165e+002, 3.959394e+005
4.973987e+002, 3.962049e+005
4.978808e+002, 3.965139e+005
4.983629e+002, 3.967476e+005
4.988450e+002, 3.968058e+005
4.993271e+002, 3.968204e+005
4.998092e+002, 3.968992e+005
5.002914e+002, 3.970253e+005
5.007735e+002, 3.970826e+005
5.012556e+002, 3.969557e+005
5.017377e+002, 3.968108e+005
5.022198e+002, 3.967556e+005
5.027019e+002, 3.968493e+005
5.031841e+002, 3.969257e+005
5.036662e+002, 3.969307e+005
5.041483e+002, 3.969289e+005
5.046304e+002, 3.969960e+005
5.051125e+002, 3.971741e+005
5.055946e+002, 3.973498e+005
5.060768e+002, 3.974966e+005
5.065589e+002, 3.976239e+005
5.070410e+002, 3.977926e+005
5.075231e+002, 3.980113e+005
5.080052e+002, 3.982329e+005
5.084873e+002, 3.984357e+005
5.089695e+002, 3.986141e+005
5.094516e+002, 3.987745e+005
5.099337e+002, 3.989130e+005
5.104158e+002, 3.990328e+005
5.108979e+002, 3.991441e+005
5.113800e+002, 3.992409e+005
5.118622e+002, 3.993005e+005
5.123443e+002, 3.993242e+005
5.128264e+002, 3.992961e+005
5.133085e+002, 3.991298e+005
5.137906e+002, 3.988775e+005
5.142728e+002, 3.987238e+005
5.147549e+002, 3.989462e+005
5.152370e+002, 3.992043e+005
5.157191e+002, 3.991544e+005
5.162012e+002, 3.987561e+005
5.166833e+002, 3.984209e+005
5.171655e+002, 3.983907e+005
5.176476e+002, 3.984847e+005
5.181297e+002, 3.985481e+005
5.186118e+002, 3.984872e+005
5.190939e+002, 3.984762e+005
5.195760e+002, 3.985796e+005
5.200582e+002, 3.987501e+005
5.205403e+002, 3.988725e+005
5.210224e+002, 3.988597e+005
5.215045e+002, 3.989155e+005
5.219866e+002, 3.991045e+005
5.224688e+002, 3.994250e+005
5.229509e+002, 3.997518e+005
5.234330e+002, 4.000989e+005
5.239151e+002, 4.004113e+005
5.243972e+002, 4.006178e+005
5.248793e+002, 4.007108e+005
5.253615e+002, 4.008680e+005
5.258436e+002, 4.011058e+005
5.263257e+002, 4.014011e+005
5.268078e+002, 4.017922e+005
5.272899e+002, 4.022344e+005
5.277720e+002, 4.025093e+005
5.282542e+002, 4.024581e+005
5.287363e+002, 4.022448e+005
5.292184e+002, 4.020476e+005
5.297005e+002, 4.018721e+005
5.301826e+002, 4.017403e+005
5.306647e+002, 4.017024e+005
5.311469e+002, 4.016970e+005
5.316290e+002, 4.016619e+005
5.321111e+002, 4.015781e+005
5.325932e+002, 4.015432e+005
5.330753e+002, 4.016567e+005
5.335574e+002, 4.018205e+005
5.340396e+002, 4.019311e+005
5.345217e+002, 4.019305e+005
5.350038e+002, 4.019347e+005
5.354859e+002, 4.019709e+005
5.359680e+002, 4.020290e+005
5.364501e+002, 4.020642e+005
5.369323e+002, 4.020334e+005
5.374144e+002, 4.020556e+005
5.378965e+002, 4.021866e+005
5.383786e+002, 4.024269e+005
5.388607e+002, 4.026364e+005
5.393428e+002, 4.028020e+005
5.398250e+002, 4.029554e+005
5.403071e+002, 4.031246e+005
5.407892e+002, 4.033023e+005
5.412713e+002, 4.034646e+005
5.417534e+002, 4.036017e+005
5.422355e+002, 4.037280e+005
5.427177e+002, 4.038672e+005
5.431998e+002, 4.040140e+005
5.436819e+002, 4.041492e+005
5.441640e+002, 4.042894e+005
5.446461e+002, 4.043962e+005
5.451282e+002, 4.043924e+005
5.456104e+002, 4.043034e+005
5.460925e+002, 4.042788e+005
5.465746e+002, 4.044355e+005
5.470567e+002, 4.046583e+005
5.475388e+002, 4.048839e+005
5.480209e+002, 4.051159e+005
5.485031e+002, 4.053083e+005
5.489852e+002, 4.053915e+005
5.494673e+002, 4.054586e+005
5.499494e+002, 4.056140e+005
5.504315e+002, 4.059979e+005
5.509136e+002, 4.062383e+005
5.513958e+002, 4.062168e+005
5.518779e+002, 4.060418e+005
5.523600e+002, 4.060692e+005
5.528421e+002, 4.063649e+005
5.533242e+002, 4.066224e+005
5.538063e+002, 4.067075e+005
5.542885e+002, 4.066384e+005
5.547706e+002, 4.065427e+005
5.552527e+002, 4.064173e+005
5.557348e+002, 4.063122e+005
5.562169e+002, 4.062757e+005
5.566990e+002, 4.062962e+005
5.571812e+002, 4.063425e+005
5.576633e+002, 4.064151e+005
5.581454e+002, 4.065077e+005
5.586275e+002, 4.066668e+005
5.591096e+002, 4.068367e+005
5.595917e+002, 4.069202e+005
5.600739e+002, 4.067839e+005
5.605560e+002, 4.066424e+005
5.610381e+002, 4.065857e+005
5.615202e+002, 4.066092e+005
5.620023e+002, 4.066873e+005
5.624844e+002, 4.068917e+005
5.629666e+002, 4.070762e+005
5.634487e+002, 4.071474e+005
5.639308e+002, 4.070584e+005
5.644129e+002, 4.070741e+005
5.648950e+002, 4.072457e+005
5.653771e+002, 4.074586e+005
5.658593e+002, 4.076262e+005
5.663414e+002, 4.077452e+005
5.668235e+002, 4.078153e+005
5.673056e+002, 4.078232e+005
5.677877e+002, 4.078019e+005
5.682698e+002, 4.078180e+005
5.687520e+002, 4.078706e+005
5.692341e+002, 4.079122e+005
5.697162e+002, 4.079124e+005
5.701983e+002, 4.079091e+005
5.706804e+002, 4.080093e+005
5.711625e+002, 4.081964e+005
5.716447e+002, 4.083273e+005
5.721268e+002, 4.082018e+005
5.726089e+002, 4.080435e+005
5.730910e+002, 4.080913e+005
5.735731e+002, 4.083963e+005
5.740552e+002, 4.087319e+005
5.745374e+002, 4.090099e+005
5.750195e+002, 4.092633e+005
5.755016e+002, 4.095223e+005
5.759837e+002, 4.097580e+005
5.764658e+002, 4.100283e+005
5.769479e+002, 4.103559e+005
5.774301e+002, 4.107032e+005
5.779122e+002, 4.109915e+005
5.783943e+002, 4.111416e+005
5.788764e+002, 4.113726e+005
5.793585e+002, 4.117754e+005
5.798406e+002, 4.123083e+005
5.803228e+002, 4.127314e+005
5.808049e+002, 4.130495e+005
5.812870e+002, 4.132176e+005
5.817691e+002, 4.131477e+005
5.822512e+002, 4.129000e+005
5.827333e+002, 4.127272e+005
5.832155e+002, 4.126602e+005
5.836975e+002, 4.125706e+005
5.841796e+002, 4.122323e+005
5.846617e+002, 4.118206e+005
5.851439e+002, 4.116219e+005
5.856260e+002, 4.117576e+005
5.861081e+002, 4.120609e+005
5.865902e+002, 4.126636e+005
5.870723e+002, 4.133413e+005
5.875544e+002, 4.136512e+005
5.880366e+002, 4.130337e+005
5.885187e+002, 4.124681e+005
5.890008e+002, 4.122782e+005
5.894829e+002, 4.124509e+005
5.899650e+002, 4.126269e+005
5.904471e+002, 4.128205e+005
5.909293e+002, 4.129754e+005
5.914114e+002, 4.130493e+005
5.918935e+002, 4.130224e+005
5.923756e+002, 4.130149e+005
5.928577e+002, 4.130242e+005
5.933398e+002, 4.130523e+005
5.938220e+002, 4.131226e+005
5.943041e+002, 4.132272e+005
5.947862e+002, 4.132946e+005
5.952683e+002, 4.133196e+005
5.957504e+002, 4.132990e+005
5.962325e+002, 4.131983e+005
5.967147e+002, 4.130517e+005
5.971968e+002, 4.129422e+005
5.976789e+002, 4.128935e+005
5.981610e+002, 4.129138e+005
5.986431e+002, 4.130907e+005
5.991252e+002, 4.133719e+005
5.996074e+002, 4.135149e+005
6.000895e+002, 4.132872e+005
6.005716e+002, 4.130255e+005
6.010537e+002, 4.128990e+005
6.015358e+002, 4.129547e+005
6.020179e+002, 4.129777e+005
6.025001e+002, 4.129319e+005
6.029822e+002, 4.128848e+005
6.034643e+002, 4.128893e+005
6.039464e+002, 4.129594e+005
6.044285e+002, 4.130305e+005
6.049106e+002, 4.131021e+005
6.053928e+002, 4.131692e+005
6.058749e+002, 4.131741e+005
6.063570e+002, 4.131321e+005
6.068391e+002, 4.132645e+005
6.073212e+002, 4.137228e+005
6.078033e+002, 4.142772e+005
6.082855e+002, 4.145622e+005
6.087676e+002, 4.146316e+005
6.092497e+002, 4.147026e+005
6.097318e+002, 4.149176e+005
6.102139e+002, 4.151556e+005
6.106960e+002, 4.153098e+005
6.111782e+002, 4.153763e+005
6.116603e+002, 4.154504e+005
6.121424e+002, 4.156143e+005
6.126245e+002, 4.157627e+005
6.131066e+002, 4.158214e+005
6.135887e+002, 4.157163e+005
6.140709e+002, 4.157013e+005
6.145530e+002, 4.158356e+005
6.150351e+002, 4.160190e+005
6.155172e+002, 4.161307e+005
6.159993e+002, 4.161370e+005
6.164814e+002, 4.162573e+005
6.169636e+002, 4.165550e+005
6.174457e+002, 4.169337e+005
6.179278e+002, 4.172020e+005
6.184099e+002, 4.173691e+005
6.188920e+002, 4.175459e+005
6.193741e+002, 4.177377e+005
6.198563e+002, 4.179875e+005
6.203384e+002, 4.184222e+005
6.208205e+002, 4.189942e+005
6.213026e+002, 4.194816e+005
6.217847e+002, 4.196493e+005
6.222668e+002, 4.197586e+005
6.227490e+002, 4.200108e+005
6.232311e+002, 4.204403e+005
6.237132e+002, 4.208547e+005
6.241953e+002, 4.211579e+005
6.246774e+002, 4.214713e+005
6.251595e+002, 4.218907e+005
6.256417e+002, 4.225286e+005
6.261238e+002, 4.230713e+005
6.266059e+002, 4.234734e+005
6.270880e+002, 4.238408e+005
6.275701e+002, 4.242759e+005
6.280522e+002, 4.247698e+005
6.285344e+002, 4.254663e+005
6.290165e+002, 4.264317e+005
6.294986e+002, 4.275608e+005
6.299807e+002, 4.286623e+005
6.304628e+002, 4.297478e+005
6.309449e+002, 4.308589e+005
6.314271e+002, 4.319690e+005
6.319092e+002, 4.331477e+005
6.323913e+002, 4.345188e+005
6.328734e+002, 4.360516e+005
6.333555e+002, 4.375361e+005
6.338376e+002, 4.388868e+005
6.343198e+002, 4.401468e+005
6.348019e+002, 4.414026e+005
6.352840e+002, 4.427234e+005
6.357661e+002, 4.437081e+005
6.362482e+002, 4.443671e+005
6.367303e+002, 4.446556e+005
6.372125e+002, 4.445463e+005
6.376946e+002, 4.440510e+005
6.381767e+002, 4.430969e+005
6.386588e+002, 4.416264e+005
6.391409e+002, 4.398118e+005
6.396230e+002, 4.378192e+005
6.401052e+002, 4.356645e+005
6.405873e+002, 4.336589e+005
6.410694e+002, 4.319036e+005
6.415515e+002, 4.303368e+005
6.420336e+002, 4.288840e+005
6.425157e+002, 4.275700e+005
6.429979e+002, 4.264417e+005
6.434800e+002, 4.256024e+005
6.439621e+002, 4.249013e+005
6.444442e+002, 4.242198e+005
6.449263e+002, 4.235758e+005
6.454084e+002, 4.231086e+005
6.458906e+002, 4.230241e+005
6.463727e+002, 4.229931e+005
6.468548e+002, 4.228538e+005
6.473369e+002, 4.225848e+005
6.478190e+002, 4.223784e+005
6.483011e+002, 4.222788e+005
6.487833e+002, 4.221806e+005
6.492654e+002, 4.219764e+005
6.497475e+002, 4.216438e+005
6.502296e+002, 4.214566e+005
6.507117e+002, 4.214393e+005
6.511938e+002, 4.215246e+005
6.516760e+002, 4.216447e+005
6.521581e+002, 4.217995e+005
6.526402e+002, 4.219895e+005
6.531223e+002, 4.222231e+005
6.536044e+002, 4.224674e+005
6.540865e+002, 4.227494e+005
6.545687e+002, 4.230154e+005
6.550508e+002, 4.231668e+005
6.555329e+002, 4.230888e+005
6.560150e+002, 4.229711e+005
6.564971e+002, 4.228199e+005
6.569792e+002, 4.226689e+005
6.574614e+002, 4.226864e+005
6.579435e+002, 4.230263e+005
6.584256e+002, 4.233218e+005
6.589077e+002, 4.234358e+005
6.593898e+002, 4.233766e+005
6.598719e+002, 4.233753e+005
6.603541e+002, 4.234412e+005
6.608362e+002, 4.235168e+005
6.613183e+002, 4.235618e+005
6.618004e+002, 4.235837e+005
6.622825e+002, 4.236148e+005
6.627646e+002, 4.236583e+005
6.632468e+002, 4.236984e+005
6.637289e+002, 4.237208e+005
6.642110e+002, 4.237353e+005
6.646931e+002, 4.237626e+005
6.651752e+002, 4.238318e+005
6.656573e+002, 4.238608e+005
6.661395e+002, 4.237376e+005
6.666216e+002, 4.235892e+005
6.671037e+002, 4.235701e+005
6.675858e+002, 4.237946e+005
6.680679e+002, 4.240429e+005
6.685500e+002, 4.243116e+005
6.690322e+002, 4.245883e+005
6.695143e+002, 4.248602e+005
6.699964e+002, 4.251508e+005
6.704785e+002, 4.253110e+005
6.709606e+002, 4.252478e+005
6.714427e+002, 4.250513e+005
6.719249e+002, 4.249214e+005
6.724070e+002, 4.248654e+005
6.728891e+002, 4.249679e+005
6.733712e+002, 4.254742e+005
6.738533e+002, 4.260488e+005
6.743354e+002, 4.262348e+005
6.748176e+002, 4.260621e+005
6.752997e+002, 4.259403e+005
6.757818e+002, 4.261218e+005
6.762639e+002, 4.263872e+005
6.767460e+002, 4.266051e+005
6.772281e+002, 4.267410e+005
6.777103e+002, 4.268990e+005
6.781924e+002, 4.270624e+005
6.786745e+002, 4.272701e+005
6.791566e+002, 4.275553e+005
6.796387e+002, 4.279274e+005
6.801208e+002, 4.283446e+005
6.806030e+002, 4.288252e+005
6.810851e+002, 4.293005e+005
6.815672e+002, 4.297185e+005
6.820493e+002, 4.300677e+005
6.825314e+002, 4.303023e+005
6.830135e+002, 4.303573e+005
6.834957e+002, 4.304085e+005
6.839778e+002, 4.306780e+005
6.844599e+002, 4.310722e+005
6.849420e+002, 4.314062e+005
6.854241e+002, 4.315938e+005
6.859063e+002, 4.317357e+005
6.863884e+002, 4.318228e+005
6.868705e+002, 4.318921e+005
6.873526e+002, 4.320692e+005
6.878347e+002, 4.324582e+005
6.883168e+002, 4.328278e+005
6.887990e+002, 4.331276e+005
6.892811e+002, 4.333644e+005
6.897632e+002, 4.335457e+005
6.902453e+002, 4.336774e+005
6.907274e+002, 4.337300e+005
6.912095e+002, 4.336558e+005
6.916917e+002, 4.334893e+005
6.921738e+002, 4.333369e+005
6.926559e+002, 4.331963e+005
6.931380e+002, 4.330119e+005
6.936201e+002, 4.326219e+005
6.941022e+002, 4.322325e+005
6.945844e+002, 4.320648e+005
6.950665e+002, 4.321748e+005
6.955486e+002, 4.322873e+005
6.960307e+002, 4.322568e+005
6.965128e+002, 4.322166e+005
6.969949e+002, 4.322868e+005
6.974771e+002, 4.326057e+005
6.979592e+002, 4.327413e+005
6.984413e+002, 4.326385e+005
6.989234e+002, 4.324326e+005
6.994055e+002, 4.322922e+005
6.998876e+002, 4.322258e+005
7.003698e+002, 4.321180e+005
7.008519e+002, 4.319488e+005
7.013340e+002, 4.317636e+005
7.018161e+002, 4.316329e+005
7.022982e+002, 4.315423e+005
7.027803e+002, 4.314428e+005
7.032625e+002, 4.312672e+005
7.037446e+002, 4.311430e+005
7.042267e+002, 4.311613e+005
7.047088e+002, 4.312927e+005
7.051909e+002, 4.314737e+005
7.056730e+002, 4.317536e+005
7.061552e+002, 4.319912e+005
7.066373e+002, 4.321063e+005
7.071194e+002, 4.321353e+005
7.076015e+002, 4.322805e+005
7.080836e+002, 4.325764e+005
7.085657e+002, 4.328492e+005
7.090479e+002, 4.330058e+005
7.095300e+002, 4.330765e+005
7.100121e+002, 4.332211e+005
7.104942e+002, 4.334325e+005
7.109763e+002, 4.336159e+005
7.114584e+002, 4.337231e+005
7.119406e+002, 4.337583e+005
7.124227e+002, 4.337143e+005
7.129048e+002, 4.335963e+005
7.133869e+002, 4.334656e+005
7.138690e+002, 4.333783e+005
7.143511e+002, 4.332803e+005
7.148333e+002, 4.331258e+005
7.153154e+002, 4.328800e+005
7.157975e+002, 4.327290e+005
7.162796e+002, 4.327936e+005
7.167617e+002, 4.328249e+005
7.172438e+002, 4.325590e+005
7.177260e+002, 4.319512e+005
7.182081e+002, 4.316496e+005
7.186902e+002, 4.317391e+005
7.191723e+002, 4.319732e+005
7.196544e+002, 4.320774e+005
7.201365e+002, 4.320982e+005
7.206187e+002, 4.321427e+005
7.211008e+002, 4.322229e+005
7.215829e+002, 4.323538e+005
7.220650e+002, 4.325671e+005
7.225471e+002, 4.328238e+005
7.230292e+002, 4.330778e+005
7.235114e+002, 4.332807e+005
7.239935e+002, 4.335018e+005
7.244756e+002, 4.337546e+005
7.249577e+002, 4.340215e+005
7.254398e+002, 4.342891e+005
7.259219e+002, 4.345624e+005
7.264041e+002, 4.347867e+005
7.268862e+002, 4.349133e+005
7.273683e+002, 4.350182e+005
7.278504e+002, 4.353458e+005
7.283325e+002, 4.358518e+005
7.288146e+002, 4.362354e+005
7.292968e+002, 4.363249e+005
7.297789e+002, 4.362496e+005
7.302610e+002, 4.360693e+005
7.307431e+002, 4.358332e+005
7.312252e+002, 4.357042e+005
7.317073e+002, 4.358882e+005
7.321895e+002, 4.360639e+005
7.326716e+002, 4.360552e+005
7.331537e+002, 4.358790e+005
7.336358e+002, 4.358368e+005
7.341179e+002, 4.360461e+005
7.346000e+002, 4.361981e+005
7.350822e+002, 4.361564e+005
7.355643e+002, 4.359425e+005
7.360464e+002, 4.357141e+005
7.365285e+002, 4.354699e+005
7.370106e+002, 4.352883e+005
7.374927e+002, 4.352396e+005
7.379749e+002, 4.352875e+005
7.384570e+002, 4.353935e+005
7.389391e+002, 4.355528e+005
7.394212e+002, 4.356903e+005
7.399033e+002, 4.358201e+005
7.403854e+002, 4.358668e+005
7.408676e+002, 4.357183e+005
7.413497e+002, 4.352512e+005
7.418318e+002, 4.350468e+005
7.423139e+002, 4.353347e+005
7.427960e+002, 4.356596e+005
7.432781e+002, 4.356648e+005
7.437603e+002, 4.352696e+005
7.442424e+002, 4.351701e+005
7.447245e+002, 4.354369e+005
7.452066e+002, 4.357960e+005
7.456887e+002, 4.360063e+005
7.461708e+002, 4.360884e+005
7.466530e+002, 4.360521e+005
7.471351e+002, 4.358689e+005
7.476172e+002, 4.357492e+005
7.480993e+002, 4.359128e+005
7.485814e+002, 4.362011e+005
7.490635e+002, 4.364311e+005
7.495457e+002, 4.364808e+005
7.500278e+002, 4.365997e+005
7.505099e+002, 4.367813e+005
7.509920e+002, 4.370578e+005
7.514741e+002, 4.375272e+005
7.519562e+002, 4.382841e+005
7.524384e+002, 4.387436e+005
7.529205e+002, 4.387494e+005
7.534026e+002, 4.385584e+005
7.538847e+002, 4.385367e+005
7.543668e+002, 4.386617e+005
7.548489e+002, 4.388759e+005
7.553311e+002, 4.392284e+005
7.558132e+002, 4.395319e+005
7.562953e+002, 4.395654e+005
7.567774e+002, 4.394439e+005
7.572595e+002, 4.393703e+005
7.577416e+002, 4.395353e+005
7.582238e+002, 4.396131e+005
7.587059e+002, 4.394893e+005
7.591880e+002, 4.392526e+005
7.596701e+002, 4.390800e+005
7.601522e+002, 4.390003e+005
7.606343e+002, 4.389103e+005
7.611165e+002, 4.387672e+005
7.615986e+002, 4.386248e+005
7.620807e+002, 4.386201e+005
7.625628e+002, 4.387394e+005
7.630449e+002, 4.388903e+005
7.635270e+002, 4.390884e+005
7.640092e+002, 4.392451e+005
7.644913e+002, 4.392402e+005
7.649734e+002, 4.391177e+005
7.654555e+002, 4.390180e+005
7.659376e+002, 4.389616e+005
7.664197e+002, 4.389626e+005
7.669019e+002, 4.390498e+005
7.673840e+002, 4.391984e+005
7.678661e+002, 4.393157e+005
7.683482e+002, 4.393976e+005
7.688303e+002, 4.394466e+005
7.693124e+002, 4.394546e+005
7.697946e+002, 4.394308e+005
7.702767e+002, 4.393912e+005
7.707588e+002, 4.393416e+005
7.712409e+002, 4.393393e+005
7.717230e+002, 4.394443e+005
7.722051e+002, 4.395993e+005
7.726873e+002, 4.397797e+005
7.731694e+002, 4.399749e+005
7.736515e+002, 4.401081e+005
7.741336e+002, 4.401705e+005
7.746157e+002, 4.401526e+005
7.750978e+002, 4.400027e+005
7.755800e+002, 4.397332e+005
7.760621e+002, 4.396347e+005
7.765442e+002, 4.397506e+005
7.770263e+002, 4.399192e+005
7.775084e+002, 4.400602e+005
7.779905e+002, 4.401791e+005
7.784727e+002, 4.403016e+005
7.789548e+002, 4.404244e+005
7.794369e+002, 4.405377e+005
7.799190e+002, 4.406574e+005
7.804011e+002, 4.407412e+005
7.808832e+002, 4.407160e+005
7.813654e+002, 4.405776e+005
7.818475e+002, 4.404887e+005
7.823296e+002, 4.405831e+005
7.828117e+002, 4.406631e+005
7.832938e+002, 4.406227e+005
7.837759e+002, 4.404506e+005
7.842581e+002, 4.403082e+005
7.847402e+002, 4.401926e+005
7.852223e+002, 4.401431e+005
7.857044e+002, 4.402979e+005
7.861865e+002, 4.405593e+005
7.866686e+002, 4.404618e+005
7.871508e+002, 4.400006e+005
7.876329e+002, 4.395404e+005
7.881150e+002, 4.392630e+005
7.885971e+002, 4.391701e+005
7.890792e+002, 4.393115e+005
7.895613e+002, 4.397147e+005
7.900435e+002, 4.400921e+005
7.905256e+002, 4.403889e+005
7.910077e+002, 4.406138e+005
7.914898e+002, 4.407413e+005
7.919719e+002, 4.407324e+005
7.924540e+002, 4.408622e+005
7.929362e+002, 4.411567e+005
7.934183e+002, 4.414406e+005
7.939004e+002, 4.415750e+005
7.943825e+002, 4.415773e+005
7.948646e+002, 4.414796e+005
7.953467e+002, 4.412827e+005
7.958289e+002, 4.410585e+005
7.963110e+002, 4.408177e+005
7.967931e+002, 4.406114e+005
7.972752e+002, 4.405087e+005
7.977573e+002, 4.405568e+005
7.982394e+002, 4.405587e+005
7.987216e+002, 4.404964e+005
7.992037e+002, 4.403959e+005
7.996858e+002, 4.402357e+005
8.001679e+002, 4.399836e+005
8.006500e+002, 4.400185e+005
8.011321e+002, 4.403884e+005
8.016143e+002, 4.407592e+005
8.020964e+002, 4.407861e+005
8.025785e+002, 4.406087e+005
8.030606e+002, 4.404814e+005
8.035427e+002, 4.404314e+005
8.040248e+002, 4.404181e+005
8.045070e+002, 4.403618e+005
8.049891e+002, 4.403615e+005
8.054712e+002, 4.405174e+005
8.059533e+002, 4.409273e+005
8.064354e+002, 4.411846e+005
8.069175e+002, 4.411828e+005
8.073997e+002, 4.411718e+005
8.078818e+002, 4.413842e+005
8.083639e+002, 4.418082e+005
8.088460e+002, 4.420553e+005
8.093281e+002, 4.421117e+005
8.098102e+002, 4.420017e+005
8.102924e+002, 4.415541e+005
8.107745e+002, 4.410443e+005
8.112566e+002, 4.409076e+005
8.117387e+002, 4.412455e+005
8.122208e+002, 4.415351e+005
8.127029e+002, 4.414407e+005
8.131851e+002, 4.413213e+005
8.136672e+002, 4.414628e+005
8.141493e+002, 4.419764e+005
8.146314e+002, 4.422726e+005
8.151135e+002, 4.422931e+005
8.155956e+002, 4.422346e+005
8.160778e+002, 4.422389e+005
8.165599e+002, 4.422933e+005
8.170420e+002, 4.423381e+005
8.175241e+002, 4.423653e+005
8.180062e+002, 4.424250e+005
8.184883e+002, 4.425368e+005
8.189705e+002, 4.427031e+005
8.194526e+002, 4.429638e+005
8.199347e+002, 4.433453e+005
8.204168e+002, 4.435981e+005
8.208989e+002, 4.435878e+005
8.213810e+002, 4.435053e+005
8.218632e+002, 4.434518e+005
8.223453e+002, 4.434408e+005
8.228274e+002, 4.433590e+005
8.233095e+002, 4.432157e+005
8.237916e+002, 4.430014e+005
8.242737e+002, 4.426554e+005
8.247559e+002, 4.422608e+005
8.252380e+002, 4.419683e+005
8.257201e+002, 4.417943e+005
8.262022e+002, 4.417299e+005
8.266843e+002, 4.419394e+005
8.271664e+002, 4.421301e+005
8.276486e+002, 4.420493e+005
8.281307e+002, 4.416092e+005
8.286128e+002, 4.413933e+005
8.290949e+002, 4.414652e+005
8.295770e+002, 4.416438e+005
8.300591e+002, 4.418482e+005
8.305413e+002, 4.420723e+005
8.310234e+002, 4.423236e+005
8.315055e+002, 4.425972e+005
8.319876e+002, 4.427633e+005
8.324697e+002, 4.426981e+005
8.329518e+002, 4.424958e+005
8.334340e+002, 4.421677e+005
8.339161e+002, 4.417423e+005
8.343982e+002, 4.415314e+005
8.348803e+002, 4.419169e+005
8.353624e+002, 4.422746e+005
8.358445e+002, 4.423122e+005
8.363267e+002, 4.420468e+005
8.368088e+002, 4.418547e+005
8.372909e+002, 4.417518e+005
8.377730e+002, 4.416632e+005
8.382551e+002, 4.414897e+005
8.387372e+002, 4.413217e+005
8.392194e+002, 4.414691e+005
8.397015e+002, 4.418721e+005
8.401836e+002, 4.421768e+005
8.406657e+002, 4.420542e+005
8.411478e+002, 4.418806e+005
8.416299e+002, 4.419321e+005
8.421121e+002, 4.421761e+005
8.425942e+002, 4.422436e+005
8.430763e+002, 4.419858e+005
8.435584e+002, 4.417704e+005
8.440405e+002, 4.417049e+005
8.445226e+002, 4.417662e+005
8.450048e+002, 4.419179e+005
8.454869e+002, 4.421466e+005
8.459690e+002, 4.422937e+005
8.464511e+002, 4.422338e+005
8.469332e+002, 4.420893e+005
8.474153e+002, 4.419758e+005
8.478975e+002, 4.418899e+005
8.483796e+002, 4.418174e+005
8.488617e+002, 4.417830e+005
8.493438e+002, 4.417391e+005
8.498259e+002, 4.416686e+005
8.503080e+002, 4.415889e+005
8.507902e+002, 4.415246e+005
8.512723e+002, 4.414662e+005
8.517544e+002, 4.415187e+005
8.522365e+002, 4.417611e+005
8.527186e+002, 4.420572e+005
8.532007e+002, 4.421398e+005
8.536829e+002, 4.420743e+005
8.541650e+002, 4.420391e+005
8.546471e+002, 4.420875e+005
8.551292e+002, 4.421943e+005
8.556113e+002, 4.423951e+005
8.560934e+002, 4.426273e+005
8.565756e+002, 4.427823e+005
8.570577e+002, 4.428305e+005
8.575398e+002, 4.428348e+005
8.580219e+002, 4.427710e+005
8.585040e+002, 4.427083e+005
8.589861e+002, 4.427789e+005
8.594683e+002, 4.429576e+005
8.599504e+002, 4.431208e+005
8.604325e+002, 4.432442e+005
8.609146e+002, 4.433197e+005
8.613967e+002, 4.433138e+005
8.618788e+002, 4.432646e+005
8.623610e+002, 4.432182e+005
8.628431e+002, 4.431849e+005
8.633252e+002, 4.431644e+005
8.638073e+002, 4.432314e+005
8.642894e+002, 4.432446e+005
8.647715e+002, 4.430177e+005
8.652537e+002, 4.425373e+005
8.657358e+002, 4.422538e+005
8.662179e+002, 4.422316e+005
8.667000e+002, 4.422368e+005
8.671821e+002, 4.419702e+005
8.676642e+002, 4.416149e+005
8.681464e+002, 4.414341e+005
8.686285e+002, 4.414788e+005
8.691106e+002, 4.416433e+005
8.695927e+002, 4.420190e+005
8.700748e+002, 4.423919e+005
8.705569e+002, 4.426070e+005
8.710391e+002, 4.426278e+005
8.715212e+002, 4.426557e+005
8.720033e+002, 4.426638e+005
8.724854e+002, 4.427218e+005
8.729675e+002, 4.429107e+005
8.734496e+002, 4.431640e+005
8.739318e+002, 4.433383e+005
8.744139e+002, 4.434233e+005
8.748960e+002, 4.434456e+005
8.753781e+002, 4.433713e+005
8.758602e+002, 4.432801e+005
8.763423e+002, 4.432647e+005
8.768245e+002, 4.433268e+005
8.773066e+002, 4.432136e+005
8.777887e+002, 4.428626e+005
8.782708e+002, 4.425289e+005
8.787529e+002, 4.423504e+005
8.792350e+002, 4.422796e+005
8.797172e+002, 4.420691e+005
8.801993e+002, 4.417693e+005
8.806814e+002, 4.416223e+005
8.811635e+002, 4.419423e+005
8.816456e+002, 4.423063e+005
8.821277e+002, 4.423357e+005
8.826099e+002, 4.421438e+005
8.830920e+002, 4.420796e+005
8.835741e+002, 4.422342e+005
8.840562e+002, 4.424673e+005
8.845383e+002, 4.427940e+005
8.850204e+002, 4.431318e+005
8.855026e+002, 4.432577e+005
8.859847e+002, 4.431836e+005
8.864668e+002, 4.432227e+005
8.869489e+002, 4.434908e+005
8.874310e+002, 4.438291e+005
8.879131e+002, 4.441033e+005
8.883953e+002, 4.443208e+005
8.888774e+002, 4.445017e+005
8.893595e+002, 4.447939e+005
8.898416e+002, 4.448372e+005
8.903237e+002, 4.444189e+005
8.908058e+002, 4.438921e+005
8.912880e+002, 4.436469e+005
8.917701e+002, 4.437188e+005
8.922522e+002, 4.436566e+005
8.927343e+002, 4.434068e+005
8.932164e+002, 4.431198e+005
8.936985e+002, 4.428878e+005
8.941807e+002, 4.427441e+005
8.946628e+002, 4.427938e+005
8.951449e+002, 4.430977e+005
8.956270e+002, 4.432447e+005
8.961091e+002, 4.429404e+005
8.965912e+002, 4.425593e+005
8.970734e+002, 4.423136e+005
8.975555e+002, 4.422138e+005
8.980376e+002, 4.422238e+005
8.985197e+002, 4.423752e+005
8.990018e+002, 4.424867e+005
8.994839e+002, 4.423711e+005
8.999661e+002, 4.421607e+005
9.004482e+002, 4.421230e+005
9.009303e+002, 4.422363e+005
9.014124e+002, 4.423183e+005
9.018945e+002, 4.421642e+005
9.023766e+002, 4.420678e+005
9.028588e+002, 4.422260e+005
9.033409e+002, 4.425669e+005
9.038230e+002, 4.427653e+005
9.043051e+002, 4.427664e+005
9.047872e+002, 4.428191e+005
9.052693e+002, 4.430333e+005
9.057515e+002, 4.433002e+005
9.062336e+002, 4.433706e+005
9.067157e+002, 4.433066e+005
9.071978e+002, 4.432974e+005
9.076799e+002, 4.434482e+005
9.081620e+002, 4.436339e+005
9.086442e+002, 4.438581e+005
9.091263e+002, 4.440667e+005
9.096084e+002, 4.441803e+005
9.100905e+002, 4.442064e+005
9.105726e+002, 4.441171e+005
9.110547e+002, 4.438718e+005
9.115369e+002, 4.436156e+005
9.120190e+002, 4.435592e+005
9.125011e+002, 4.436477e+005
9.129832e+002, 4.437296e+005
9.134653e+002, 4.437838e+005
9.139474e+002, 4.438008e+005
9.144296e+002, 4.437157e+005
9.149117e+002, 4.436263e+005
9.153938e+002, 4.436203e+005
9.158759e+002, 4.437194e+005
9.163580e+002, 4.437993e+005
9.168401e+002, 4.438512e+005
9.173223e+002, 4.438879e+005
9.178044e+002, 4.439482e+005
9.182865e+002, 4.440002e+005
9.187686e+002, 4.438882e+005
9.192507e+002, 4.436334e+005
9.197328e+002, 4.434184e+005
9.202150e+002, 4.434526e+005
9.206971e+002, 4.434858e+005
9.211792e+002, 4.433179e+005
9.216613e+002, 4.429873e+005
9.221434e+002, 4.428098e+005
9.226255e+002, 4.428743e+005
9.231077e+002, 4.429022e+005
9.235898e+002, 4.427771e+005
9.240719e+002, 4.426058e+005
9.245540e+002, 4.426758e+005
9.250361e+002, 4.429252e+005
9.255182e+002, 4.431088e+005
9.260004e+002, 4.431084e+005
9.264825e+002, 4.430428e+005
9.269646e+002, 4.429258e+005
9.274467e+002, 4.428006e+005
9.279288e+002, 4.427433e+005
9.284109e+002, 4.428032e+005
9.288931e+002, 4.428257e+005
9.293752e+002, 4.428103e+005
9.298573e+002, 4.427415e+005
9.303394e+002, 4.426028e+005
9.308215e+002, 4.424007e+005
9.313036e+002, 4.421346e+005
9.317858e+002, 4.418061e+005
9.322679e+002, 4.414723e+005
9.327500e+002, 4.411109e+005
9.332321e+002, 4.408188e+005
9.337142e+002, 4.407338e+005
9.341964e+002, 4.409271e+005
9.346785e+002, 4.408068e+005
9.351606e+002, 4.402329e+005
9.356427e+002, 4.397059e+005
9.361248e+002, 4.394929e+005
9.366069e+002, 4.395287e+005
9.370891e+002, 4.396363e+005
9.375712e+002, 4.398049e+005
9.380533e+002, 4.399826e+005
9.385354e+002, 4.401566e+005
9.390175e+002, 4.403042e+005
9.394996e+002, 4.403791e+005
9.399818e+002, 4.404062e+005
9.404639e+002, 4.404638e+005
9.409460e+002, 4.405506e+005
9.414281e+002, 4.406453e+005
9.419102e+002, 4.407413e+005
9.423923e+002, 4.408327e+005
9.428745e+002, 4.409147e+005
9.433566e+002, 4.409867e+005
9.438387e+002, 4.410347e+005
9.443208e+002, 4.410389e+005
9.448029e+002, 4.410889e+005
9.452850e+002, 4.413366e+005
9.457672e+002, 4.415979e+005
9.462493e+002, 4.417019e+005
9.467314e+002, 4.416391e+005
9.472135e+002, 4.414520e+005
9.476956e+002, 4.410929e+005
9.481777e+002, 4.407908e+005
9.486599e+002, 4.407761e+005
9.491420e+002, 4.409433e+005
9.496241e+002, 4.410298e+005
9.501062e+002, 4.410404e+005
9.505883e+002, 4.410829e+005
9.510704e+002, 4.411828e+005
9.515526e+002, 4.413533e+005
9.520347e+002, 4.416335e+005
9.525168e+002, 4.419893e+005
9.529989e+002, 4.423358e+005
9.534810e+002, 4.427112e+005
9.539631e+002, 4.428655e+005
9.544453e+002, 4.426595e+005
9.549274e+002, 4.423197e+005
9.554095e+002, 4.421661e+005
9.558916e+002, 4.421779e+005
9.563737e+002, 4.423128e+005
9.568558e+002, 4.426111e+005
9.573380e+002, 4.429397e+005
9.578201e+002, 4.432415e+005
9.583022e+002, 4.435739e+005
9.587843e+002, 4.439781e+005
9.592664e+002, 4.444471e+005
9.597485e+002, 4.450988e+005
9.602307e+002, 4.459615e+005
9.607128e+002, 4.468090e+005
9.611949e+002, 4.473085e+005
9.616770e+002, 4.477341e+005
9.621591e+002, 4.485233e+005
9.626412e+002, 4.496866e+005
9.631234e+002, 4.507863e+005
9.636055e+002, 4.514048e+005
9.640876e+002, 4.522413e+005
9.645697e+002, 4.535855e+005
9.650518e+002, 4.553241e+005
9.655339e+002, 4.570336e+005
9.660161e+002, 4.587164e+005
9.664982e+002, 4.604154e+005
9.669803e+002, 4.619721e+005
9.674624e+002, 4.638287e+005
9.679445e+002, 4.667668e+005
9.684266e+002, 4.702581e+005
9.689088e+002, 4.733712e+005
9.693909e+002, 4.760263e+005
9.698730e+002, 4.780920e+005
9.703551e+002, 4.798388e+005
9.708372e+002, 4.807356e+005
9.713193e+002, 4.802233e+005
9.718015e+002, 4.783673e+005
9.722836e+002, 4.754665e+005
9.727657e+002, 4.715361e+005
9.732478e+002, 4.673973e+005
9.737299e+002, 4.633444e+005
9.742120e+002, 4.595727e+005
9.746942e+002, 4.561574e+005
9.751763e+002, 4.531284e+005
9.756584e+002, 4.507999e+005
9.761405e+002, 4.493158e+005
9.766226e+002, 4.481512e+005
9.771047e+002, 4.471304e+005
9.775869e+002, 4.462721e+005
9.780690e+002, 4.456929e+005
9.785511e+002, 4.453549e+005
9.790332e+002, 4.451171e+005
9.795153e+002, 4.450173e+005
9.799974e+002, 4.448513e+005
9.804796e+002, 4.444633e+005
9.809617e+002, 4.439582e+005
9.814438e+002, 4.434819e+005
9.819259e+002, 4.430192e+005
9.824080e+002, 4.426494e+005
9.828901e+002, 4.423956e+005
9.833723e+002, 4.421693e+005
9.838544e+002, 4.418358e+005
9.843365e+002, 4.414886e+005
9.848186e+002, 4.413177e+005
9.853007e+002, 4.413384e+005
9.857828e+002, 4.414019e+005
9.862650e+002, 4.414623e+005
9.867471e+002, 4.415358e+005
9.872292e+002, 4.416339e+005
9.877113e+002, 4.417474e+005
9.881934e+002, 4.418180e+005
9.886755e+002, 4.418374e+005
9.891577e+002, 4.419195e+005
9.896398e+002, 4.421431e+005
9.901219e+002, 4.423758e+005
9.906040e+002, 4.424182e+005
9.910861e+002, 4.423635e+005
9.915682e+002, 4.423744e+005
9.920504e+002, 4.425900e+005
9.925325e+002, 4.427127e+005
9.930146e+002, 4.426412e+005
9.934967e+002, 4.425780e+005
9.939788e+002, 4.427924e+005
9.944609e+002, 4.432317e+005
9.949431e+002, 4.433638e+005
9.954252e+002, 4.431656e+005
9.959073e+002, 4.429636e+005
9.963894e+002, 4.430938e+005
9.968715e+002, 4.432343e+005
9.973536e+002, 4.431249e+005
9.978358e+002, 4.427707e+005
9.983179e+002, 4.424329e+005
9.988000e+002, 4.420819e+005
9.992821e+002, 4.418614e+005
9.997642e+002, 4.418661e+005
1.000246e+003, 4.419457e+005
1.000728e+003, 4.418299e+005
1.001211e+003, 4.415421e+005
1.001693e+003, 4.411232e+005
1.002175e+003, 4.404971e+005
1.002657e+003, 4.399388e+005
1.003139e+003, 4.395161e+005
1.003621e+003, 4.392662e+005
1.004103e+003, 4.392506e+005
1.004585e+003, 4.395299e+005
1.005068e+003, 4.396668e+005
1.005550e+003, 4.396448e+005
1.006032e+003, 4.396082e+005
1.006514e+003, 4.396788e+005
1.006996e+003, 4.397793e+005
1.007478e+003, 4.398194e+005
1.007960e+003, 4.397953e+005
1.008442e+003, 4.397343e+005
1.008924e+003, 4.395093e+005
1.009407e+003, 4.394274e+005
1.009889e+003, 4.396307e+005
1.010371e+003, 4.399308e+005
1.010853e+003, 4.399298e+005
1.011335e+003, 4.396636e+005
1.011817e+003, 4.393335e+005
1.012299e+003, 4.389601e+005
1.012781e+003, 4.386768e+005
1.013263e+003, 4.386786e+005
1.013746e+003, 4.387739e+005
1.014228e+003, 4.387738e+005
1.014710e+003, 4.386501e+005
1.015192e+003, 4.385683e+005
1.015674e+003, 4.385307e+005
1.016156e+003, 4.385528e+005
1.016638e+003, 4.386589e+005
1.017120e+003, 4.388200e+005
1.017603e+003, 4.389472e+005
1.018085e+003, 4.390633e+005
1.018567e+003, 4.392588e+005
1.019049e+003, 4.396418e+005
1.019531e+003, 4.400014e+005
1.020013e+003, 4.402468e+005
1.020495e+003, 4.404301e+005
1.020977e+003, 4.406408e+005
1.021459e+003, 4.408737e+005
1.021942e+003, 4.410351e+005
1.022424e+003, 4.411130e+005
1.022906e+003, 4.410972e+005
1.023388e+003, 4.409813e+005
1.023870e+003, 4.407747e+005
1.024352e+003, 4.404539e+005
1.024834e+003, 4.400141e+005
1.025316e+003, 4.396878e+005
1.025799e+003, 4.395457e+005
1.026281e+003, 4.394295e+005
1.026763e+003, 4.392710e+005
1.027245e+003, 4.391163e+005
1.027727e+003, 4.391038e+005
1.028209e+003, 4.391918e+005
1.028691e+003, 4.392287e+005
1.029173e+003, 4.391282e+005
1.029656e+003, 4.390053e+005
1.030138e+003, 4.388877e+005
1.030620e+003, 4.387838e+005
1.031102e+003, 4.386756e+005
1.031584e+003, 4.385228e+005
1.032066e+003, 4.385833e+005
1.032548e+003, 4.388718e+005
1.033030e+003, 4.392219e+005
1.033512e+003, 4.394245e+005
1.033995e+003, 4.396514e+005
1.034477e+003, 4.402164e+005
1.034959e+003, 4.410418e+005
1.035441e+003, 4.416034e+005
1.035923e+003, 4.416406e+005
1.036405e+003, 4.416054e+005
1.036887e+003, 4.415612e+005
1.037369e+003, 4.415257e+005
1.037851e+003, 4.415569e+005
1.038334e+003, 4.416326e+005
1.038816e+003, 4.416256e+005
1.039298e+003, 4.414638e+005
1.039780e+003, 4.414379e+005
1.040262e+003, 4.417758e+005
1.040744e+003, 4.422971e+005
1.041226e+003, 4.428772e+005
1.041708e+003, 4.435228e+005
1.042191e+003, 4.441401e+005
1.042673e+003, 4.447269e+005
1.043155e+003, 4.453894e+005
1.043637e+003, 4.463614e+005
1.044119e+003, 4.473002e+005
1.044601e+003, 4.476885e+005
1.045083e+003, 4.476806e+005
1.045565e+003, 4.476162e+005
1.046047e+003, 4.478165e+005
1.046530e+003, 4.476088e+005
1.047012e+003, 4.468368e+005
1.047494e+003, 4.458032e+005
1.047976e+003, 4.447838e+005
1.048458e+003, 4.437803e+005
1.048940e+003, 4.428621e+005
1.049422e+003, 4.420288e+005
1.049904e+003, 4.412973e+005
1.050386e+003, 4.407737e+005
1.050869e+003, 4.402527e+005
1.051351e+003, 4.394554e+005
1.051833e+003, 4.385332e+005
1.052315e+003, 4.382149e+005
1.052797e+003, 4.385947e+005
1.053279e+003, 4.388381e+005
1.053761e+003, 4.387099e+005
1.054243e+003, 4.383858e+005
1.054726e+003, 4.379159e+005
1.055208e+003, 4.374683e+005
1.055690e+003, 4.373109e+005
1.056172e+003, 4.376221e+005
1.056654e+003, 4.378370e+005
1.057136e+003, 4.379432e+005
1.057618e+003, 4.378889e+005
1.058100e+003, 4.375800e+005
1.058583e+003, 4.370981e+005
1.059065e+003, 4.367476e+005
1.059547e+003, 4.365153e+005
1.060029e+003, 4.363338e+005
1.060511e+003, 4.361697e+005
1.060993e+003, 4.360578e+005
1.061475e+003, 4.360017e+005
1.061957e+003, 4.360182e+005
1.062439e+003, 4.361707e+005
1.062922e+003, 4.364954e+005
1.063404e+003, 4.366488e+005
1.063886e+003, 4.366032e+005
1.064368e+003, 4.364064e+005
1.064850e+003, 4.360109e+005
1.065332e+003, 4.355512e+005
1.065814e+003, 4.351042e+005
1.066296e+003, 4.346944e+005
1.066778e+003, 4.345136e+005
1.067261e+003, 4.347253e+005
1.067743e+003, 4.347778e+005
1.068225e+003, 4.344509e+005
1.068707e+003, 4.340167e+005
1.069189e+003, 4.340581e+005
1.069671e+003, 4.343791e+005
1.070153e+003, 4.345194e+005
1.070635e+003, 4.343306e+005
1.071118e+003, 4.340816e+005
1.071600e+003, 4.338854e+005
1.072082e+003, 4.336604e+005
1.072564e+003, 4.333483e+005
1.073046e+003, 4.329672e+005
1.073528e+003, 4.326016e+005
1.074010e+003, 4.322716e+005
1.074492e+003, 4.321511e+005
1.074974e+003, 4.325871e+005
1.075457e+003, 4.329917e+005
1.075939e+003, 4.328001e+005
1.076421e+003, 4.323274e+005
1.076903e+003, 4.321306e+005
1.077385e+003, 4.323872e+005
1.077867e+003, 4.324168e+005
1.078349e+003, 4.321358e+005
1.078831e+003, 4.318371e+005
1.079313e+003, 4.318077e+005
1.079796e+003, 4.319169e+005
1.080278e+003, 4.320148e+005
1.080760e+003, 4.320756e+005
1.081242e+003, 4.320222e+005
1.081724e+003, 4.316365e+005
1.082206e+003, 4.313974e+005
1.082688e+003, 4.314577e+005
1.083170e+003, 4.316505e+005
1.083652e+003, 4.316869e+005
1.084135e+003, 4.315959e+005
1.084617e+003, 4.314643e+005
1.085099e+003, 4.313046e+005
1.085581e+003, 4.311649e+005
1.086063e+003, 4.311781e+005
1.086545e+003, 4.311240e+005
1.087027e+003, 4.307945e+005
1.087509e+003, 4.302434e+005
1.087992e+003, 4.300474e+005
1.088474e+003, 4.302117e+005
1.088956e+003, 4.303681e+005
1.089438e+003, 4.303813e+005
1.089920e+003, 4.302992e+005
1.090402e+003, 4.300305e+005
1.090884e+003, 4.297559e+005
1.091366e+003, 4.297584e+005
1.091849e+003, 4.302729e+005
1.092331e+003, 4.304937e+005
1.092813e+003, 4.303466e+005
1.093295e+003, 4.301564e+005
1.093777e+003, 4.302000e+005
1.094259e+003, 4.303406e+005
1.094741e+003, 4.302799e+005
1.095223e+003, 4.300794e+005
1.095705e+003, 4.299691e+005
1.096188e+003, 4.300482e+005
1.096670e+003, 4.302124e+005
1.097152e+003, 4.305099e+005
1.097634e+003, 4.307784e+005
1.098116e+003, 4.307486e+005
1.098598e+003, 4.304954e+005
1.099080e+003, 4.303968e+005
1.099562e+003, 4.304849e+005
1.100044e+003, 4.305948e+005
1.100527e+003, 4.308019e+005
1.101009e+003, 4.308268e+005
1.101491e+003, 4.304143e+005
1.101973e+003, 4.297338e+005
1.102455e+003, 4.292929e+005
1.102937e+003, 4.290961e+005
1.103419e+003, 4.290068e+005
1.103901e+003, 4.290251e+005
1.104384e+003, 4.290322e+005
1.104866e+003, 4.288301e+005
1.105348e+003, 4.286163e+005
1.105830e+003, 4.286468e+005
1.106312e+003, 4.289977e+005
1.106794e+003, 4.290467e+005
1.107276e+003, 4.287203e+005
1.107758e+003, 4.283609e+005
1.108240e+003, 4.280764e+005
1.108723e+003, 4.278970e+005
1.109205e+003, 4.278905e+005
1.109687e+003, 4.280099e+005
1.110169e+003, 4.281654e+005
1.110651e+003, 4.283063e+005
1.111133e+003, 4.285583e+005
1.111615e+003, 4.290802e+005
1.112097e+003, 4.294369e+005
1.112579e+003, 4.291183e+005
1.113062e+003, 4.283767e+005
1.113544e+003, 4.281754e+005
1.114026e+003, 4.284110e+005
1.114508e+003, 4.285598e+005
1.114990e+003, 4.282889e+005
1.115472e+003, 4.279863e+005
1.115954e+003, 4.277644e+005
1.116436e+003, 4.275937e+005
1.116919e+003, 4.274488e+005
1.117401e+003, 4.273312e+005
1.117883e+003, 4.271917e+005
1.118365e+003, 4.270300e+005
1.118847e+003, 4.269668e+005
1.119329e+003, 4.272731e+005
1.119811e+003, 4.275396e+005
1.120293e+003, 4.274121e+005
1.120776e+003, 4.270172e+005
1.121258e+003, 4.267853e+005
1.121740e+003, 4.267194e+005
1.122222e+003, 4.267983e+005
1.122704e+003, 4.270742e+005
1.123186e+003, 4.272090e+005
1.123668e+003, 4.266275e+005
1.124150e+003, 4.258586e+005
1.124632e+003, 4.254932e+005
1.125115e+003, 4.256431e+005
1.125597e+003, 4.256652e+005
1.126079e+003, 4.254974e+005
1.126561e+003, 4.254016e+005
1.127043e+003, 4.255606e+005
1.127525e+003, 4.257223e+005
1.128007e+003, 4.253987e+005
1.128489e+003, 4.248130e+005
1.128971e+003, 4.243441e+005
1.129454e+003, 4.241305e+005
1.129936e+003, 4.239592e+005
1.130418e+003, 4.238743e+005
1.130900e+003, 4.237162e+005
1.131382e+003, 4.232828e+005
1.131864e+003, 4.227466e+005
1.132346e+003, 4.226796e+005
1.132828e+003, 4.229623e+005
1.133311e+003, 4.232026e+005
1.133793e+003, 4.231323e+005
1.134275e+003, 4.231134e+005
1.134757e+003, 4.232169e+005
1.135239e+003, 4.233901e+005
1.135721e+003, 4.236233e+005
1.136203e+003, 4.238876e+005
1.136685e+003, 4.239932e+005
1.137167e+003, 4.239412e+005
1.137650e+003, 4.238584e+005
1.138132e+003, 4.237859e+005
1.138614e+003, 4.237372e+005
1.139096e+003, 4.238051e+005
1.139578e+003, 4.238637e+005
1.140060e+003, 4.236540e+005
1.140542e+003, 4.231709e+005
1.141024e+003, 4.229284e+005
1.141506e+003, 4.229986e+005
1.141989e+003, 4.230988e+005
1.142471e+003, 4.230601e+005
1.142953e+003, 4.229272e+005
1.143435e+003, 4.227177e+005
1.143917e+003, 4.224458e+005
1.144399e+003, 4.220983e+005
1.144881e+003, 4.216263e+005
1.145363e+003, 4.214693e+005
1.145846e+003, 4.217765e+005
1.146328e+003, 4.221838e+005
1.146810e+003, 4.223813e+005
1.147292e+003, 4.223970e+005
1.147774e+003, 4.221671e+005
1.148256e+003, 4.216536e+005
1.148738e+003, 4.215093e+005
1.149220e+003, 4.218726e+005
1.149703e+003, 4.221103e+005
1.150185e+003, 4.219614e+005
1.150667e+003, 4.216562e+005
1.151149e+003, 4.214656e+005
1.151631e+003, 4.213787e+005
1.152113e+003, 4.214162e+005
1.152595e+003, 4.216869e+005
1.153077e+003, 4.216737e+005
1.153559e+003, 4.212396e+005
1.154042e+003, 4.207983e+005
1.154524e+003, 4.205609e+005
1.155006e+003, 4.204717e+005
1.155488e+003, 4.204989e+005
1.155970e+003, 4.205623e+005
1.156452e+003, 4.204560e+005
1.156934e+003, 4.199599e+005
1.157416e+003, 4.195854e+005
1.157898e+003, 4.194368e+005
1.158381e+003, 4.193532e+005
1.158863e+003, 4.192149e+005
1.159345e+003, 4.190416e+005
1.159827e+003, 4.188962e+005
1.160309e+003, 4.187824e+005
1.160791e+003, 4.187222e+005
1.161273e+003, 4.187383e+005
1.161755e+003, 4.187844e+005
1.162238e+003, 4.188470e+005
1.162720e+003, 4.189222e+005
1.163202e+003, 4.190490e+005
1.163684e+003, 4.191937e+005
1.164166e+003, 4.191117e+005
1.164648e+003, 4.188150e+005
1.165130e+003, 4.185438e+005
1.165612e+003, 4.184818e+005
1.166094e+003, 4.184197e+005
1.166577e+003, 4.182763e+005
1.167059e+003, 4.180820e+005
1.167541e+003, 4.178837e+005
1.168023e+003, 4.176831e+005
1.168505e+003, 4.174494e+005
1.168987e+003, 4.171821e+005
1.169469e+003, 4.169596e+005
1.169951e+003, 4.168030e+005
1.170433e+003, 4.167464e+005
1.170916e+003, 4.168791e+005
1.171398e+003, 4.171094e+005
1.171880e+003, 4.172409e+005
1.172362e+003, 4.172723e+005
1.172844e+003, 4.171173e+005
1.173326e+003, 4.167204e+005
1.173808e+003, 4.164204e+005
1.174290e+003, 4.166524e+005
1.174773e+003, 4.169609e+005
1.175255e+003, 4.169184e+005
1.175737e+003, 4.166077e+005
1.176219e+003, 4.165539e+005
1.176701e+003, 4.167760e+005
1.177183e+003, 4.168303e+005
1.177665e+003, 4.165532e+005
1.178147e+003, 4.162427e+005
1.178630e+003, 4.162688e+005
1.179112e+003, 4.163486e+005
1.179594e+003, 4.161248e+005
1.180076e+003, 4.155898e+005
1.180558e+003, 4.154644e+005
1.181040e+003, 4.158046e+005
1.181522e+003, 4.160239e+005
1.182004e+003, 4.158639e+005
1.182486e+003, 4.155678e+005
1.182969e+003, 4.152895e+005
1.183451e+003, 4.150836e+005
1.183933e+003, 4.150296e+005
1.184415e+003, 4.151471e+005
1.184897e+003, 4.153163e+005
1.185379e+003, 4.155628e+005
1.185861e+003, 4.156622e+005
1.186343e+003, 4.153896e+005
1.186825e+003, 4.150561e+005
1.187308e+003, 4.151414e+005
1.187790e+003, 4.153738e+005
1.188272e+003, 4.153069e+005
1.188754e+003, 4.147598e+005
1.189236e+003, 4.142615e+005
1.189718e+003, 4.138003e+005
1.190200e+003, 4.134883e+005
1.190682e+003, 4.134969e+005
1.191165e+003, 4.136229e+005
1.191647e+003, 4.136391e+005
1.192129e+003, 4.135696e+005
1.192611e+003, 4.134507e+005
1.193093e+003, 4.132458e+005
1.193575e+003, 4.131307e+005
1.194057e+003, 4.131453e+005
1.194539e+003, 4.131026e+005
1.195021e+003, 4.127053e+005
1.195504e+003, 4.122633e+005
1.195986e+003, 4.122659e+005
1.196468e+003, 4.125768e+005
1.196950e+003, 4.127878e+005
1.197432e+003, 4.128166e+005
1.197914e+003, 4.127420e+005
1.198396e+003, 4.125353e+005
1.198878e+003, 4.123302e+005
1.199360e+003, 4.122836e+005
1.199843e+003, 4.123011e+005
1.200325e+003, 4.122674e+005
1.200807e+003, 4.121828e+005
1.201289e+003, 4.120618e+005
1.201771e+003, 4.119175e+005
1.202253e+003, 4.117274e+005
1.202735e+003, 4.114663e+005
1.203217e+003, 4.112622e+005
1.203700e+003, 4.113029e+005
1.204182e+003, 4.114679e+005
1.204664e+003, 4.115641e+005
1.205146e+003, 4.115991e+005
1.205628e+003, 4.117387e+005
1.206110e+003, 4.121139e+005
1.206592e+003, 4.123071e+005
1.207074e+003, 4.122051e+005
1.207557e+003, 4.120092e+005
1.208039e+003, 4.119454e+005
1.208521e+003, 4.119571e+005
1.209003e+003, 4.119818e+005
1.209485e+003, 4.120061e+005
1.209967e+003, 4.119914e+005
1.210449e+003, 4.119398e+005
1.210931e+003, 4.118313e+005
1.211413e+003, 4.116477e+005
1.211896e+003, 4.114497e+005
1.212378e+003, 4.113089e+005
1.212860e+003, 4.112137e+005
1.213342e+003, 4.112182e+005
1.213824e+003, 4.113295e+005
1.214306e+003, 4.111319e+005
1.214788e+003, 4.104618e+005
1.215270e+003, 4.098778e+005
1.215752e+003, 4.095409e+005
1.216235e+003, 4.093322e+005
1.216717e+003, 4.091409e+005
1.217199e+003, 4.089368e+005
1.217681e+003, 4.086330e+005
1.218163e+003, 4.082025e+005
1.218645e+003, 4.079749e+005
1.219127e+003, 4.080312e+005
1.219609e+003, 4.080963e+005
1.220092e+003, 4.080872e+005
1.220574e+003, 4.080368e+005
1.221056e+003, 4.079743e+005
1.221538e+003, 4.079100e+005
1.222020e+003, 4.078492e+005
1.222502e+003, 4.077849e+005
1.222984e+003, 4.077790e+005
1.223466e+003, 4.078409e+005
1.223948e+003, 4.079096e+005
1.224431e+003, 4.079630e+005
1.224913e+003, 4.079973e+005
1.225395e+003, 4.080128e+005
1.225877e+003, 4.080026e+005
1.226359e+003, 4.079716e+005
1.226841e+003, 4.079350e+005
1.227323e+003, 4.077435e+005
1.227805e+003, 4.073505e+005
1.228287e+003, 4.070004e+005
1.228770e+003, 4.068186e+005
1.229252e+003, 4.066873e+005
1.229734e+003, 4.063787e+005
1.230216e+003, 4.060562e+005
1.230698e+003, 4.059929e+005
1.231180e+003, 4.063236e+005
1.231662e+003, 4.063716e+005
1.232144e+003, 4.060965e+005
1.232627e+003, 4.057935e+005
1.233109e+003, 4.056112e+005
1.233591e+003, 4.054515e+005
1.234073e+003, 4.052413e+005
1.234555e+003, 4.049629e+005
1.235037e+003, 4.045476e+005
1.235519e+003, 4.039441e+005
1.236001e+003, 4.035711e+005
1.236484e+003, 4.034494e+005
1.236966e+003, 4.034616e+005
1.237448e+003, 4.036479e+005
1.237930e+003, 4.037942e+005
1.238412e+003, 4.035389e+005
1.238894e+003, 4.031801e+005
1.239376e+003, 4.031555e+005
1.239858e+003, 4.035202e+005
1.240340e+003, 4.037965e+005
1.240823e+003, 4.039686e+005
1.241305e+003, 4.041272e+005
1.241787e+003, 4.043382e+005
1.242269e+003, 4.045051e+005
1.242751e+003, 4.044846e+005
1.243233e+003, 4.043951e+005
1.243715e+003, 4.044118e+005
1.244197e+003, 4.045643e+005
1.244679e+003, 4.044924e+005
1.245162e+003, 4.042014e+005
1.245644e+003, 4.039049e+005
1.246126e+003, 4.036962e+005
1.246608e+003, 4.035601e+005
1.247090e+003, 4.036147e+005
1.247572e+003, 4.036594e+005
1.248054e+003, 4.034468e+005
1.248536e+003, 4.029682e+005
1.249019e+003, 4.026978e+005
1.249501e+003, 4.026238e+005
1.249983e+003, 4.025374e+005
1.250465e+003, 4.021940e+005
1.250947e+003, 4.019780e+005
1.251429e+003, 4.022519e+005
1.251911e+003, 4.026123e+005
1.252393e+003, 4.026378e+005
1.252875e+003, 4.023491e+005
1.253358e+003, 4.023193e+005
1.253840e+003, 4.025033e+005
1.254322e+003, 4.026433e+005
1.254804e+003, 4.025837e+005
1.255286e+003, 4.024633e+005
1.255768e+003, 4.022596e+005
1.256250e+003, 4.020778e+005
1.256732e+003, 4.020184e+005
1.257214e+003, 4.020683e+005
1.257697e+003, 4.021916e+005
1.258179e+003, 4.023583e+005
1.258661e+003, 4.024129e+005
1.259143e+003, 4.022496e+005
1.259625e+003, 4.020291e+005
1.260107e+003, 4.017495e+005
1.260589e+003, 4.014982e+005
1.261071e+003, 4.013065e+005
1.261554e+003, 4.012104e+005
1.262036e+003, 4.014475e+005
1.262518e+003, 4.018892e+005
1.263000e+003, 4.021112e+005
1.263482e+003, 4.017536e+005
1.263964e+003, 4.014488e+005
1.264446e+003, 4.012652e+005
1.264928e+003, 4.010936e+005
1.265411e+003, 4.008309e+005
1.265893e+003, 4.005244e+005
1.266375e+003, 4.002216e+005
1.266857e+003, 3.999560e+005
1.267339e+003, 3.998172e+005
1.267821e+003, 3.999163e+005
1.268303e+003, 4.000186e+005
1.268785e+003, 4.001368e+005
1.269267e+003, 4.002268e+005
1.269750e+003, 4.002738e+005
1.270232e+003, 4.002624e+005
1.270714e+003, 4.001150e+005
1.271196e+003, 3.999019e+005
1.271678e+003, 3.997942e+005
1.272160e+003, 3.998457e+005
1.272642e+003, 3.998275e+005
1.273124e+003, 3.997146e+005
1.273606e+003, 3.996523e+005
1.274089e+003, 3.998249e+005
1.274571e+003, 4.000059e+005
1.275053e+003, 3.999503e+005
1.275535e+003, 3.997708e+005
1.276017e+003, 3.996884e+005
1.276499e+003, 3.997358e+005
1.276981e+003, 3.996704e+005
1.277463e+003, 3.994916e+005
1.277946e+003, 3.993173e+005
1.278428e+003, 3.993138e+005
1.278910e+003, 3.992553e+005
1.279392e+003, 3.989474e+005
1.279874e+003, 3.985548e+005
1.280356e+003, 3.982288e+005
1.280838e+003, 3.979806e+005
1.281320e+003, 3.980257e+005
1.281802e+003, 3.983234e+005
1.282285e+003, 3.984969e+005
1.282767e+003, 3.981815e+005
1.283249e+003, 3.979091e+005
1.283731e+003, 3.979098e+005
1.284213e+003, 3.979787e+005
1.284695e+003, 3.979145e+005
1.285177e+003, 3.977594e+005
1.285659e+003, 3.977540e+005
1.286141e+003, 3.978601e+005
1.286624e+003, 3.979280e+005
1.287106e+003, 3.977784e+005
1.287588e+003, 3.977781e+005
1.288070e+003, 3.980670e+005
1.288552e+003, 3.983102e+005
1.289034e+003, 3.981346e+005
1.289516e+003, 3.977573e+005
1.289998e+003, 3.976803e+005
1.290481e+003, 3.978122e+005
1.290963e+003, 3.979118e+005
1.291445e+003, 3.979595e+005
1.291927e+003, 3.978498e+005
1.292409e+003, 3.975244e+005
1.292891e+003, 3.972743e+005
1.293373e+003, 3.974479e+005
1.293855e+003, 3.977040e+005
1.294338e+003, 3.975461e+005
1.294820e+003, 3.971683e+005
1.295302e+003, 3.969506e+005
1.295784e+003, 3.969623e+005
1.296266e+003, 3.969153e+005
1.296748e+003, 3.968021e+005
1.297230e+003, 3.967617e+005
1.297712e+003, 3.969646e+005
1.298194e+003, 3.971664e+005
1.298677e+003, 3.971533e+005
1.299159e+003, 3.970213e+005
1.299641e+003, 3.968991e+005
1.300123e+003, 3.967852e+005
1.300605e+003, 3.964061e+005
1.301087e+003, 3.957932e+005
1.301569e+003, 3.952561e+005
1.302051e+003, 3.950662e+005
1.302533e+003, 3.947170e+005
1.303016e+003, 3.940233e+005
##END=



