##NAMES=Wollastonite
##RRUFFID=R040131
##IDEAL CHEMISTRY=CaSiO_3_
##LOCALITY=In-Ne-Koh-Pah Gorge, Jacumba, San Diego County, California, USA
##OWNER=RRUFF
##SOURCE=University of Arizona Mineral Museum
##DESCRIPTION=White coarsely crystalline massive
##STATUS=The identification of this mineral has been confirmed by X-ray diffraction and chemical analysis
##URL=rruff.info/R040131
##MEASURED CHEMISTRY=Ca_1.01_Si_1.00_O_3_
152.865, 304.737
153.347, 306.118
153.829, 306.469
154.311, 305.061
154.793, 301.941
155.276, 298.264
155.758, 293.047
156.240, 288.358
156.722, 285.812
157.204, 285.363
157.686, 285.299
158.168, 283.790
158.650, 280.648
159.133, 278.585
159.615, 279.592
160.097, 280.574
160.579, 277.653
161.061, 271.185
161.543, 267.931
162.025, 276.610
162.507, 299.574
162.989, 320.610
163.472, 334.373
163.954, 348.227
164.436, 368.189
164.918, 394.184
165.400, 418.723
165.882, 432.562
166.364, 433.849
166.846, 431.872
167.329, 425.539
167.811, 417.627
168.293, 408.207
168.775, 397.833
169.257, 389.036
169.739, 386.018
170.221, 391.738
170.703, 393.920
171.185, 388.322
171.667, 381.721
172.150, 374.457
172.632, 368.047
173.114, 368.993
173.596, 390.487
174.078, 447.686
174.560, 484.031
175.042, 499.069
175.525, 494.456
176.007, 460.523
176.489, 399.838
176.971, 335.250
177.453, 301.068
177.935, 312.653
178.417, 318.556
178.899, 314.384
179.381, 307.250
179.863, 301.294
180.346, 297.432
180.828, 294.257
181.310, 289.144
181.792, 278.803
182.274, 274.201
182.756, 277.884
183.238, 284.388
183.721, 290.852
184.203, 296.441
184.685, 301.341
185.167, 305.368
185.649, 306.348
186.131, 311.577
186.613, 323.181
187.095, 336.606
187.577, 349.505
188.059, 361.210
188.542, 371.542
189.024, 379.929
189.506, 383.800
189.988, 391.905
190.470, 410.780
190.952, 428.354
191.434, 437.864
191.917, 437.789
192.399, 429.472
192.881, 413.332
193.363, 384.005
193.845, 361.201
194.327, 347.041
194.809, 336.472
195.291, 326.419
195.773, 316.516
196.255, 308.373
196.738, 304.111
197.220, 305.181
197.702, 306.102
198.184, 307.606
198.666, 308.449
199.148, 307.536
199.630, 305.002
200.112, 302.102
200.595, 300.397
201.077, 300.648
201.559, 299.191
202.041, 295.038
202.523, 290.371
203.005, 285.909
203.487, 281.931
203.969, 278.776
204.452, 276.809
204.934, 276.163
205.416, 276.144
205.898, 277.348
206.380, 278.533
206.862, 279.507
207.344, 280.012
207.826, 279.295
208.308, 276.154
208.791, 269.658
209.273, 267.902
209.755, 275.981
210.237, 283.341
210.719, 284.747
211.201, 281.333
211.683, 277.504
212.165, 276.870
212.648, 279.572
213.130, 282.718
213.612, 286.552
214.094, 290.525
214.576, 295.461
215.058, 300.457
215.540, 303.215
216.022, 301.560
216.504, 295.727
216.986, 294.366
217.469, 300.198
217.951, 307.600
218.433, 316.112
218.915, 325.142
219.397, 333.780
219.879, 341.291
220.361, 348.023
220.844, 356.826
221.326, 371.028
221.808, 383.922
222.290, 392.324
222.772, 399.028
223.254, 408.487
223.736, 423.277
224.218, 442.046
224.700, 458.603
225.182, 474.500
225.665, 485.654
226.147, 493.516
226.629, 495.802
227.111, 487.919
227.593, 467.453
228.075, 439.707
228.557, 419.543
229.040, 414.097
229.522, 406.500
230.004, 391.363
230.486, 375.289
230.968, 365.405
231.450, 364.230
231.932, 367.762
232.414, 367.815
232.896, 361.384
233.378, 356.876
233.861, 353.991
234.343, 353.395
234.825, 356.904
235.307, 364.540
235.789, 372.949
236.271, 376.414
236.753, 371.663
237.236, 370.151
237.718, 377.290
238.200, 383.731
238.682, 382.417
239.164, 373.134
239.646, 362.084
240.128, 356.965
240.610, 359.777
241.092, 360.849
241.574, 357.023
242.057, 354.123
242.539, 355.421
243.021, 360.493
243.503, 366.407
243.985, 370.834
244.467, 373.788
244.949, 375.022
245.432, 371.310
245.914, 368.974
246.396, 370.387
246.878, 375.060
247.360, 381.519
247.842, 389.336
248.324, 398.231
248.806, 405.019
249.288, 407.991
249.770, 411.075
250.253, 416.075
250.735, 422.104
251.217, 427.592
251.699, 431.450
252.181, 434.304
252.663, 438.783
253.145, 447.670
253.627, 452.306
254.110, 448.885
254.592, 440.278
255.074, 429.085
255.556, 415.536
256.038, 401.549
256.520, 390.432
257.002, 382.840
257.484, 375.853
257.966, 366.465
258.449, 358.253
258.931, 355.395
259.413, 359.633
259.895, 365.318
260.377, 366.127
260.859, 361.862
261.341, 356.909
261.823, 350.839
262.306, 345.798
262.788, 343.376
263.270, 343.732
263.752, 346.420
264.234, 353.180
264.716, 362.921
265.198, 368.424
265.680, 366.469
266.163, 362.400
266.645, 361.235
267.127, 362.747
267.609, 364.857
268.091, 368.732
268.573, 372.283
269.055, 369.876
269.537, 359.376
270.019, 347.291
270.501, 337.855
270.984, 331.069
271.466, 329.085
271.948, 336.173
272.430, 346.418
272.912, 353.229
273.394, 356.257
273.876, 356.094
274.358, 349.947
274.841, 340.716
275.323, 340.602
275.805, 359.555
276.287, 379.981
276.769, 388.269
277.251, 386.631
277.733, 386.699
278.215, 395.363
278.698, 409.648
279.180, 419.256
279.662, 422.884
280.144, 424.414
280.626, 424.237
281.108, 422.981
281.590, 421.789
282.072, 421.080
282.555, 420.749
283.037, 420.826
283.519, 423.000
284.001, 422.154
284.483, 416.745
284.965, 408.522
285.447, 397.221
285.929, 383.266
286.411, 371.807
286.893, 370.067
287.376, 382.437
287.858, 391.326
288.340, 396.364
288.822, 398.644
289.304, 396.583
289.786, 391.630
290.268, 388.962
290.750, 393.574
291.233, 406.033
291.715, 415.464
292.197, 416.957
292.679, 420.783
293.161, 432.992
293.643, 449.693
294.125, 463.044
294.607, 468.165
295.090, 467.034
295.572, 468.335
296.054, 472.313
296.536, 478.768
297.018, 486.789
297.500, 497.416
297.982, 511.876
298.464, 530.688
298.946, 552.737
299.429, 576.878
299.911, 604.540
300.393, 630.366
300.875, 651.421
301.357, 672.082
301.839, 696.668
302.321, 725.000
302.803, 751.687
303.285, 774.076
303.768, 792.296
304.250, 796.667
304.732, 780.218
305.214, 755.807
305.696, 730.274
306.178, 703.448
306.660, 673.881
307.142, 636.562
307.625, 596.448
308.107, 566.078
308.589, 545.556
309.071, 534.946
309.553, 541.381
310.035, 556.551
310.517, 568.302
310.999, 571.555
311.482, 572.845
311.964, 577.911
312.446, 586.797
312.928, 599.714
313.410, 617.203
313.892, 638.815
314.374, 663.413
314.856, 692.381
315.338, 720.688
315.820, 745.442
316.303, 767.882
316.785, 792.018
317.267, 819.958
317.749, 845.515
318.231, 859.257
318.713, 859.931
319.195, 857.646
319.677, 852.591
320.160, 845.668
320.642, 838.599
321.124, 831.173
321.606, 819.723
322.088, 799.833
322.570, 771.007
323.052, 750.984
323.534, 742.695
324.017, 738.641
324.499, 738.935
324.981, 741.101
325.463, 740.208
325.945, 733.241
326.427, 722.683
326.909, 717.369
327.391, 726.422
327.874, 728.653
328.356, 716.011
328.838, 699.818
329.320, 690.777
329.802, 691.701
330.284, 697.718
330.766, 701.207
331.248, 699.044
331.730, 704.820
332.212, 726.283
332.695, 749.192
333.177, 767.929
333.659, 782.360
334.141, 794.088
334.623, 804.005
335.105, 812.280
335.587, 820.074
336.069, 829.154
336.552, 834.419
337.034, 829.299
337.516, 820.626
337.998, 818.626
338.480, 828.393
338.962, 843.519
339.444, 855.613
339.926, 864.485
340.409, 874.123
340.891, 888.694
341.373, 902.263
341.855, 908.726
342.337, 907.793
342.819, 900.247
343.301, 886.489
343.783, 866.394
344.265, 839.254
344.748, 804.081
345.230, 764.075
345.712, 719.075
346.194, 669.321
346.676, 628.736
347.158, 603.991
347.640, 585.511
348.122, 567.187
348.604, 548.445
349.087, 529.687
349.569, 510.902
350.051, 492.301
350.533, 475.116
351.015, 457.117
351.497, 442.939
351.979, 432.745
352.461, 427.171
352.944, 429.710
353.426, 441.158
353.908, 453.674
354.390, 453.266
354.872, 431.854
355.354, 414.841
355.836, 400.232
356.318, 390.767
356.801, 391.232
357.283, 399.253
357.765, 406.073
358.247, 403.234
358.729, 391.888
359.211, 387.300
359.693, 394.998
360.175, 401.621
360.657, 401.086
361.140, 397.410
361.622, 396.631
362.104, 401.873
362.586, 408.358
363.068, 408.560
363.550, 401.850
364.032, 396.146
364.514, 393.799
364.996, 393.318
365.479, 393.147
365.961, 393.245
366.443, 393.741
366.925, 395.783
367.407, 398.063
367.889, 396.779
368.371, 390.664
368.853, 386.096
369.336, 389.986
369.818, 401.360
370.300, 408.553
370.782, 409.094
371.264, 407.076
371.746, 403.534
372.228, 399.302
372.710, 396.574
373.193, 396.543
373.675, 398.309
374.157, 399.470
374.639, 399.978
375.121, 399.894
375.603, 397.948
376.085, 396.179
376.567, 396.114
377.049, 398.136
377.531, 402.106
378.014, 408.026
378.496, 415.988
378.978, 424.692
379.460, 436.554
379.942, 446.677
380.424, 451.882
380.906, 454.647
381.388, 459.343
381.871, 468.355
382.353, 480.124
382.835, 490.287
383.317, 496.849
383.799, 509.590
384.281, 539.917
384.763, 571.976
385.245, 590.937
385.728, 595.077
386.210, 600.685
386.692, 624.208
387.174, 657.888
387.656, 678.077
388.138, 679.999
388.620, 675.539
389.102, 675.559
389.584, 677.804
390.067, 670.754
390.549, 644.292
391.031, 615.966
391.513, 598.826
391.995, 589.817
392.477, 577.430
392.959, 555.312
393.441, 530.055
393.923, 517.552
394.406, 526.140
394.888, 534.479
395.370, 539.893
395.852, 546.026
396.334, 555.537
396.816, 568.905
397.298, 585.627
397.780, 605.840
398.263, 629.630
398.745, 651.029
399.227, 668.749
399.709, 685.341
400.191, 700.379
400.673, 714.883
401.155, 730.595
401.637, 748.520
402.120, 766.062
402.602, 778.594
403.084, 785.247
403.566, 793.857
404.048, 806.567
404.530, 821.225
405.012, 836.054
405.494, 851.015
405.976, 866.688
406.459, 883.057
406.941, 900.374
407.423, 918.226
407.905, 936.574
408.387, 959.112
408.869, 991.086
409.351, 1028.516
409.833, 1055.446
410.315, 1063.947
410.798, 1073.224
411.280, 1096.216
411.762, 1122.109
412.244, 1135.454
412.726, 1131.880
413.208, 1114.565
413.690, 1087.205
414.172, 1048.070
414.655, 1004.402
415.137, 953.841
415.619, 901.884
416.101, 849.178
416.583, 797.505
417.065, 749.331
417.547, 706.329
418.029, 667.904
418.512, 631.762
418.994, 596.828
419.476, 567.581
419.958, 547.411
420.440, 531.947
420.922, 519.328
421.404, 509.149
421.886, 499.902
422.368, 489.381
422.850, 479.062
423.333, 474.143
423.815, 476.301
424.297, 478.347
424.779, 476.020
425.261, 469.460
425.743, 459.907
426.225, 442.276
426.707, 427.398
427.190, 422.097
427.672, 423.184
428.154, 424.502
428.636, 424.029
429.118, 423.118
429.600, 423.821
430.082, 426.948
430.564, 429.264
431.047, 430.058
431.529, 430.813
432.011, 432.218
432.493, 434.223
432.975, 436.780
433.457, 440.071
433.939, 443.305
434.421, 443.470
434.903, 438.409
435.386, 435.641
435.868, 436.444
436.350, 440.300
436.832, 448.700
437.314, 461.301
437.796, 472.330
438.278, 475.988
438.760, 475.158
439.242, 478.672
439.725, 488.222
440.207, 496.118
440.689, 496.327
441.171, 490.990
441.653, 488.024
442.135, 488.768
442.617, 490.419
443.099, 493.564
443.582, 496.335
444.064, 495.344
444.546, 489.661
445.028, 481.229
445.510, 472.132
445.992, 461.777
446.474, 453.596
446.956, 450.060
447.439, 445.722
447.921, 437.253
448.403, 426.681
448.885, 417.992
449.367, 413.337
449.849, 410.490
450.331, 404.711
450.813, 394.953
451.295, 387.165
451.778, 382.586
452.260, 380.300
452.742, 380.191
453.224, 381.988
453.706, 384.174
454.188, 384.736
454.670, 385.862
455.152, 392.530
455.634, 404.597
456.117, 413.416
456.599, 413.321
457.081, 408.074
457.563, 408.046
458.045, 415.182
458.527, 422.455
459.009, 427.236
459.491, 432.323
459.974, 439.937
460.456, 450.575
460.938, 464.793
461.420, 483.706
461.902, 506.827
462.384, 525.496
462.866, 533.192
463.348, 545.208
463.831, 567.776
464.313, 594.026
464.795, 618.053
465.277, 638.076
465.759, 654.099
466.241, 668.867
466.723, 680.911
467.205, 678.283
467.687, 656.939
468.169, 627.645
468.652, 594.751
469.134, 559.777
469.616, 526.898
470.098, 494.883
470.580, 466.952
471.062, 445.732
471.544, 429.706
472.026, 416.085
472.509, 403.999
472.991, 393.414
473.473, 384.285
473.955, 376.414
474.437, 370.906
474.919, 367.934
475.401, 366.708
475.883, 369.208
476.366, 372.795
476.848, 372.670
477.330, 366.400
477.812, 357.506
478.294, 351.600
478.776, 348.772
479.258, 348.649
479.740, 353.132
480.222, 358.236
480.705, 361.774
481.187, 363.639
481.669, 363.575
482.151, 357.974
482.633, 352.914
483.115, 356.198
483.597, 366.306
484.079, 375.141
484.561, 379.133
485.044, 380.817
485.526, 384.993
486.008, 394.645
486.490, 399.592
486.972, 396.300
487.454, 391.214
487.936, 387.740
488.418, 385.987
488.901, 385.263
489.383, 385.347
489.865, 385.498
490.347, 383.909
490.829, 380.893
491.311, 375.138
491.793, 360.815
492.275, 347.982
492.758, 344.744
493.240, 350.277
493.722, 356.169
494.204, 358.046
494.686, 357.708
495.168, 358.008
495.650, 358.863
496.132, 357.790
496.614, 352.707
497.097, 346.171
497.579, 344.284
498.061, 349.966
498.543, 353.398
499.025, 351.362
499.507, 348.567
499.989, 350.030
500.471, 354.387
500.953, 355.322
501.436, 347.766
501.918, 335.267
502.400, 331.288
502.882, 340.502
503.364, 346.763
503.846, 342.565
504.328, 337.421
504.810, 338.706
505.293, 346.199
505.775, 353.034
506.257, 354.726
506.739, 353.775
507.221, 354.773
507.703, 357.612
508.185, 357.563
508.667, 351.414
509.150, 342.217
509.632, 337.147
510.114, 338.254
510.596, 338.779
511.078, 338.219
511.560, 336.855
512.042, 335.250
512.524, 333.085
513.006, 328.993
513.489, 321.691
513.971, 312.796
514.453, 307.338
514.935, 306.186
515.417, 306.083
515.899, 308.071
516.381, 309.578
516.863, 307.648
517.346, 302.863
517.828, 300.305
518.310, 305.315
518.792, 312.077
519.274, 312.378
519.756, 306.970
520.238, 302.375
520.720, 301.638
521.202, 302.814
521.685, 302.150
522.167, 298.156
522.649, 295.586
523.131, 295.289
523.613, 295.636
524.095, 294.623
524.577, 293.492
525.059, 295.883
525.541, 304.295
526.024, 314.928
526.506, 320.209
526.988, 319.745
527.470, 316.155
527.952, 307.436
528.434, 298.441
528.916, 292.341
529.398, 289.015
529.880, 287.852
530.363, 291.344
530.845, 294.655
531.327, 292.237
531.809, 286.424
532.291, 284.586
532.773, 289.570
533.255, 295.695
533.737, 294.259
534.219, 282.143
534.702, 276.257
535.184, 281.320
535.666, 287.005
536.148, 291.189
536.630, 293.227
537.112, 291.749
537.594, 286.020
538.076, 280.181
538.559, 279.034
539.041, 282.313
539.523, 288.874
540.005, 300.604
540.487, 309.985
540.969, 309.772
541.451, 302.418
541.933, 298.070
542.416, 299.558
542.898, 300.983
543.380, 298.854
543.862, 296.003
544.344, 296.731
544.826, 301.428
545.308, 306.693
545.790, 309.581
546.273, 310.082
546.755, 307.582
547.237, 298.768
547.719, 292.702
548.201, 293.565
548.683, 296.686
549.165, 297.939
549.647, 296.791
550.130, 295.331
550.612, 295.006
551.094, 295.125
551.576, 293.681
552.058, 290.865
552.540, 290.931
553.022, 297.005
553.504, 305.773
553.986, 309.281
554.469, 303.031
554.951, 299.685
555.433, 302.128
555.915, 304.879
556.397, 304.881
556.879, 302.329
557.361, 297.715
557.843, 290.547
558.325, 284.558
558.808, 288.585
559.290, 303.374
559.772, 313.069
560.254, 313.035
560.736, 310.128
561.218, 310.430
561.700, 313.025
562.182, 314.196
562.664, 310.654
563.147, 308.457
563.629, 313.386
564.111, 320.976
564.593, 323.021
565.075, 317.799
565.557, 311.003
566.039, 308.887
566.521, 311.479
567.003, 313.709
567.486, 315.317
567.968, 316.951
568.450, 318.961
568.932, 320.995
569.414, 322.313
569.896, 322.806
570.378, 324.357
570.860, 327.541
571.343, 332.793
571.825, 342.387
572.307, 355.865
572.789, 366.505
573.271, 369.923
573.753, 370.388
574.235, 378.400
574.717, 401.913
575.200, 417.364
575.682, 415.682
576.164, 415.021
576.646, 427.718
577.128, 449.095
577.610, 467.884
578.092, 479.000
578.574, 484.771
579.057, 486.842
579.539, 485.692
580.021, 487.441
580.503, 494.249
580.985, 500.792
581.467, 503.490
581.949, 502.008
582.431, 496.449
582.913, 483.457
583.396, 470.494
583.878, 459.498
584.360, 449.916
584.842, 432.048
585.324, 410.542
585.806, 402.743
586.288, 402.548
586.770, 400.507
587.252, 396.720
587.735, 385.954
588.217, 384.199
588.699, 378.834
589.181, 373.320
589.663, 372.833
590.145, 366.435
590.627, 366.836
591.109, 365.143
591.591, 363.131
592.074, 362.293
592.556, 362.241
593.038, 362.091
593.520, 361.515
594.002, 360.343
594.484, 358.406
594.966, 355.750
595.448, 351.567
595.930, 341.059
596.413, 335.930
596.895, 344.286
597.377, 357.672
597.859, 365.746
598.341, 366.186
598.823, 365.253
599.305, 365.985
599.787, 368.105
600.270, 372.176
600.752, 377.742
601.234, 381.187
601.716, 380.131
602.198, 376.995
602.680, 377.997
603.162, 388.091
603.644, 391.744
604.127, 381.021
604.609, 372.348
605.091, 375.591
605.573, 386.072
606.055, 393.790
606.537, 394.312
607.019, 393.681
607.501, 399.650
607.984, 409.467
608.466, 413.555
608.948, 410.248
609.430, 406.529
609.912, 407.454
610.394, 412.173
610.876, 416.559
611.358, 418.575
611.840, 423.094
612.323, 432.933
612.805, 443.233
613.287, 450.008
613.769, 454.011
614.251, 458.664
614.733, 466.109
615.215, 474.793
615.697, 481.527
616.179, 486.776
616.662, 496.038
617.144, 511.747
617.626, 526.785
618.108, 532.574
618.590, 530.104
619.072, 539.368
619.554, 570.016
620.036, 598.841
620.518, 618.088
621.001, 635.187
621.483, 657.143
621.965, 684.667
622.447, 714.667
622.929, 744.532
623.411, 775.710
623.893, 809.660
624.375, 846.325
624.857, 894.318
625.340, 958.214
625.822, 1029.735
626.304, 1098.519
626.786, 1164.433
627.268, 1243.471
627.750, 1338.953
628.232, 1443.910
628.714, 1556.630
629.197, 1677.480
629.679, 1807.184
630.161, 1945.406
630.643, 2093.301
631.125, 2256.038
631.607, 2426.278
632.089, 2577.904
632.571, 2708.474
633.054, 2847.087
633.536, 3011.757
634.018, 3176.575
634.500, 3321.727
634.982, 3450.164
635.464, 3505.580
635.946, 3460.138
636.428, 3367.451
636.911, 3245.390
637.393, 3092.704
637.875, 2896.698
638.357, 2658.626
638.839, 2410.677
639.321, 2179.498
639.803, 1963.419
640.285, 1750.429
640.768, 1537.434
641.250, 1355.161
641.732, 1219.455
642.214, 1115.045
642.696, 1025.047
643.178, 949.840
643.660, 882.677
644.142, 824.312
644.624, 772.140
645.107, 725.867
645.589, 684.590
646.071, 647.334
646.553, 613.670
647.035, 583.974
647.517, 559.954
647.999, 540.105
648.481, 516.643
648.963, 488.349
649.446, 466.447
649.928, 456.817
650.410, 453.648
650.892, 450.091
651.374, 446.658
651.856, 438.825
652.338, 419.609
652.820, 403.341
653.302, 397.542
653.785, 397.949
654.267, 399.560
654.749, 400.685
655.231, 400.539
655.713, 398.232
656.195, 394.074
656.677, 388.151
657.159, 380.154
657.641, 375.798
658.124, 379.205
658.606, 383.441
659.088, 377.466
659.570, 357.899
660.052, 348.302
660.534, 358.119
661.016, 366.851
661.498, 366.493
661.981, 361.470
662.463, 356.972
662.945, 354.246
663.427, 352.111
663.909, 349.683
664.391, 347.122
664.873, 345.063
665.355, 343.438
665.838, 340.226
666.320, 333.988
666.802, 328.370
667.284, 328.391
667.766, 334.893
668.248, 339.079
668.730, 338.318
669.212, 338.669
669.695, 344.511
670.177, 350.197
670.659, 348.312
671.141, 339.178
671.623, 331.910
672.105, 333.591
672.587, 339.659
673.069, 344.162
673.551, 347.252
674.034, 348.933
674.516, 349.015
674.998, 350.276
675.480, 356.420
675.962, 367.235
676.444, 372.638
676.926, 364.402
677.408, 363.190
677.890, 378.422
678.373, 396.536
678.855, 405.936
679.337, 407.654
679.819, 411.481
680.301, 423.280
680.783, 437.157
681.265, 446.759
681.747, 454.737
682.229, 467.246
682.712, 485.383
683.194, 505.444
683.676, 524.755
684.158, 542.964
684.640, 558.676
685.122, 570.701
685.604, 583.236
686.086, 598.254
686.568, 612.622
687.051, 625.369
687.533, 635.913
688.015, 642.599
688.497, 646.090
688.979, 644.109
689.461, 637.422
689.943, 623.565
690.425, 594.633
690.908, 554.204
691.390, 518.061
691.872, 496.474
692.354, 484.359
692.836, 472.595
693.318, 461.331
693.800, 447.998
694.282, 431.443
694.765, 414.704
695.247, 398.272
695.729, 383.526
696.211, 374.918
696.693, 375.268
697.175, 375.469
697.657, 374.874
698.139, 372.980
698.622, 368.162
699.104, 362.031
699.586, 358.171
700.068, 358.140
700.550, 358.370
701.032, 353.082
701.514, 344.892
701.996, 343.426
702.478, 349.340
702.961, 355.144
703.443, 357.495
703.925, 357.188
704.407, 355.449
704.889, 351.723
705.371, 348.547
705.853, 345.806
706.335, 343.725
706.817, 342.208
707.300, 341.473
707.782, 341.347
708.264, 341.897
708.746, 344.897
709.228, 353.853
709.710, 363.856
710.192, 369.374
710.674, 371.339
711.157, 373.669
711.639, 377.347
712.121, 377.522
712.603, 368.145
713.085, 350.401
713.567, 335.299
714.049, 322.334
714.531, 313.590
715.013, 311.014
715.496, 311.458
715.978, 313.264
716.460, 315.926
716.942, 316.392
717.424, 311.832
717.906, 307.930
718.388, 308.292
718.870, 309.332
719.352, 305.955
719.835, 299.190
720.317, 295.236
720.799, 298.450
721.281, 304.234
721.763, 304.976
722.245, 301.352
722.727, 297.877
723.209, 295.060
723.692, 293.129
724.174, 292.446
724.656, 292.540
725.138, 291.839
725.620, 287.764
726.102, 288.156
726.584, 299.879
727.066, 308.261
727.549, 303.940
728.031, 293.326
728.513, 286.180
728.995, 284.738
729.477, 286.394
729.959, 292.166
730.441, 298.374
730.923, 300.065
731.406, 298.381
731.888, 297.423
732.370, 298.625
732.852, 300.241
733.334, 300.121
733.816, 298.417
734.298, 296.903
734.780, 295.569
735.262, 294.356
735.745, 292.825
736.227, 291.891
736.709, 292.848
737.191, 295.572
737.673, 297.995
738.155, 301.094
738.637, 302.497
739.119, 301.527
739.601, 298.576
740.084, 292.198
740.566, 283.993
741.048, 278.885
741.530, 279.711
742.012, 283.959
742.494, 289.424
742.976, 295.763
743.458, 303.657
743.940, 312.742
744.423, 315.486
744.905, 306.257
745.387, 291.016
745.869, 284.299
746.351, 289.599
746.833, 291.165
747.315, 285.066
747.797, 280.828
748.279, 285.306
748.762, 292.547
749.244, 293.998
749.726, 288.160
750.208, 285.131
750.690, 291.483
751.172, 297.677
751.654, 295.931
752.136, 290.755
752.619, 289.839
753.101, 294.502
753.583, 299.825
754.065, 301.702
754.547, 301.552
755.029, 303.039
755.511, 305.722
755.993, 305.188
756.476, 300.137
756.958, 294.172
757.440, 289.877
757.922, 287.528
758.404, 288.851
758.886, 296.124
759.368, 302.574
759.850, 308.933
760.333, 313.182
760.815, 313.878
761.297, 311.886
761.779, 308.104
762.261, 301.395
762.743, 297.951
763.225, 302.806
763.707, 309.959
764.189, 317.278
764.672, 322.072
765.154, 317.231
765.636, 301.222
766.118, 286.103
766.600, 287.345
767.082, 299.177
767.564, 301.457
768.046, 294.385
768.528, 287.978
769.011, 284.879
769.493, 284.958
769.975, 289.782
770.457, 298.288
770.939, 295.462
771.421, 267.833
771.903, 252.059
772.385, 264.304
772.867, 278.004
773.350, 273.211
773.832, 257.832
774.314, 253.886
774.796, 270.387
775.278, 287.853
775.760, 301.032
776.242, 308.439
776.724, 306.120
777.206, 297.312
777.689, 288.928
778.171, 283.713
778.653, 280.862
779.135, 279.184
779.617, 279.199
780.099, 284.634
780.581, 295.031
781.063, 299.555
781.546, 293.808
782.028, 285.923
782.510, 284.937
782.992, 290.445
783.474, 295.070
783.956, 297.508
784.438, 301.718
784.920, 314.275
785.403, 322.939
785.885, 314.700
786.367, 296.559
786.849, 289.220
787.331, 301.958
787.813, 312.543
788.295, 312.170
788.777, 307.955
789.260, 304.441
789.742, 301.954
790.224, 299.676
790.706, 297.370
791.188, 296.404
791.670, 299.440
792.152, 304.170
792.634, 305.782
793.117, 304.599
793.599, 302.776
794.081, 300.946
794.563, 298.893
795.045, 295.875
795.527, 292.697
796.009, 295.847
796.491, 309.276
796.973, 314.482
797.456, 302.597
797.938, 291.113
798.420, 295.286
798.902, 309.302
799.384, 314.207
799.866, 306.714
800.348, 297.299
800.830, 281.606
801.312, 270.188
801.795, 271.480
802.277, 279.777
802.759, 286.471
803.241, 289.591
803.723, 291.961
804.205, 294.808
804.687, 298.270
805.169, 304.655
805.651, 311.290
806.134, 311.026
806.616, 303.168
807.098, 294.525
807.580, 290.019
808.062, 289.230
808.544, 292.434
809.026, 299.557
809.508, 303.562
809.990, 303.286
810.473, 301.533
810.955, 299.537
811.437, 297.665
811.919, 296.723
812.401, 296.709
812.883, 297.661
813.365, 301.301
813.847, 303.651
814.330, 302.873
814.812, 300.767
815.294, 298.726
815.776, 296.942
816.258, 296.142
816.740, 295.388
817.222, 297.043
817.704, 305.966
818.187, 315.112
818.669, 316.168
819.151, 310.442
819.633, 304.955
820.115, 303.154
820.597, 302.138
821.079, 297.814
821.561, 292.423
822.044, 290.930
822.526, 293.101
823.008, 296.023
823.490, 298.592
823.972, 300.841
824.454, 303.027
824.936, 302.944
825.418, 304.598
825.900, 301.453
826.383, 298.767
826.865, 296.823
827.347, 296.639
827.829, 299.795
828.311, 305.375
828.793, 308.866
829.275, 308.955
829.757, 309.038
830.239, 308.699
830.722, 308.813
831.204, 312.784
831.686, 316.088
832.168, 309.863
832.650, 292.200
833.132, 280.331
833.614, 284.657
834.096, 292.246
834.578, 297.208
835.061, 299.411
835.543, 296.682
836.025, 290.817
836.507, 290.355
836.989, 302.638
837.471, 316.231
837.953, 315.459
838.435, 305.840
838.917, 299.489
839.400, 297.543
839.882, 298.515
840.364, 301.827
840.846, 305.274
841.328, 305.392
841.810, 302.462
842.292, 300.549
842.774, 299.883
843.257, 298.433
843.739, 295.154
844.221, 292.204
844.703, 291.934
845.185, 293.807
845.667, 294.012
846.149, 290.089
846.631, 289.021
847.114, 293.503
847.596, 298.388
848.078, 302.148
848.560, 304.525
849.042, 304.552
849.524, 301.558
850.006, 300.470
850.488, 305.775
850.971, 309.441
851.453, 307.187
851.935, 301.306
852.417, 292.787
852.899, 283.134
853.381, 276.699
853.863, 275.586
854.345, 278.448
854.827, 287.627
855.310, 298.067
855.792, 301.100
856.274, 297.845
856.756, 294.413
857.238, 293.416
857.720, 294.430
858.202, 298.038
858.684, 303.045
859.166, 305.444
859.649, 305.286
860.131, 302.532
860.613, 296.989
861.095, 291.241
861.577, 286.899
862.059, 284.875
862.541, 289.861
863.023, 304.983
863.505, 311.605
863.988, 304.500
864.470, 298.639
864.952, 302.242
865.434, 309.922
865.916, 313.398
866.398, 312.112
866.880, 310.632
867.362, 308.487
867.844, 306.788
868.327, 305.665
868.809, 305.123
869.291, 305.337
869.773, 306.132
870.255, 306.954
870.737, 307.475
871.219, 308.569
871.701, 311.608
872.184, 314.292
872.666, 315.263
873.148, 314.577
873.630, 311.728
874.112, 307.026
874.594, 303.463
875.076, 303.514
875.558, 304.981
876.041, 305.357
876.523, 307.587
877.005, 308.175
877.487, 312.619
877.969, 316.926
878.451, 320.121
878.933, 320.996
879.415, 314.542
879.898, 304.744
880.380, 307.156
880.862, 320.870
881.344, 333.806
881.826, 342.293
882.308, 347.033
882.790, 347.777
883.272, 346.541
883.755, 352.319
884.237, 366.306
884.719, 376.674
885.201, 380.756
885.683, 386.351
886.165, 398.571
886.647, 413.343
887.129, 423.574
887.611, 428.410
888.094, 434.746
888.576, 446.869
889.058, 453.185
889.540, 449.227
890.022, 440.388
890.504, 429.656
890.986, 417.547
891.468, 405.650
891.950, 393.234
892.433, 382.771
892.915, 376.791
893.397, 370.346
893.879, 358.277
894.361, 345.761
894.843, 341.301
895.325, 345.073
895.807, 345.868
896.289, 334.825
896.772, 325.151
897.254, 326.558
897.736, 330.899
898.218, 328.838
898.700, 322.233
899.182, 318.286
899.664, 319.708
900.146, 322.779
900.628, 325.779
901.111, 327.801
901.593, 326.647
902.075, 323.868
902.557, 323.139
903.039, 324.890
903.521, 326.505
904.003, 325.863
904.485, 325.383
904.968, 330.244
905.450, 338.233
905.932, 341.805
906.414, 340.939
906.896, 339.738
907.378, 339.788
907.860, 340.400
908.342, 341.334
908.825, 341.787
909.307, 336.582
909.789, 325.520
910.271, 321.274
910.753, 326.724
911.235, 332.615
911.717, 333.541
912.199, 330.924
912.682, 326.934
913.164, 321.121
913.646, 318.987
914.128, 322.258
914.610, 323.814
915.092, 320.037
915.574, 317.057
916.056, 321.469
916.538, 331.068
917.021, 335.645
917.503, 331.583
917.985, 329.820
918.467, 335.280
918.949, 336.724
919.431, 323.994
919.913, 308.905
920.395, 306.122
920.877, 315.479
921.360, 322.416
921.842, 324.442
922.324, 325.776
922.806, 326.514
923.288, 327.449
923.770, 328.251
924.252, 329.906
924.734, 335.229
925.216, 345.282
925.699, 351.422
926.181, 345.833
926.663, 341.615
927.145, 347.849
927.627, 356.916
928.109, 362.391
928.591, 363.088
929.073, 357.178
929.555, 341.383
930.038, 331.305
930.520, 345.118
931.002, 361.075
931.484, 356.064
931.966, 340.458
932.448, 333.250
932.930, 336.865
933.412, 340.211
933.895, 336.106
934.377, 338.329
934.859, 331.921
935.341, 335.277
935.823, 333.951
936.305, 329.120
936.787, 325.629
937.269, 325.058
937.752, 325.973
938.234, 327.462
938.716, 329.210
939.198, 330.818
939.680, 332.219
940.162, 333.046
940.644, 333.400
941.126, 333.847
941.609, 334.645
942.091, 336.616
942.573, 341.475
943.055, 348.215
943.537, 353.241
944.019, 356.754
944.501, 360.633
944.983, 365.173
945.465, 367.134
945.948, 364.103
946.430, 358.566
946.912, 354.809
947.394, 352.834
947.876, 353.106
948.358, 355.684
948.840, 359.294
949.322, 363.645
949.804, 368.213
950.287, 372.312
950.769, 376.618
951.251, 384.043
951.733, 395.276
952.215, 401.907
952.697, 402.018
953.179, 405.173
953.661, 416.101
954.144, 428.279
954.626, 433.640
955.108, 433.740
955.590, 440.009
956.072, 452.080
956.554, 472.192
957.036, 503.151
957.518, 536.081
958.000, 567.391
958.483, 597.695
958.965, 626.858
959.447, 654.803
959.929, 689.982
960.411, 728.597
960.893, 782.346
961.375, 849.135
961.857, 937.429
962.339, 1054.147
962.822, 1194.526
963.304, 1350.117
963.786, 1521.341
964.268, 1705.074
964.750, 1887.823
965.232, 2104.297
965.714, 2366.777
966.196, 2659.516
966.679, 2983.989
967.161, 3328.894
967.643, 3673.649
968.125, 4042.327
968.607, 4335.790
969.089, 4604.379
969.571, 4726.023
970.053, 4649.381
970.536, 4430.402
971.018, 4072.561
971.500, 3609.593
971.982, 3142.247
972.464, 2647.441
972.946, 2227.398
973.428, 1907.547
973.910, 1644.844
974.393, 1432.631
974.875, 1259.776
975.357, 1122.924
975.839, 1017.117
976.321, 928.448
976.803, 856.860
977.285, 796.901
977.767, 750.446
978.249, 711.934
978.732, 682.114
979.214, 656.901
979.696, 631.293
980.178, 605.451
980.660, 583.766
981.142, 570.523
981.624, 556.299
982.106, 533.490
982.588, 514.287
983.071, 509.683
983.553, 511.410
984.035, 507.307
984.517, 496.349
984.999, 486.147
985.481, 478.640
985.963, 472.810
986.445, 469.870
986.927, 466.964
987.410, 459.035
987.892, 451.100
988.374, 451.854
988.856, 462.404
989.338, 475.181
989.820, 491.259
990.302, 503.960
990.784, 507.735
991.266, 509.462
991.749, 513.380
992.231, 519.948
992.713, 528.677
993.195, 539.523
993.677, 554.387
994.159, 583.058
994.641, 604.582
995.123, 600.995
995.606, 592.354
996.088, 597.908
996.570, 612.294
997.052, 623.826
997.534, 629.818
998.016, 624.454
998.498, 600.320
998.980, 570.175
999.463, 533.199
999.945, 499.423
1000.427, 480.299
1000.909, 471.766
1001.391, 464.151
1001.873, 455.148
1002.355, 443.413
1002.837, 425.733
1003.319, 408.264
1003.802, 393.474
1004.284, 381.301
1004.766, 371.755
1005.248, 364.655
1005.730, 359.537
1006.212, 356.196
1006.694, 355.829
1007.176, 360.989
1007.659, 366.861
1008.141, 371.733
1008.623, 375.198
1009.105, 376.479
1009.587, 376.203
1010.069, 376.684
1010.551, 378.983
1011.033, 376.972
1011.515, 359.866
1011.998, 347.621
1012.480, 356.336
1012.962, 370.899
1013.444, 376.140
1013.926, 374.298
1014.408, 374.707
1014.890, 379.924
1015.372, 385.310
1015.854, 390.043
1016.337, 393.241
1016.819, 394.381
1017.301, 393.774
1017.783, 389.406
1018.265, 384.002
1018.747, 384.627
1019.229, 393.828
1019.711, 401.515
1020.194, 404.239
1020.676, 404.621
1021.158, 403.023
1021.640, 400.334
1022.122, 396.485
1022.604, 392.343
1023.086, 390.296
1023.568, 391.394
1024.051, 390.125
1024.533, 382.634
1025.015, 375.442
1025.497, 370.089
1025.979, 367.021
1026.461, 368.500
1026.943, 372.031
1027.425, 371.268
1027.907, 364.198
1028.390, 360.476
1028.872, 363.478
1029.354, 368.398
1029.836, 374.699
1030.318, 381.397
1030.800, 388.643
1031.282, 395.477
1031.764, 399.125
1032.246, 398.286
1032.729, 401.411
1033.211, 415.789
1033.693, 425.700
1034.175, 417.969
1034.657, 413.823
1035.139, 432.249
1035.621, 462.800
1036.103, 483.061
1036.586, 489.608
1037.068, 503.619
1037.550, 524.365
1038.032, 555.230
1038.514, 605.564
1038.996, 656.711
1039.478, 690.752
1039.960, 752.991
1040.443, 780.390
1040.925, 867.809
1041.407, 942.988
1041.889, 1001.130
1042.371, 1055.577
1042.853, 1115.216
1043.335, 1160.403
1043.817, 1181.561
1044.299, 1181.724
1044.781, 1166.063
1045.264, 1134.674
1045.746, 1077.783
1046.228, 984.708
1046.710, 893.628
1047.192, 804.286
1047.674, 725.939
1048.156, 662.229
1048.638, 612.534
1049.121, 578.073
1049.603, 557.081
1050.085, 531.530
1050.567, 499.394
1051.049, 471.529
1051.531, 448.331
1052.013, 431.667
1052.495, 422.845
1052.978, 420.028
1053.460, 422.640
1053.942, 428.183
1054.424, 423.637
1054.906, 407.904
1055.388, 399.604
1055.870, 400.143
1056.352, 407.371
1056.834, 421.560
1057.317, 433.284
1057.799, 432.611
1058.281, 425.140
1058.763, 427.038
1059.245, 436.968
1059.727, 441.678
1060.209, 440.664
1060.691, 435.386
1061.173, 426.407
1061.656, 416.405
1062.138, 407.238
1062.620, 399.428
1063.102, 394.997
1063.584, 392.504
1064.066, 387.345
1064.548, 379.561
1065.030, 367.384
1065.513, 352.164
1065.995, 346.283
1066.477, 358.037
1066.959, 374.099
1067.441, 379.237
1067.923, 376.500
1068.405, 368.567
1068.887, 357.988
1069.370, 349.566
1069.852, 344.214
1070.334, 341.938
1070.816, 342.835
1071.298, 344.065
1071.780, 342.788
1072.262, 340.953
1072.744, 341.459
1073.226, 342.205
1073.708, 337.559
1074.191, 330.850
1074.673, 332.943
1075.155, 346.836
1075.637, 359.154
1076.119, 361.750
1076.601, 360.762
1077.083, 355.351
1077.565, 352.263
1078.048, 361.543
1078.530, 376.138
1079.012, 382.089
1079.494, 377.730
1079.976, 374.573
1080.458, 371.110
1080.940, 377.263
1081.422, 401.129
1081.905, 429.674
1082.387, 455.850
1082.869, 482.064
1083.351, 510.274
1083.833, 541.524
1084.315, 581.590
1084.797, 645.392
1085.279, 691.321
1085.761, 725.284
1086.244, 729.680
1086.726, 687.640
1087.208, 625.945
1087.690, 561.401
1088.172, 497.458
1088.654, 444.541
1089.136, 401.024
1089.618, 377.071
1090.101, 380.223
1090.583, 382.334
1091.065, 376.122
1091.547, 370.729
1092.029, 373.293
1092.511, 367.418
1092.993, 363.916
1093.475, 362.621
1093.958, 355.830
1094.440, 354.455
1094.922, 353.686
1095.404, 352.954
1095.886, 349.132
1096.368, 340.249
1096.850, 332.990
1097.332, 336.394
1097.814, 346.265
1098.297, 350.034
1098.779, 349.315
1099.261, 352.180
1099.743, 358.156
1100.225, 359.880
1100.707, 355.394
1101.189, 350.165
1101.671, 347.861
1102.153, 348.891
1102.636, 356.326
1103.118, 365.774
1103.600, 370.094
1104.082, 370.412
1104.564, 369.267
1105.046, 367.625
1105.528, 366.656
1106.010, 367.045
1106.493, 367.314
1106.975, 366.345
1107.457, 364.931
1107.939, 363.511
1108.421, 362.116
1108.903, 359.629
1109.385, 357.406
1109.867, 359.232
1110.349, 366.231
1110.832, 372.443
1111.314, 377.584
1111.796, 379.422
1112.278, 371.624
1112.760, 366.274
1113.242, 374.431
1113.724, 388.113
1114.206, 395.821
1114.688, 397.203
1115.171, 395.037
1115.653, 385.486
1116.135, 380.173
1116.617, 381.429
1117.099, 383.055
1117.581, 382.955
1118.063, 382.341
1118.545, 381.731
1119.028, 382.065
1119.510, 387.073
1119.992, 389.174
1120.474, 392.826
1120.956, 399.815
1121.438, 401.892
1121.920, 411.096
1122.402, 418.509
1122.885, 418.708
1123.367, 414.745
1123.849, 409.786
1124.331, 404.939
1124.813, 403.677
1125.295, 405.518
1125.777, 409.338
1126.259, 414.565
1126.741, 419.608
1127.224, 423.988
1127.706, 429.060
1128.188, 436.903
1128.670, 443.535
1129.152, 442.983
1129.634, 440.133
1130.116, 441.309
1130.598, 444.587
1131.080, 444.854
1131.563, 442.805
1132.045, 444.875
1132.527, 453.969
1133.009, 464.812
1133.491, 478.698
1133.973, 489.271
1134.455, 491.773
1134.937, 491.002
1135.420, 489.291
1135.902, 488.111
1136.384, 489.841
1136.866, 494.728
1137.348, 502.026
1137.830, 513.990
1138.312, 524.177
1138.794, 532.891
1139.276, 537.996
1139.759, 537.696
1140.241, 534.612
1140.723, 530.429
1141.205, 526.742
1141.687, 530.093
1142.169, 540.711
1142.651, 556.951
1143.133, 579.408
1143.615, 589.935
1144.098, 584.062
1144.580, 578.023
1145.062, 582.042
1145.544, 590.878
1146.026, 599.343
1146.508, 605.560
1146.990, 601.773
1147.472, 593.153
1147.955, 592.546
1148.437, 599.831
1148.919, 610.471
1149.401, 622.190
1149.883, 629.770
1150.365, 628.311
1150.847, 624.522
1151.329, 622.469
1151.812, 621.402
1152.294, 621.421
1152.776, 621.516
1153.258, 620.240
1153.740, 617.819
1154.222, 615.653
1154.704, 613.962
1155.186, 612.747
1155.668, 615.284
1156.151, 613.615
1156.633, 598.931
1157.115, 587.706
1157.597, 591.715
1158.079, 602.387
1158.561, 607.346
1159.043, 606.938
1159.525, 604.724
1160.008, 599.628
1160.490, 599.893
1160.972, 606.781
1161.454, 612.923
1161.936, 616.107
1162.418, 615.430
1162.900, 609.425
1163.382, 602.950
1163.865, 605.882
1164.347, 614.763
1164.829, 620.442
1165.311, 623.198
1165.793, 622.917
1166.275, 620.924
1166.757, 621.969
1167.239, 627.613
1167.721, 633.533
1168.203, 638.361
1168.686, 639.828
1169.168, 629.169
1169.650, 621.401
1170.132, 635.560
1170.614, 657.685
1171.096, 666.552
1171.578, 663.017
1172.060, 663.750
1172.543, 676.468
1173.025, 678.143
1173.507, 653.133
1173.989, 636.105
1174.471, 635.164
1174.953, 641.804
1175.435, 654.727
1175.917, 667.384
1176.400, 668.833
1176.882, 676.152
1177.364, 680.227
1177.846, 677.635
1178.328, 681.858
1178.810, 675.623
1179.292, 666.985
1179.774, 658.481
1180.256, 652.201
1180.739, 649.935
1181.221, 648.207
1181.703, 640.643
1182.185, 631.787
1182.667, 627.938
1183.149, 629.136
1183.631, 638.909
1184.113, 652.752
1184.595, 659.578
1185.078, 656.664
1185.560, 649.677
1186.042, 638.174
1186.524, 628.505
1187.006, 623.532
1187.488, 620.600
1187.970, 618.196
1188.452, 617.142
1188.935, 618.550
1189.417, 622.068
1189.899, 628.081
1190.381, 638.306
1190.863, 635.041
1191.345, 611.851
1191.827, 600.148
1192.309, 605.574
1192.792, 616.709
1193.274, 629.840
1193.756, 637.348
1194.238, 630.289
1194.720, 616.336
1195.202, 611.791
1195.684, 614.084
1196.166, 616.190
1196.648, 618.145
1197.130, 622.819
1197.613, 628.674
1198.095, 626.600
1198.577, 613.049
1199.059, 603.305
1199.541, 610.805
1200.023, 621.130
1200.505, 626.899
1200.987, 630.778
1201.470, 633.019
1201.952, 635.846
1202.434, 643.834
1202.916, 655.361
1203.398, 660.403
1203.880, 657.088
1204.362, 652.751
1204.844, 644.343
1205.327, 644.045
1205.809, 656.760
1206.291, 667.847
1206.773, 669.110
1207.255, 668.875
1207.737, 677.857
1208.219, 678.673
1208.701, 693.583
1209.183, 689.087
1209.666, 693.580
1210.148, 704.609
1210.630, 710.070
1211.112, 709.346
1211.594, 712.433
1212.076, 723.906
1212.558, 735.018
1213.040, 739.000
1213.522, 741.435
1214.005, 741.067
1214.487, 745.479
1214.969, 768.811
1215.451, 795.595
1215.933, 801.250
1216.415, 788.562
1216.897, 784.683
1217.379, 793.824
1217.862, 798.308
1218.344, 795.527
1218.826, 796.679
1219.308, 804.960
1219.790, 812.062
1220.272, 813.461
1220.754, 813.974
1221.236, 819.086
1221.719, 827.309
1222.201, 835.604
1222.683, 843.887
1223.165, 852.257
1223.647, 860.323
1224.129, 867.718
1224.611, 873.733
1225.093, 874.403
1225.575, 867.937
1226.057, 868.465
1226.540, 892.320
1227.022, 913.245
1227.504, 917.976
1227.986, 917.215
1228.468, 911.786
1228.950, 909.380
1229.432, 920.852
1229.914, 941.704
1230.397, 957.924
1230.879, 969.404
1231.361, 977.211
1231.843, 981.231
1232.325, 980.390
1232.807, 974.039
1233.289, 978.709
1233.771, 1001.275
1234.254, 1023.108
1234.736, 1027.894
1235.218, 1022.410
1235.700, 1014.180
1236.182, 1003.894
1236.664, 991.833
1237.146, 978.918
1237.628, 965.056
1238.110, 951.957
1238.593, 944.266
1239.075, 942.905
1239.557, 939.442
1240.039, 928.824
1240.521, 920.179
1241.003, 918.513
1241.485, 913.629
1241.967, 900.452
1242.450, 886.367
1242.932, 876.221
1243.414, 870.045
1243.896, 869.591
1244.378, 872.532
1244.860, 861.106
1245.342, 859.223
1245.824, 855.369
1246.307, 842.745
1246.789, 842.502
1247.271, 828.125
1247.753, 811.065
1248.235, 797.008
1248.717, 785.674
1249.199, 778.663
1249.681, 772.259
1250.163, 762.063
1250.646, 753.374
1251.128, 752.770
1251.610, 755.219
1252.092, 753.535
1252.574, 747.633
1253.056, 737.808
1253.538, 736.176
1254.020, 731.816
1254.502, 724.936
1254.985, 725.600
1255.467, 713.212
1255.949, 704.239
1256.431, 706.267
1256.913, 708.430
1257.395, 699.629
1257.877, 700.737
1258.359, 688.428
1258.842, 691.786
1259.324, 684.563
1259.806, 673.581
1260.288, 670.413
1260.770, 673.080
1261.252, 672.864
1261.734, 668.107
1262.216, 663.705
1262.698, 658.902
1263.181, 657.600
1263.663, 661.891
1264.145, 665.945
1264.627, 669.219
1265.109, 668.477
1265.591, 660.734
1266.073, 650.920
1266.555, 645.537
1267.037, 644.898
1267.520, 652.765
1268.002, 665.219
1268.484, 671.999
1268.966, 673.431
1269.448, 671.505
##END=



