##NAMES=Wollastonite
##RRUFFID=R120122
##IDEAL CHEMISTRY=CaSiO_3_
##LOCALITY=Fuka mine, Bicchu-cho, Okayama Prefecture, Japan
##OWNER=RRUFF
##SOURCE=Marcus Origlieri
##DESCRIPTION=Colorless platy, frozen in matrix, polytype 2M, associated with perovskite R120121, spurrite and gehlenite
##STATUS=The identification of this mineral has been confirmed by single-crystal X-ray diffraction.
##URL=rruff.info/R120122
8.975323e+001, 0.000000e+000
9.023535e+001, 2.053937e+003
9.071747e+001, 2.025124e+003
9.119958e+001, 2.006999e+003
9.168170e+001, 2.046309e+003
9.216382e+001, 2.081261e+003
9.264594e+001, 2.098392e+003
9.312805e+001, 2.102794e+003
9.361017e+001, 2.103161e+003
9.409229e+001, 2.100981e+003
9.457440e+001, 2.094417e+003
9.505651e+001, 2.088056e+003
9.553863e+001, 2.083215e+003
9.602074e+001, 2.079810e+003
9.650286e+001, 2.078141e+003
9.698498e+001, 2.077026e+003
9.746709e+001, 2.072028e+003
9.794921e+001, 2.066246e+003
9.843133e+001, 2.059220e+003
9.891344e+001, 2.052873e+003
9.939556e+001, 2.046443e+003
9.987768e+001, 2.040254e+003
1.003598e+002, 2.035882e+003
1.008419e+002, 2.034064e+003
1.013240e+002, 2.035009e+003
1.018061e+002, 2.037673e+003
1.022883e+002, 2.041085e+003
1.027704e+002, 2.046469e+003
1.032525e+002, 2.054504e+003
1.037346e+002, 2.064870e+003
1.042167e+002, 2.078943e+003
1.046988e+002, 2.096618e+003
1.051810e+002, 2.117830e+003
1.056631e+002, 2.143686e+003
1.061452e+002, 2.175006e+003
1.066273e+002, 2.211363e+003
1.071094e+002, 2.253414e+003
1.075915e+002, 2.316624e+003
1.080737e+002, 2.365005e+003
1.085558e+002, 2.388974e+003
1.090379e+002, 2.388462e+003
1.095200e+002, 2.364182e+003
1.100021e+002, 2.310891e+003
1.104842e+002, 2.220517e+003
1.109664e+002, 2.144630e+003
1.114485e+002, 2.083829e+003
1.119306e+002, 2.034969e+003
1.124127e+002, 1.998851e+003
1.128948e+002, 1.974744e+003
1.133769e+002, 1.959415e+003
1.138591e+002, 1.948739e+003
1.143412e+002, 1.944922e+003
1.148233e+002, 1.942512e+003
1.153054e+002, 1.942314e+003
1.157875e+002, 1.943036e+003
1.162696e+002, 1.943220e+003
1.167517e+002, 1.942283e+003
1.172339e+002, 1.941070e+003
1.177160e+002, 1.941730e+003
1.181981e+002, 1.944431e+003
1.186802e+002, 1.947922e+003
1.191623e+002, 1.952304e+003
1.196444e+002, 1.957248e+003
1.201266e+002, 1.962019e+003
1.206087e+002, 1.966590e+003
1.210908e+002, 1.970349e+003
1.215729e+002, 1.972660e+003
1.220550e+002, 1.973458e+003
1.225371e+002, 1.972913e+003
1.230193e+002, 1.970594e+003
1.235014e+002, 1.966239e+003
1.239835e+002, 1.962278e+003
1.244656e+002, 1.960424e+003
1.249477e+002, 1.959399e+003
1.254298e+002, 1.957935e+003
1.259120e+002, 1.955222e+003
1.263941e+002, 1.952341e+003
1.268762e+002, 1.952029e+003
1.273583e+002, 1.956254e+003
1.278404e+002, 1.959869e+003
1.283225e+002, 1.960701e+003
1.288047e+002, 1.960229e+003
1.292868e+002, 1.960522e+003
1.297689e+002, 1.963082e+003
1.302510e+002, 1.967674e+003
1.307331e+002, 1.970781e+003
1.312152e+002, 1.969880e+003
1.316974e+002, 1.969874e+003
1.321795e+002, 1.972509e+003
1.326616e+002, 1.977161e+003
1.331437e+002, 1.982014e+003
1.336258e+002, 1.985397e+003
1.341079e+002, 1.986889e+003
1.345901e+002, 1.989932e+003
1.350722e+002, 1.996078e+003
1.355543e+002, 2.002241e+003
1.360364e+002, 2.006728e+003
1.365185e+002, 2.009361e+003
1.370006e+002, 2.010872e+003
1.374828e+002, 2.011921e+003
1.379649e+002, 2.012420e+003
1.384470e+002, 2.012833e+003
1.389291e+002, 2.012926e+003
1.394112e+002, 2.013056e+003
1.398933e+002, 2.013544e+003
1.403755e+002, 2.014397e+003
1.408576e+002, 2.015864e+003
1.413397e+002, 2.018436e+003
1.418218e+002, 2.021977e+003
1.423039e+002, 2.025875e+003
1.427860e+002, 2.029856e+003
1.432681e+002, 2.033981e+003
1.437503e+002, 2.038562e+003
1.442324e+002, 2.043938e+003
1.447145e+002, 2.049475e+003
1.451966e+002, 2.054552e+003
1.456787e+002, 2.059151e+003
1.461608e+002, 2.063760e+003
1.466430e+002, 2.069125e+003
1.471251e+002, 2.075433e+003
1.476072e+002, 2.080657e+003
1.480893e+002, 2.082498e+003
1.485714e+002, 2.084368e+003
1.490535e+002, 2.088308e+003
1.495357e+002, 2.094692e+003
1.500178e+002, 2.102314e+003
1.504999e+002, 2.109246e+003
1.509820e+002, 2.114820e+003
1.514641e+002, 2.121361e+003
1.519462e+002, 2.130042e+003
1.524284e+002, 2.139074e+003
1.529105e+002, 2.147132e+003
1.533926e+002, 2.153674e+003
1.538747e+002, 2.159128e+003
1.543568e+002, 2.164564e+003
1.548389e+002, 2.171484e+003
1.553211e+002, 2.176340e+003
1.558032e+002, 2.177477e+003
1.562853e+002, 2.176931e+003
1.567674e+002, 2.176927e+003
1.572495e+002, 2.178541e+003
1.577316e+002, 2.181620e+003
1.582138e+002, 2.185678e+003
1.586959e+002, 2.191126e+003
1.591780e+002, 2.196908e+003
1.596601e+002, 2.202050e+003
1.601422e+002, 2.207260e+003
1.606243e+002, 2.214180e+003
1.611065e+002, 2.223717e+003
1.615886e+002, 2.235830e+003
1.620707e+002, 2.249247e+003
1.625528e+002, 2.265215e+003
1.630349e+002, 2.281138e+003
1.635170e+002, 2.296929e+003
1.639991e+002, 2.312279e+003
1.644813e+002, 2.323550e+003
1.649634e+002, 2.327367e+003
1.654455e+002, 2.325333e+003
1.659276e+002, 2.321743e+003
1.664097e+002, 2.314828e+003
1.668918e+002, 2.308245e+003
1.673740e+002, 2.306474e+003
1.678561e+002, 2.310165e+003
1.683382e+002, 2.315580e+003
1.688203e+002, 2.323246e+003
1.693024e+002, 2.330733e+003
1.697845e+002, 2.334575e+003
1.702667e+002, 2.332514e+003
1.707488e+002, 2.326554e+003
1.712309e+002, 2.320998e+003
1.717130e+002, 2.315394e+003
1.721951e+002, 2.311210e+003
1.726772e+002, 2.309251e+003
1.731594e+002, 2.308721e+003
1.736415e+002, 2.308762e+003
1.741236e+002, 2.309445e+003
1.746057e+002, 2.310241e+003
1.750878e+002, 2.307737e+003
1.755699e+002, 2.299062e+003
1.760521e+002, 2.290001e+003
1.765342e+002, 2.281413e+003
1.770163e+002, 2.273604e+003
1.774984e+002, 2.266934e+003
1.779805e+002, 2.261633e+003
1.784626e+002, 2.257698e+003
1.789448e+002, 2.254835e+003
1.794269e+002, 2.252993e+003
1.799090e+002, 2.252232e+003
1.803911e+002, 2.252976e+003
1.808732e+002, 2.254905e+003
1.813553e+002, 2.257233e+003
1.818375e+002, 2.259207e+003
1.823196e+002, 2.260635e+003
1.828017e+002, 2.263711e+003
1.832838e+002, 2.269125e+003
1.837659e+002, 2.275120e+003
1.842480e+002, 2.281260e+003
1.847301e+002, 2.287301e+003
1.852123e+002, 2.292690e+003
1.856944e+002, 2.296729e+003
1.861765e+002, 2.299151e+003
1.866586e+002, 2.302424e+003
1.871407e+002, 2.307420e+003
1.876228e+002, 2.312585e+003
1.881050e+002, 2.316637e+003
1.885871e+002, 2.319454e+003
1.890692e+002, 2.322062e+003
1.895513e+002, 2.325576e+003
1.900334e+002, 2.329948e+003
1.905155e+002, 2.333710e+003
1.909977e+002, 2.337216e+003
1.914798e+002, 2.339800e+003
1.919619e+002, 2.340505e+003
1.924440e+002, 2.339051e+003
1.929261e+002, 2.336644e+003
1.934082e+002, 2.334009e+003
1.938904e+002, 2.331250e+003
1.943725e+002, 2.328762e+003
1.948546e+002, 2.326212e+003
1.953367e+002, 2.324082e+003
1.958188e+002, 2.323491e+003
1.963009e+002, 2.324993e+003
1.967831e+002, 2.327070e+003
1.972652e+002, 2.328711e+003
1.977473e+002, 2.330024e+003
1.982294e+002, 2.331224e+003
1.987115e+002, 2.332256e+003
1.991936e+002, 2.333227e+003
1.996758e+002, 2.334644e+003
2.001579e+002, 2.336826e+003
2.006400e+002, 2.339039e+003
2.011221e+002, 2.341253e+003
2.016042e+002, 2.343227e+003
2.020863e+002, 2.344327e+003
2.025685e+002, 2.343470e+003
2.030506e+002, 2.340856e+003
2.035327e+002, 2.340068e+003
2.040148e+002, 2.342519e+003
2.044969e+002, 2.345510e+003
2.049790e+002, 2.348133e+003
2.054612e+002, 2.350437e+003
2.059433e+002, 2.352731e+003
2.064254e+002, 2.355176e+003
2.069075e+002, 2.357746e+003
2.073896e+002, 2.360887e+003
2.078717e+002, 2.365595e+003
2.083539e+002, 2.369990e+003
2.088360e+002, 2.373346e+003
2.093181e+002, 2.375832e+003
2.098002e+002, 2.378042e+003
2.102823e+002, 2.380511e+003
2.107644e+002, 2.383285e+003
2.112466e+002, 2.385841e+003
2.117287e+002, 2.387515e+003
2.122108e+002, 2.389613e+003
2.126929e+002, 2.393144e+003
2.131750e+002, 2.397714e+003
2.136571e+002, 2.402032e+003
2.141393e+002, 2.404816e+003
2.146214e+002, 2.405735e+003
2.151035e+002, 2.407513e+003
2.155856e+002, 2.410944e+003
2.160677e+002, 2.414346e+003
2.165498e+002, 2.416542e+003
2.170320e+002, 2.417762e+003
2.175141e+002, 2.419296e+003
2.179962e+002, 2.422292e+003
2.184783e+002, 2.426927e+003
2.189604e+002, 2.432127e+003
2.194425e+002, 2.438791e+003
2.199247e+002, 2.445243e+003
2.204068e+002, 2.450010e+003
2.208889e+002, 2.453261e+003
2.213710e+002, 2.456804e+003
2.218531e+002, 2.462372e+003
2.223352e+002, 2.470119e+003
2.228174e+002, 2.476845e+003
2.232995e+002, 2.481851e+003
2.237816e+002, 2.486365e+003
2.242637e+002, 2.491467e+003
2.247458e+002, 2.497173e+003
2.252279e+002, 2.502437e+003
2.257100e+002, 2.506510e+003
2.261922e+002, 2.509293e+003
2.266743e+002, 2.511089e+003
2.271564e+002, 2.510937e+003
2.276385e+002, 2.510406e+003
2.281206e+002, 2.510898e+003
2.286027e+002, 2.512495e+003
2.290849e+002, 2.514608e+003
2.295670e+002, 2.516952e+003
2.300491e+002, 2.519506e+003
2.305312e+002, 2.522218e+003
2.310133e+002, 2.525093e+003
2.314954e+002, 2.528113e+003
2.319776e+002, 2.531082e+003
2.324597e+002, 2.533905e+003
2.329418e+002, 2.537356e+003
2.334239e+002, 2.542818e+003
2.339060e+002, 2.549096e+003
2.343881e+002, 2.554346e+003
2.348703e+002, 2.557932e+003
2.353524e+002, 2.560432e+003
2.358345e+002, 2.562473e+003
2.363166e+002, 2.563940e+003
2.367987e+002, 2.565457e+003
2.372808e+002, 2.567270e+003
2.377630e+002, 2.569340e+003
2.382451e+002, 2.571711e+003
2.387272e+002, 2.574459e+003
2.392093e+002, 2.577418e+003
2.396914e+002, 2.580271e+003
2.401735e+002, 2.582944e+003
2.406557e+002, 2.585804e+003
2.411378e+002, 2.589511e+003
2.416199e+002, 2.593261e+003
2.421020e+002, 2.596211e+003
2.425841e+002, 2.597988e+003
2.430662e+002, 2.599104e+003
2.435484e+002, 2.600449e+003
2.440305e+002, 2.602209e+003
2.445126e+002, 2.603699e+003
2.449947e+002, 2.603887e+003
2.454768e+002, 2.604169e+003
2.459589e+002, 2.606044e+003
2.464410e+002, 2.610094e+003
2.469232e+002, 2.614980e+003
2.474053e+002, 2.618327e+003
2.478874e+002, 2.619322e+003
2.483695e+002, 2.620661e+003
2.488516e+002, 2.622365e+003
2.493337e+002, 2.624773e+003
2.498159e+002, 2.628460e+003
2.502980e+002, 2.633560e+003
2.507801e+002, 2.639167e+003
2.512622e+002, 2.643802e+003
2.517443e+002, 2.647046e+003
2.522264e+002, 2.650143e+003
2.527086e+002, 2.653417e+003
2.531907e+002, 2.656481e+003
2.536728e+002, 2.659049e+003
2.541549e+002, 2.661051e+003
2.546370e+002, 2.662675e+003
2.551191e+002, 2.664063e+003
2.556013e+002, 2.664552e+003
2.560834e+002, 2.666351e+003
2.565655e+002, 2.670279e+003
2.570476e+002, 2.674705e+003
2.575297e+002, 2.679008e+003
2.580118e+002, 2.682862e+003
2.584940e+002, 2.685813e+003
2.589761e+002, 2.687040e+003
2.594582e+002, 2.685400e+003
2.599403e+002, 2.684950e+003
2.604224e+002, 2.685517e+003
2.609045e+002, 2.687115e+003
2.613867e+002, 2.689974e+003
2.618688e+002, 2.693998e+003
2.623509e+002, 2.698700e+003
2.628330e+002, 2.703678e+003
2.633151e+002, 2.709301e+003
2.637972e+002, 2.713745e+003
2.642794e+002, 2.715741e+003
2.647615e+002, 2.717844e+003
2.652436e+002, 2.721707e+003
2.657257e+002, 2.727183e+003
2.662078e+002, 2.732849e+003
2.666899e+002, 2.737185e+003
2.671721e+002, 2.739726e+003
2.676542e+002, 2.743987e+003
2.681363e+002, 2.751439e+003
2.686184e+002, 2.758901e+003
2.691005e+002, 2.764960e+003
2.695826e+002, 2.769599e+003
2.700648e+002, 2.773337e+003
2.705469e+002, 2.776489e+003
2.710290e+002, 2.778999e+003
2.715111e+002, 2.781911e+003
2.719932e+002, 2.785520e+003
2.724753e+002, 2.789137e+003
2.729575e+002, 2.791971e+003
2.734396e+002, 2.794485e+003
2.739217e+002, 2.797998e+003
2.744038e+002, 2.803529e+003
2.748859e+002, 2.810884e+003
2.753680e+002, 2.817543e+003
2.758501e+002, 2.823345e+003
2.763322e+002, 2.828849e+003
2.768144e+002, 2.834336e+003
2.772965e+002, 2.839698e+003
2.777786e+002, 2.844557e+003
2.782607e+002, 2.848627e+003
2.787428e+002, 2.852156e+003
2.792249e+002, 2.856288e+003
2.797071e+002, 2.861822e+003
2.801892e+002, 2.866918e+003
2.806713e+002, 2.870680e+003
2.811534e+002, 2.873755e+003
2.816355e+002, 2.877365e+003
2.821176e+002, 2.882086e+003
2.825998e+002, 2.887459e+003
2.830819e+002, 2.892145e+003
2.835640e+002, 2.895574e+003
2.840461e+002, 2.899539e+003
2.845282e+002, 2.904321e+003
2.850103e+002, 2.909887e+003
2.854925e+002, 2.916270e+003
2.859746e+002, 2.923526e+003
2.864567e+002, 2.931417e+003
2.869388e+002, 2.939781e+003
2.874209e+002, 2.948851e+003
2.879030e+002, 2.957480e+003
2.883852e+002, 2.964679e+003
2.888673e+002, 2.971621e+003
2.893494e+002, 2.979636e+003
2.898315e+002, 2.989028e+003
2.903136e+002, 2.999337e+003
2.907957e+002, 3.010219e+003
2.912779e+002, 3.021647e+003
2.917600e+002, 3.033584e+003
2.922421e+002, 3.046188e+003
2.927242e+002, 3.059196e+003
2.932063e+002, 3.072591e+003
2.936884e+002, 3.086397e+003
2.941706e+002, 3.099891e+003
2.946527e+002, 3.112539e+003
2.951348e+002, 3.124241e+003
2.956169e+002, 3.134902e+003
2.960990e+002, 3.144333e+003
2.965811e+002, 3.152856e+003
2.970633e+002, 3.160795e+003
2.975454e+002, 3.168108e+003
2.980275e+002, 3.174323e+003
2.985096e+002, 3.178368e+003
2.989917e+002, 3.180986e+003
2.994738e+002, 3.186418e+003
2.999560e+002, 3.196344e+003
3.004381e+002, 3.207426e+003
3.009202e+002, 3.218430e+003
3.014023e+002, 3.229174e+003
3.018844e+002, 3.239573e+003
3.023665e+002, 3.250721e+003
3.028487e+002, 3.260473e+003
3.033308e+002, 3.263302e+003
3.038129e+002, 3.258029e+003
3.042950e+002, 3.248820e+003
3.047771e+002, 3.236024e+003
3.052592e+002, 3.220592e+003
3.057414e+002, 3.204594e+003
3.062235e+002, 3.188312e+003
3.067056e+002, 3.172786e+003
3.071877e+002, 3.160080e+003
3.076698e+002, 3.149781e+003
3.081519e+002, 3.142281e+003
3.086341e+002, 3.138626e+003
3.091162e+002, 3.137689e+003
3.095983e+002, 3.137715e+003
3.100804e+002, 3.138299e+003
3.105625e+002, 3.139615e+003
3.110446e+002, 3.141973e+003
3.115268e+002, 3.145308e+003
3.120089e+002, 3.149482e+003
3.124910e+002, 3.154438e+003
3.129731e+002, 3.160229e+003
3.134552e+002, 3.167046e+003
3.139373e+002, 3.174908e+003
3.144195e+002, 3.183490e+003
3.149016e+002, 3.192740e+003
3.153837e+002, 3.202633e+003
3.158658e+002, 3.212339e+003
3.163479e+002, 3.221916e+003
3.168300e+002, 3.231183e+003
3.173121e+002, 3.240162e+003
3.177943e+002, 3.248833e+003
3.182764e+002, 3.256730e+003
3.187585e+002, 3.263719e+003
3.192406e+002, 3.269532e+003
3.197227e+002, 3.273844e+003
3.202048e+002, 3.276426e+003
3.206870e+002, 3.277857e+003
3.211691e+002, 3.278000e+003
3.216512e+002, 3.277155e+003
3.221333e+002, 3.276230e+003
3.226154e+002, 3.275418e+003
3.230975e+002, 3.275097e+003
3.235797e+002, 3.276238e+003
3.240618e+002, 3.279113e+003
3.245439e+002, 3.282527e+003
3.250260e+002, 3.285249e+003
3.255081e+002, 3.288333e+003
3.259902e+002, 3.293830e+003
3.264724e+002, 3.302457e+003
3.269545e+002, 3.313464e+003
3.274366e+002, 3.326295e+003
3.279187e+002, 3.341220e+003
3.284008e+002, 3.355845e+003
3.288829e+002, 3.369350e+003
3.293651e+002, 3.382441e+003
3.298472e+002, 3.395879e+003
3.303293e+002, 3.409784e+003
3.308114e+002, 3.424045e+003
3.312935e+002, 3.438974e+003
3.317756e+002, 3.454590e+003
3.322578e+002, 3.468555e+003
3.327399e+002, 3.480433e+003
3.332220e+002, 3.490801e+003
3.337041e+002, 3.500992e+003
3.341862e+002, 3.510543e+003
3.346683e+002, 3.516869e+003
3.351505e+002, 3.518198e+003
3.356326e+002, 3.514477e+003
3.361147e+002, 3.507264e+003
3.365968e+002, 3.495109e+003
3.370789e+002, 3.481427e+003
3.375610e+002, 3.466906e+003
3.380432e+002, 3.451905e+003
3.385253e+002, 3.437204e+003
3.390074e+002, 3.423056e+003
3.394895e+002, 3.409712e+003
3.399716e+002, 3.398161e+003
3.404537e+002, 3.389581e+003
3.409359e+002, 3.380432e+003
3.414180e+002, 3.369579e+003
3.419001e+002, 3.357954e+003
3.423822e+002, 3.346742e+003
3.428643e+002, 3.336324e+003
3.433464e+002, 3.326429e+003
3.438286e+002, 3.316772e+003
3.443107e+002, 3.307487e+003
3.447928e+002, 3.298027e+003
3.452749e+002, 3.287406e+003
3.457570e+002, 3.277362e+003
3.462391e+002, 3.269321e+003
3.467213e+002, 3.263375e+003
3.472034e+002, 3.258637e+003
3.476855e+002, 3.254587e+003
3.481676e+002, 3.251275e+003
3.486497e+002, 3.247264e+003
3.491318e+002, 3.240778e+003
3.496140e+002, 3.235497e+003
3.500961e+002, 3.233406e+003
3.505782e+002, 3.233824e+003
3.510603e+002, 3.235209e+003
3.515424e+002, 3.236809e+003
3.520245e+002, 3.238400e+003
3.525067e+002, 3.238971e+003
3.529888e+002, 3.236249e+003
3.534709e+002, 3.235317e+003
3.539530e+002, 3.237984e+003
3.544351e+002, 3.242277e+003
3.549172e+002, 3.246047e+003
3.553994e+002, 3.248519e+003
3.558815e+002, 3.250056e+003
3.563636e+002, 3.251164e+003
3.568457e+002, 3.250735e+003
3.573278e+002, 3.252279e+003
3.578099e+002, 3.257020e+003
3.582920e+002, 3.262597e+003
3.587741e+002, 3.267562e+003
3.592563e+002, 3.271719e+003
3.597384e+002, 3.275457e+003
3.602205e+002, 3.279138e+003
3.607026e+002, 3.282744e+003
3.611847e+002, 3.286488e+003
3.616668e+002, 3.291092e+003
3.621490e+002, 3.295085e+003
3.626311e+002, 3.297511e+003
3.631132e+002, 3.299007e+003
3.635953e+002, 3.300731e+003
3.640774e+002, 3.303397e+003
3.645595e+002, 3.306813e+003
3.650417e+002, 3.310190e+003
3.655238e+002, 3.313673e+003
3.660059e+002, 3.316874e+003
3.664880e+002, 3.318710e+003
3.669701e+002, 3.320752e+003
3.674522e+002, 3.324746e+003
3.679344e+002, 3.331164e+003
3.684165e+002, 3.338824e+003
3.688986e+002, 3.346214e+003
3.693807e+002, 3.353866e+003
3.698628e+002, 3.359669e+003
3.703449e+002, 3.363071e+003
3.708271e+002, 3.365197e+003
3.713092e+002, 3.365736e+003
3.717913e+002, 3.365295e+003
3.722734e+002, 3.365632e+003
3.727555e+002, 3.368421e+003
3.732376e+002, 3.373596e+003
3.737198e+002, 3.378946e+003
3.742019e+002, 3.384321e+003
3.746840e+002, 3.390153e+003
3.751661e+002, 3.397030e+003
3.756482e+002, 3.404345e+003
3.761303e+002, 3.411109e+003
3.766125e+002, 3.416837e+003
3.770946e+002, 3.421848e+003
3.775767e+002, 3.426584e+003
3.780588e+002, 3.430468e+003
3.785409e+002, 3.435721e+003
3.790230e+002, 3.444085e+003
3.795052e+002, 3.453333e+003
3.799873e+002, 3.461855e+003
3.804694e+002, 3.469322e+003
3.809515e+002, 3.476305e+003
3.814336e+002, 3.482679e+003
3.819157e+002, 3.488496e+003
3.823979e+002, 3.496469e+003
3.828800e+002, 3.508155e+003
3.833621e+002, 3.520725e+003
3.838442e+002, 3.532374e+003
3.843263e+002, 3.543195e+003
3.848084e+002, 3.553939e+003
3.852906e+002, 3.564813e+003
3.857727e+002, 3.575804e+003
3.862548e+002, 3.586685e+003
3.867369e+002, 3.597042e+003
3.872190e+002, 3.608677e+003
3.877011e+002, 3.624380e+003
3.881833e+002, 3.641614e+003
3.886654e+002, 3.656641e+003
3.891475e+002, 3.668028e+003
3.896296e+002, 3.678443e+003
3.901117e+002, 3.690019e+003
3.905938e+002, 3.702715e+003
3.910760e+002, 3.715550e+003
3.915581e+002, 3.727512e+003
3.920402e+002, 3.740490e+003
3.925223e+002, 3.757400e+003
3.930044e+002, 3.778431e+003
3.934865e+002, 3.799769e+003
3.939687e+002, 3.819395e+003
3.944508e+002, 3.838558e+003
3.949329e+002, 3.859047e+003
3.954150e+002, 3.881347e+003
3.958971e+002, 3.904488e+003
3.963792e+002, 3.928479e+003
3.968614e+002, 3.952974e+003
3.973435e+002, 3.975182e+003
3.978256e+002, 3.993517e+003
3.983077e+002, 4.011005e+003
3.987898e+002, 4.029508e+003
3.992719e+002, 4.048851e+003
3.997540e+002, 4.068036e+003
4.002361e+002, 4.086281e+003
4.007183e+002, 4.104444e+003
4.012004e+002, 4.125038e+003
4.016825e+002, 4.149513e+003
4.021646e+002, 4.173451e+003
4.026467e+002, 4.195273e+003
4.031288e+002, 4.216569e+003
4.036110e+002, 4.238739e+003
4.040931e+002, 4.262108e+003
4.045752e+002, 4.286989e+003
4.050573e+002, 4.313770e+003
4.055394e+002, 4.342444e+003
4.060215e+002, 4.372768e+003
4.065037e+002, 4.403772e+003
4.069858e+002, 4.436975e+003
4.074679e+002, 4.473545e+003
4.079500e+002, 4.513063e+003
4.084321e+002, 4.555297e+003
4.089142e+002, 4.601081e+003
4.093964e+002, 4.648308e+003
4.098785e+002, 4.688254e+003
4.103606e+002, 4.722431e+003
4.108427e+002, 4.745873e+003
4.113248e+002, 4.759423e+003
4.118069e+002, 4.761719e+003
4.122891e+002, 4.751151e+003
4.127712e+002, 4.727480e+003
4.132533e+002, 4.692305e+003
4.137354e+002, 4.647017e+003
4.142175e+002, 4.590094e+003
4.146996e+002, 4.528103e+003
4.151818e+002, 4.454000e+003
4.156639e+002, 4.381595e+003
4.161460e+002, 4.314646e+003
4.166281e+002, 4.253569e+003
4.171102e+002, 4.199161e+003
4.175923e+002, 4.151713e+003
4.180745e+002, 4.110896e+003
4.185566e+002, 4.075083e+003
4.190387e+002, 4.045235e+003
4.195208e+002, 4.018901e+003
4.200029e+002, 3.996048e+003
4.204850e+002, 3.975869e+003
4.209672e+002, 3.957835e+003
4.214493e+002, 3.941824e+003
4.219314e+002, 3.928245e+003
4.224135e+002, 3.918459e+003
4.228956e+002, 3.912282e+003
4.233777e+002, 3.905196e+003
4.238599e+002, 3.895334e+003
4.243420e+002, 3.886190e+003
4.248241e+002, 3.880660e+003
4.253062e+002, 3.878027e+003
4.257883e+002, 3.875678e+003
4.262704e+002, 3.871795e+003
4.267526e+002, 3.867914e+003
4.272347e+002, 3.866337e+003
4.277168e+002, 3.867127e+003
4.281989e+002, 3.869475e+003
4.286810e+002, 3.873881e+003
4.291631e+002, 3.879158e+003
4.296453e+002, 3.882602e+003
4.301274e+002, 3.883443e+003
4.306095e+002, 3.884174e+003
4.310916e+002, 3.886045e+003
4.315737e+002, 3.888643e+003
4.320558e+002, 3.891300e+003
4.325380e+002, 3.893875e+003
4.330201e+002, 3.896056e+003
4.335022e+002, 3.897287e+003
4.339843e+002, 3.897345e+003
4.344664e+002, 3.898050e+003
4.349485e+002, 3.899159e+003
4.354307e+002, 3.901145e+003
4.359128e+002, 3.905156e+003
4.363949e+002, 3.910469e+003
4.368770e+002, 3.914494e+003
4.373591e+002, 3.915433e+003
4.378412e+002, 3.914538e+003
4.383234e+002, 3.916594e+003
4.388055e+002, 3.925031e+003
4.392876e+002, 3.932112e+003
4.397697e+002, 3.936356e+003
4.402518e+002, 3.939591e+003
4.407339e+002, 3.943723e+003
4.412160e+002, 3.949012e+003
4.416982e+002, 3.954185e+003
4.421803e+002, 3.957764e+003
4.426624e+002, 3.959644e+003
4.431445e+002, 3.960847e+003
4.436266e+002, 3.959530e+003
4.441087e+002, 3.959474e+003
4.445909e+002, 3.962749e+003
4.450730e+002, 3.967904e+003
4.455551e+002, 3.972515e+003
4.460372e+002, 3.975269e+003
4.465193e+002, 3.977033e+003
4.470014e+002, 3.979868e+003
4.474836e+002, 3.984370e+003
4.479657e+002, 3.988153e+003
4.484478e+002, 3.989722e+003
4.489299e+002, 3.991228e+003
4.494120e+002, 3.994120e+003
4.498941e+002, 3.998418e+003
4.503763e+002, 4.003071e+003
4.508584e+002, 4.007433e+003
4.513405e+002, 4.011509e+003
4.518226e+002, 4.015200e+003
4.523047e+002, 4.018434e+003
4.527868e+002, 4.021386e+003
4.532690e+002, 4.024119e+003
4.537511e+002, 4.026613e+003
4.542332e+002, 4.028734e+003
4.547153e+002, 4.030160e+003
4.551974e+002, 4.031722e+003
4.556795e+002, 4.034182e+003
4.561617e+002, 4.037384e+003
4.566438e+002, 4.040559e+003
4.571259e+002, 4.043227e+003
4.576080e+002, 4.046387e+003
4.580901e+002, 4.051813e+003
4.585722e+002, 4.059470e+003
4.590544e+002, 4.066749e+003
4.595365e+002, 4.073467e+003
4.600186e+002, 4.079435e+003
4.605007e+002, 4.083879e+003
4.609828e+002, 4.087181e+003
4.614649e+002, 4.091041e+003
4.619471e+002, 4.096357e+003
4.624292e+002, 4.103234e+003
4.629113e+002, 4.112310e+003
4.633934e+002, 4.126669e+003
4.638755e+002, 4.139050e+003
4.643576e+002, 4.147452e+003
4.648398e+002, 4.154213e+003
4.653219e+002, 4.161891e+003
4.658040e+002, 4.170893e+003
4.662861e+002, 4.179593e+003
4.667682e+002, 4.186291e+003
4.672503e+002, 4.190971e+003
4.677325e+002, 4.193993e+003
4.682146e+002, 4.194044e+003
4.686967e+002, 4.193748e+003
4.691788e+002, 4.193530e+003
4.696609e+002, 4.193454e+003
4.701430e+002, 4.193252e+003
4.706252e+002, 4.192752e+003
4.711073e+002, 4.192917e+003
4.715894e+002, 4.195602e+003
4.720715e+002, 4.201228e+003
4.725536e+002, 4.207616e+003
4.730357e+002, 4.216225e+003
4.735179e+002, 4.224001e+003
4.740000e+002, 4.227971e+003
4.744821e+002, 4.229161e+003
4.749642e+002, 4.232010e+003
4.754463e+002, 4.240261e+003
4.759284e+002, 4.251536e+003
4.764106e+002, 4.260409e+003
4.768927e+002, 4.266370e+003
4.773748e+002, 4.272897e+003
4.778569e+002, 4.281266e+003
4.783390e+002, 4.291458e+003
4.788211e+002, 4.303418e+003
4.793033e+002, 4.317568e+003
4.797854e+002, 4.331807e+003
4.802675e+002, 4.345138e+003
4.807496e+002, 4.357807e+003
4.812317e+002, 4.370224e+003
4.817138e+002, 4.382435e+003
4.821959e+002, 4.394673e+003
4.826780e+002, 4.407483e+003
4.831602e+002, 4.420735e+003
4.836423e+002, 4.432257e+003
4.841244e+002, 4.443234e+003
4.846065e+002, 4.451321e+003
4.850886e+002, 4.455818e+003
4.855707e+002, 4.456744e+003
4.860529e+002, 4.453828e+003
4.865350e+002, 4.447001e+003
4.870171e+002, 4.437390e+003
4.874992e+002, 4.426679e+003
4.879813e+002, 4.413844e+003
4.884634e+002, 4.402568e+003
4.889456e+002, 4.393189e+003
4.894277e+002, 4.384803e+003
4.899098e+002, 4.376678e+003
4.903919e+002, 4.369242e+003
4.908740e+002, 4.363526e+003
4.913561e+002, 4.360209e+003
4.918383e+002, 4.358946e+003
4.923204e+002, 4.358921e+003
4.928025e+002, 4.360405e+003
4.932846e+002, 4.362408e+003
4.937667e+002, 4.364683e+003
4.942488e+002, 4.367454e+003
4.947310e+002, 4.371257e+003
4.952131e+002, 4.375944e+003
4.956952e+002, 4.380337e+003
4.961773e+002, 4.383169e+003
4.966594e+002, 4.385089e+003
4.971415e+002, 4.388111e+003
4.976237e+002, 4.392597e+003
4.981058e+002, 4.396594e+003
4.985879e+002, 4.398733e+003
4.990700e+002, 4.399808e+003
4.995521e+002, 4.401256e+003
5.000342e+002, 4.402940e+003
5.005164e+002, 4.405514e+003
5.009985e+002, 4.409901e+003
5.014806e+002, 4.415251e+003
5.019627e+002, 4.419780e+003
5.024448e+002, 4.423094e+003
5.029269e+002, 4.427111e+003
5.034091e+002, 4.434151e+003
5.038912e+002, 4.444414e+003
5.043733e+002, 4.451419e+003
5.048554e+002, 4.453517e+003
5.053375e+002, 4.454623e+003
5.058196e+002, 4.455235e+003
5.063018e+002, 4.456023e+003
5.067839e+002, 4.458253e+003
5.072660e+002, 4.462298e+003
5.077481e+002, 4.466616e+003
5.082302e+002, 4.468631e+003
5.087123e+002, 4.467437e+003
5.091945e+002, 4.467218e+003
5.096766e+002, 4.467444e+003
5.101587e+002, 4.469181e+003
5.106408e+002, 4.475023e+003
5.111229e+002, 4.482393e+003
5.116050e+002, 4.486311e+003
5.120872e+002, 4.483890e+003
5.125693e+002, 4.478197e+003
5.130514e+002, 4.474171e+003
5.135335e+002, 4.471713e+003
5.140156e+002, 4.471732e+003
5.144977e+002, 4.476070e+003
5.149799e+002, 4.481388e+003
5.154620e+002, 4.485432e+003
5.159441e+002, 4.488112e+003
5.164262e+002, 4.489144e+003
5.169083e+002, 4.486063e+003
5.173904e+002, 4.482597e+003
5.178726e+002, 4.483926e+003
5.183547e+002, 4.489844e+003
5.188368e+002, 4.497002e+003
5.193189e+002, 4.504612e+003
5.198010e+002, 4.511583e+003
5.202831e+002, 4.514779e+003
5.207653e+002, 4.512914e+003
5.212474e+002, 4.511920e+003
5.217295e+002, 4.513421e+003
5.222116e+002, 4.515732e+003
5.226937e+002, 4.517217e+003
5.231758e+002, 4.517951e+003
5.236580e+002, 4.519210e+003
5.241401e+002, 4.521964e+003
5.246222e+002, 4.525915e+003
5.251043e+002, 4.529623e+003
5.255864e+002, 4.533529e+003
5.260685e+002, 4.536458e+003
5.265507e+002, 4.537227e+003
5.270328e+002, 4.537811e+003
5.275149e+002, 4.540082e+003
5.279970e+002, 4.544057e+003
5.284791e+002, 4.548124e+003
5.289612e+002, 4.550818e+003
5.294434e+002, 4.552367e+003
5.299255e+002, 4.554258e+003
5.304076e+002, 4.556884e+003
5.308897e+002, 4.558964e+003
5.313718e+002, 4.558260e+003
5.318539e+002, 4.557570e+003
5.323361e+002, 4.560527e+003
5.328182e+002, 4.568236e+003
5.333003e+002, 4.575636e+003
5.337824e+002, 4.579135e+003
5.342645e+002, 4.580053e+003
5.347466e+002, 4.580719e+003
5.352288e+002, 4.581308e+003
5.357109e+002, 4.583354e+003
5.361930e+002, 4.588460e+003
5.366751e+002, 4.596094e+003
5.371572e+002, 4.602584e+003
5.376393e+002, 4.606345e+003
5.381215e+002, 4.611008e+003
5.386036e+002, 4.618727e+003
5.390857e+002, 4.627411e+003
5.395678e+002, 4.634430e+003
5.400499e+002, 4.639258e+003
5.405320e+002, 4.643137e+003
5.410142e+002, 4.647292e+003
5.414963e+002, 4.651724e+003
5.419784e+002, 4.655905e+003
5.424604e+002, 4.658806e+003
5.429426e+002, 4.662668e+003
5.434247e+002, 4.668929e+003
5.439068e+002, 4.675870e+003
5.443889e+002, 4.681415e+003
5.448710e+002, 4.685044e+003
5.453531e+002, 4.688067e+003
5.458353e+002, 4.691261e+003
5.463174e+002, 4.694781e+003
5.467995e+002, 4.700800e+003
5.472816e+002, 4.710768e+003
5.477637e+002, 4.720355e+003
5.482458e+002, 4.726006e+003
5.487280e+002, 4.729652e+003
5.492101e+002, 4.734493e+003
5.496922e+002, 4.741635e+003
5.501743e+002, 4.748758e+003
5.506564e+002, 4.754446e+003
5.511385e+002, 4.759102e+003
5.516207e+002, 4.763459e+003
5.521028e+002, 4.767672e+003
5.525849e+002, 4.772045e+003
5.530670e+002, 4.777241e+003
5.535491e+002, 4.783288e+003
5.540313e+002, 4.786425e+003
5.545134e+002, 4.782694e+003
5.549955e+002, 4.781282e+003
5.554776e+002, 4.787122e+003
5.559597e+002, 4.795599e+003
5.564418e+002, 4.800436e+003
5.569240e+002, 4.800306e+003
5.574061e+002, 4.799261e+003
5.578882e+002, 4.802375e+003
5.583703e+002, 4.809843e+003
5.588524e+002, 4.814886e+003
5.593345e+002, 4.815674e+003
5.598167e+002, 4.816447e+003
5.602988e+002, 4.818045e+003
5.607809e+002, 4.820623e+003
5.612630e+002, 4.824602e+003
5.617451e+002, 4.830150e+003
5.622272e+002, 4.836073e+003
5.627094e+002, 4.841200e+003
5.631915e+002, 4.845836e+003
5.636736e+002, 4.851265e+003
5.641557e+002, 4.857884e+003
5.646378e+002, 4.864037e+003
5.651199e+002, 4.867974e+003
5.656021e+002, 4.870504e+003
5.660842e+002, 4.875175e+003
5.665663e+002, 4.884302e+003
5.670484e+002, 4.892326e+003
5.675305e+002, 4.896719e+003
5.680126e+002, 4.899318e+003
5.684948e+002, 4.902474e+003
5.689769e+002, 4.906563e+003
5.694590e+002, 4.910524e+003
5.699411e+002, 4.913239e+003
5.704232e+002, 4.914828e+003
5.709053e+002, 4.917128e+003
5.713875e+002, 4.919428e+003
5.718696e+002, 4.923574e+003
5.723517e+002, 4.931353e+003
5.728338e+002, 4.940087e+003
5.733159e+002, 4.946913e+003
5.737980e+002, 4.951625e+003
5.742802e+002, 4.956703e+003
5.747623e+002, 4.964725e+003
5.752444e+002, 4.974966e+003
5.757265e+002, 4.984729e+003
5.762086e+002, 4.994250e+003
5.766907e+002, 5.002126e+003
5.771729e+002, 5.006222e+003
5.776550e+002, 5.009018e+003
5.781371e+002, 5.014988e+003
5.786192e+002, 5.025271e+003
5.791013e+002, 5.033897e+003
5.795834e+002, 5.037841e+003
5.800656e+002, 5.039403e+003
5.805477e+002, 5.040739e+003
5.810298e+002, 5.042198e+003
5.815119e+002, 5.044134e+003
5.819940e+002, 5.046851e+003
5.824761e+002, 5.050025e+003
5.829583e+002, 5.052535e+003
5.834404e+002, 5.052464e+003
5.839225e+002, 5.054691e+003
5.844046e+002, 5.061241e+003
5.848867e+002, 5.068292e+003
5.853688e+002, 5.073609e+003
5.858510e+002, 5.077122e+003
5.863331e+002, 5.079483e+003
5.868152e+002, 5.080791e+003
5.872973e+002, 5.081761e+003
5.877794e+002, 5.084166e+003
5.882615e+002, 5.088198e+003
5.887437e+002, 5.092261e+003
5.892258e+002, 5.095859e+003
5.897079e+002, 5.099521e+003
5.901900e+002, 5.104384e+003
5.906721e+002, 5.110069e+003
5.911542e+002, 5.113864e+003
5.916364e+002, 5.112725e+003
5.921185e+002, 5.111291e+003
5.926006e+002, 5.113873e+003
5.930827e+002, 5.119477e+003
5.935648e+002, 5.125320e+003
5.940469e+002, 5.130492e+003
5.945291e+002, 5.134607e+003
5.950112e+002, 5.136767e+003
5.954933e+002, 5.135949e+003
5.959754e+002, 5.138172e+003
5.964575e+002, 5.146229e+003
5.969396e+002, 5.153828e+003
5.974218e+002, 5.158163e+003
5.979039e+002, 5.160915e+003
5.983860e+002, 5.164669e+003
5.988681e+002, 5.170302e+003
5.993502e+002, 5.176595e+003
5.998323e+002, 5.181958e+003
6.003145e+002, 5.186446e+003
6.007966e+002, 5.191607e+003
6.012787e+002, 5.197446e+003
6.017608e+002, 5.203926e+003
6.022429e+002, 5.211202e+003
6.027250e+002, 5.218998e+003
6.032072e+002, 5.226854e+003
6.036893e+002, 5.234764e+003
6.041714e+002, 5.242581e+003
6.046535e+002, 5.250865e+003
6.051356e+002, 5.258755e+003
6.056177e+002, 5.264215e+003
6.060999e+002, 5.267346e+003
6.065820e+002, 5.271229e+003
6.070641e+002, 5.278061e+003
6.075462e+002, 5.287389e+003
6.080283e+002, 5.297286e+003
6.085104e+002, 5.309626e+003
6.089926e+002, 5.319763e+003
6.094747e+002, 5.326112e+003
6.099568e+002, 5.331478e+003
6.104389e+002, 5.337174e+003
6.109210e+002, 5.343679e+003
6.114031e+002, 5.351587e+003
6.118853e+002, 5.361593e+003
6.123674e+002, 5.372739e+003
6.128495e+002, 5.382758e+003
6.133316e+002, 5.391505e+003
6.138137e+002, 5.401566e+003
6.142958e+002, 5.413358e+003
6.147780e+002, 5.427063e+003
6.152601e+002, 5.443524e+003
6.157422e+002, 5.462356e+003
6.162243e+002, 5.481328e+003
6.167064e+002, 5.499125e+003
6.171885e+002, 5.517733e+003
6.176707e+002, 5.537582e+003
6.181528e+002, 5.559290e+003
6.186349e+002, 5.584968e+003
6.191170e+002, 5.615081e+003
6.195991e+002, 5.646021e+003
6.200812e+002, 5.673002e+003
6.205634e+002, 5.695553e+003
6.210455e+002, 5.722794e+003
6.215276e+002, 5.759188e+003
6.220097e+002, 5.795009e+003
6.224918e+002, 5.828635e+003
6.229739e+002, 5.860382e+003
6.234561e+002, 5.888792e+003
6.239382e+002, 5.914106e+003
6.244203e+002, 5.942159e+003
6.249023e+002, 5.978983e+003
6.253845e+002, 6.021834e+003
6.258666e+002, 6.062405e+003
6.263487e+002, 6.100158e+003
6.268308e+002, 6.141159e+003
6.273129e+002, 6.188477e+003
6.277950e+002, 6.240593e+003
6.282772e+002, 6.295498e+003
6.287593e+002, 6.352630e+003
6.292414e+002, 6.413109e+003
6.297235e+002, 6.474937e+003
6.302056e+002, 6.542265e+003
6.306877e+002, 6.620625e+003
6.311699e+002, 6.706922e+003
6.316520e+002, 6.795304e+003
6.321341e+002, 6.882714e+003
6.326162e+002, 6.967954e+003
6.330983e+002, 7.051084e+003
6.335804e+002, 7.135813e+003
6.340626e+002, 7.201704e+003
6.345447e+002, 7.252310e+003
6.350268e+002, 7.276847e+003
6.355089e+002, 7.272865e+003
6.359910e+002, 7.242235e+003
6.364731e+002, 7.186081e+003
6.369553e+002, 7.103084e+003
6.374374e+002, 7.002713e+003
6.379195e+002, 6.884617e+003
6.384016e+002, 6.756736e+003
6.388837e+002, 6.628804e+003
6.393658e+002, 6.503092e+003
6.398480e+002, 6.387918e+003
6.403301e+002, 6.288700e+003
6.408122e+002, 6.204094e+003
6.412943e+002, 6.128943e+003
6.417764e+002, 6.065359e+003
6.422585e+002, 6.009441e+003
6.427407e+002, 5.960542e+003
6.432228e+002, 5.919877e+003
6.437049e+002, 5.889754e+003
6.441870e+002, 5.868344e+003
6.446691e+002, 5.851720e+003
6.451512e+002, 5.838339e+003
6.456334e+002, 5.826859e+003
6.461155e+002, 5.814703e+003
6.465976e+002, 5.801917e+003
6.470797e+002, 5.792049e+003
6.475618e+002, 5.785859e+003
6.480439e+002, 5.782351e+003
6.485261e+002, 5.781667e+003
6.490082e+002, 5.783179e+003
6.494903e+002, 5.784851e+003
6.499724e+002, 5.785665e+003
6.504545e+002, 5.787994e+003
6.509366e+002, 5.793791e+003
6.514188e+002, 5.801029e+003
6.519009e+002, 5.807334e+003
6.523830e+002, 5.812425e+003
6.528651e+002, 5.817109e+003
6.533472e+002, 5.821873e+003
6.538293e+002, 5.826863e+003
6.543115e+002, 5.833188e+003
6.547936e+002, 5.842717e+003
6.552757e+002, 5.848891e+003
6.557578e+002, 5.848943e+003
6.562399e+002, 5.846835e+003
6.567220e+002, 5.844056e+003
6.572042e+002, 5.840804e+003
6.576863e+002, 5.837443e+003
6.581684e+002, 5.834831e+003
6.586505e+002, 5.830982e+003
6.591326e+002, 5.822758e+003
6.596147e+002, 5.811855e+003
6.600969e+002, 5.802598e+003
6.605790e+002, 5.795925e+003
6.610611e+002, 5.791724e+003
6.615432e+002, 5.790153e+003
6.620253e+002, 5.791024e+003
6.625074e+002, 5.792139e+003
6.629896e+002, 5.793292e+003
6.634717e+002, 5.795047e+003
6.639538e+002, 5.797026e+003
6.644359e+002, 5.800005e+003
6.649180e+002, 5.805135e+003
6.654001e+002, 5.811968e+003
6.658823e+002, 5.818703e+003
6.663644e+002, 5.824221e+003
6.668465e+002, 5.829118e+003
6.673286e+002, 5.834845e+003
6.678107e+002, 5.841344e+003
6.682928e+002, 5.846307e+003
6.687750e+002, 5.848506e+003
6.692571e+002, 5.850709e+003
6.697392e+002, 5.856070e+003
6.702213e+002, 5.864099e+003
6.707034e+002, 5.869737e+003
6.711855e+002, 5.871039e+003
6.716677e+002, 5.872167e+003
6.721498e+002, 5.873935e+003
6.726319e+002, 5.876399e+003
6.731140e+002, 5.880337e+003
6.735961e+002, 5.885282e+003
6.740782e+002, 5.889143e+003
6.745604e+002, 5.890326e+003
6.750425e+002, 5.889278e+003
6.755246e+002, 5.886775e+003
6.760067e+002, 5.881797e+003
6.764888e+002, 5.880138e+003
6.769709e+002, 5.884836e+003
6.774531e+002, 5.891160e+003
6.779352e+002, 5.895854e+003
6.784173e+002, 5.899100e+003
6.788994e+002, 5.901348e+003
6.793815e+002, 5.902215e+003
6.798636e+002, 5.902807e+003
6.803458e+002, 5.903604e+003
6.808279e+002, 5.904631e+003
6.813100e+002, 5.905193e+003
6.817921e+002, 5.905542e+003
6.822742e+002, 5.908307e+003
6.827563e+002, 5.916025e+003
6.832385e+002, 5.927474e+003
6.837206e+002, 5.936806e+003
6.842027e+002, 5.943759e+003
6.846848e+002, 5.949033e+003
6.851669e+002, 5.950359e+003
6.856490e+002, 5.951995e+003
6.861312e+002, 5.956932e+003
6.866133e+002, 5.964240e+003
6.870954e+002, 5.970964e+003
6.875775e+002, 5.976026e+003
6.880596e+002, 5.980080e+003
6.885417e+002, 5.983203e+003
6.890239e+002, 5.985842e+003
6.895060e+002, 5.989061e+003
6.899881e+002, 5.993075e+003
6.904702e+002, 5.997420e+003
6.909523e+002, 6.001901e+003
6.914344e+002, 6.006349e+003
6.919166e+002, 6.009931e+003
6.923987e+002, 6.012581e+003
6.928808e+002, 6.014434e+003
6.933629e+002, 6.014580e+003
6.938450e+002, 6.014818e+003
6.943271e+002, 6.015733e+003
6.948093e+002, 6.017657e+003
6.952914e+002, 6.021607e+003
6.957735e+002, 6.028901e+003
6.962556e+002, 6.035523e+003
6.967377e+002, 6.035203e+003
6.972198e+002, 6.030324e+003
6.977020e+002, 6.029965e+003
6.981841e+002, 6.035713e+003
6.986662e+002, 6.042437e+003
6.991483e+002, 6.046846e+003
6.996304e+002, 6.049284e+003
7.001125e+002, 6.050943e+003
7.005947e+002, 6.050727e+003
7.010768e+002, 6.051495e+003
7.015589e+002, 6.054097e+003
7.020410e+002, 6.057029e+003
7.025231e+002, 6.058929e+003
7.030052e+002, 6.060556e+003
7.034874e+002, 6.063807e+003
7.039695e+002, 6.069599e+003
7.044516e+002, 6.076263e+003
7.049337e+002, 6.081564e+003
7.054158e+002, 6.085849e+003
7.058979e+002, 6.091058e+003
7.063801e+002, 6.097544e+003
7.068622e+002, 6.103419e+003
7.073442e+002, 6.107111e+003
7.078264e+002, 6.109778e+003
7.083085e+002, 6.114781e+003
7.087906e+002, 6.124115e+003
7.092727e+002, 6.130392e+003
7.097548e+002, 6.129555e+003
7.102369e+002, 6.128950e+003
7.107191e+002, 6.133694e+003
7.112012e+002, 6.141530e+003
7.116833e+002, 6.147708e+003
7.121654e+002, 6.150580e+003
7.126475e+002, 6.153023e+003
7.131296e+002, 6.158888e+003
7.136118e+002, 6.167433e+003
7.140939e+002, 6.174864e+003
7.145760e+002, 6.181185e+003
7.150581e+002, 6.185506e+003
7.155402e+002, 6.186176e+003
7.160223e+002, 6.185906e+003
7.165045e+002, 6.189734e+003
7.169866e+002, 6.198444e+003
7.174687e+002, 6.206082e+003
7.179508e+002, 6.212688e+003
7.184329e+002, 6.217529e+003
7.189150e+002, 6.219054e+003
7.193972e+002, 6.219041e+003
7.198793e+002, 6.219542e+003
7.203614e+002, 6.221274e+003
7.208435e+002, 6.224629e+003
7.213256e+002, 6.230518e+003
7.218077e+002, 6.238206e+003
7.222899e+002, 6.244817e+003
7.227720e+002, 6.250290e+003
7.232541e+002, 6.255396e+003
7.237362e+002, 6.260573e+003
7.242183e+002, 6.265139e+003
7.247004e+002, 6.267741e+003
7.251826e+002, 6.268474e+003
7.256647e+002, 6.270636e+003
7.261468e+002, 6.276252e+003
7.266289e+002, 6.281193e+003
7.271110e+002, 6.282222e+003
7.275931e+002, 6.282875e+003
7.280753e+002, 6.287761e+003
7.285574e+002, 6.296860e+003
7.290395e+002, 6.306471e+003
7.295216e+002, 6.314309e+003
7.300037e+002, 6.320126e+003
7.304858e+002, 6.321887e+003
7.309680e+002, 6.319302e+003
7.314501e+002, 6.321700e+003
7.319322e+002, 6.332853e+003
7.324143e+002, 6.344642e+003
7.328964e+002, 6.350037e+003
7.333785e+002, 6.350256e+003
7.338607e+002, 6.352341e+003
7.343428e+002, 6.356087e+003
7.348249e+002, 6.361889e+003
7.353070e+002, 6.373717e+003
7.357891e+002, 6.384498e+003
7.362712e+002, 6.386132e+003
7.367534e+002, 6.381590e+003
7.372355e+002, 6.380524e+003
7.377176e+002, 6.387939e+003
7.381997e+002, 6.398703e+003
7.386818e+002, 6.405512e+003
7.391639e+002, 6.408694e+003
7.396461e+002, 6.411232e+003
7.401282e+002, 6.413103e+003
7.406103e+002, 6.415544e+003
7.410924e+002, 6.419570e+003
7.415745e+002, 6.424385e+003
7.420566e+002, 6.427860e+003
7.425388e+002, 6.428872e+003
7.430209e+002, 6.432547e+003
7.435030e+002, 6.442802e+003
7.439851e+002, 6.452199e+003
7.444672e+002, 6.455639e+003
7.449493e+002, 6.456092e+003
7.454315e+002, 6.458116e+003
7.459136e+002, 6.463063e+003
7.463957e+002, 6.469789e+003
7.468778e+002, 6.478195e+003
7.473599e+002, 6.487315e+003
7.478420e+002, 6.493907e+003
7.483242e+002, 6.497924e+003
7.488063e+002, 6.501086e+003
7.492884e+002, 6.503427e+003
7.497705e+002, 6.506439e+003
7.502526e+002, 6.512436e+003
7.507347e+002, 6.521651e+003
7.512169e+002, 6.528484e+003
7.516990e+002, 6.532869e+003
7.521811e+002, 6.535160e+003
7.526632e+002, 6.532801e+003
7.531453e+002, 6.530311e+003
7.536274e+002, 6.531923e+003
7.541096e+002, 6.537489e+003
7.545917e+002, 6.544414e+003
7.550738e+002, 6.551965e+003
7.555559e+002, 6.558735e+003
7.560380e+002, 6.561778e+003
7.565201e+002, 6.562149e+003
7.570023e+002, 6.564729e+003
7.574844e+002, 6.570456e+003
7.579665e+002, 6.575958e+003
7.584486e+002, 6.578270e+003
7.589307e+002, 6.579130e+003
7.594128e+002, 6.584548e+003
7.598950e+002, 6.598912e+003
7.603771e+002, 6.609870e+003
7.608592e+002, 6.616217e+003
7.613413e+002, 6.620595e+003
7.618234e+002, 6.622842e+003
7.623055e+002, 6.624419e+003
7.627877e+002, 6.627642e+003
7.632698e+002, 6.633198e+003
7.637519e+002, 6.638889e+003
7.642340e+002, 6.642670e+003
7.647161e+002, 6.645773e+003
7.651982e+002, 6.650341e+003
7.656804e+002, 6.656199e+003
7.661625e+002, 6.661989e+003
7.666446e+002, 6.667271e+003
7.671267e+002, 6.671437e+003
7.676088e+002, 6.673250e+003
7.680909e+002, 6.672526e+003
7.685731e+002, 6.674631e+003
7.690552e+002, 6.681091e+003
7.695373e+002, 6.687916e+003
7.700194e+002, 6.694468e+003
7.705015e+002, 6.700837e+003
7.709836e+002, 6.707382e+003
7.714658e+002, 6.713836e+003
7.719479e+002, 6.718987e+003
7.724300e+002, 6.721910e+003
7.729121e+002, 6.724076e+003
7.733942e+002, 6.725231e+003
7.738763e+002, 6.726864e+003
7.743585e+002, 6.732806e+003
7.748406e+002, 6.742449e+003
7.753227e+002, 6.749390e+003
7.758048e+002, 6.749071e+003
7.762869e+002, 6.745235e+003
7.767690e+002, 6.746810e+003
7.772512e+002, 6.754551e+003
7.777333e+002, 6.763077e+003
7.782154e+002, 6.772709e+003
7.786975e+002, 6.782011e+003
7.791796e+002, 6.790942e+003
7.796617e+002, 6.798675e+003
7.801439e+002, 6.802773e+003
7.806260e+002, 6.801670e+003
7.811081e+002, 6.804468e+003
7.815902e+002, 6.817487e+003
7.820723e+002, 6.830843e+003
7.825544e+002, 6.837946e+003
7.830366e+002, 6.841036e+003
7.835187e+002, 6.844070e+003
7.840008e+002, 6.848189e+003
7.844829e+002, 6.852481e+003
7.849650e+002, 6.855727e+003
7.854471e+002, 6.858720e+003
7.859293e+002, 6.864050e+003
7.864114e+002, 6.871723e+003
7.868935e+002, 6.880347e+003
7.873756e+002, 6.890477e+003
7.878577e+002, 6.898646e+003
7.883398e+002, 6.900635e+003
7.888220e+002, 6.897478e+003
7.893040e+002, 6.897761e+003
7.897861e+002, 6.903805e+003
7.902682e+002, 6.909891e+003
7.907504e+002, 6.915953e+003
7.912325e+002, 6.921681e+003
7.917146e+002, 6.926859e+003
7.921967e+002, 6.931589e+003
7.926788e+002, 6.936002e+003
7.931609e+002, 6.940054e+003
7.936431e+002, 6.944463e+003
7.941252e+002, 6.950147e+003
7.946073e+002, 6.956475e+003
7.950894e+002, 6.962399e+003
7.955715e+002, 6.967820e+003
7.960536e+002, 6.972295e+003
7.965358e+002, 6.975547e+003
7.970179e+002, 6.978682e+003
7.975000e+002, 6.983173e+003
7.979821e+002, 6.989045e+003
7.984642e+002, 6.996019e+003
7.989464e+002, 7.006741e+003
7.994285e+002, 7.013773e+003
7.999106e+002, 7.012911e+003
8.003927e+002, 7.009526e+003
8.008748e+002, 7.006330e+003
8.013569e+002, 7.003856e+003
8.018391e+002, 7.003731e+003
8.023212e+002, 7.006973e+003
8.028033e+002, 7.011861e+003
8.032854e+002, 7.016533e+003
8.037675e+002, 7.023037e+003
8.042496e+002, 7.036044e+003
8.047318e+002, 7.053537e+003
8.052139e+002, 7.067896e+003
8.056960e+002, 7.074829e+003
8.061781e+002, 7.077742e+003
8.066602e+002, 7.081679e+003
8.071423e+002, 7.086544e+003
8.076245e+002, 7.090831e+003
8.081066e+002, 7.094446e+003
8.085887e+002, 7.097709e+003
8.090708e+002, 7.100782e+003
8.095529e+002, 7.103484e+003
8.100350e+002, 7.105193e+003
8.105172e+002, 7.105475e+003
8.109993e+002, 7.107806e+003
8.114814e+002, 7.116016e+003
8.119635e+002, 7.121381e+003
8.124456e+002, 7.116497e+003
8.129277e+002, 7.111331e+003
8.134099e+002, 7.116983e+003
8.138920e+002, 7.132036e+003
8.143741e+002, 7.145843e+003
8.148562e+002, 7.152752e+003
8.153383e+002, 7.157134e+003
8.158204e+002, 7.163453e+003
8.163026e+002, 7.170588e+003
8.167847e+002, 7.175565e+003
8.172668e+002, 7.178321e+003
8.177489e+002, 7.181704e+003
8.182310e+002, 7.187385e+003
8.187131e+002, 7.194202e+003
8.191953e+002, 7.199892e+003
8.196774e+002, 7.204200e+003
8.201595e+002, 7.208583e+003
8.206416e+002, 7.211897e+003
8.211237e+002, 7.217462e+003
8.216058e+002, 7.228055e+003
8.220880e+002, 7.240400e+003
8.225701e+002, 7.251209e+003
8.230522e+002, 7.260440e+003
8.235343e+002, 7.268273e+003
8.240164e+002, 7.274099e+003
8.244985e+002, 7.279254e+003
8.249807e+002, 7.283072e+003
8.254628e+002, 7.287394e+003
8.259449e+002, 7.295317e+003
8.264270e+002, 7.305936e+003
8.269091e+002, 7.315028e+003
8.273912e+002, 7.320209e+003
8.278734e+002, 7.323164e+003
8.283555e+002, 7.325416e+003
8.288376e+002, 7.327431e+003
8.293197e+002, 7.331438e+003
8.298018e+002, 7.337618e+003
8.302839e+002, 7.344145e+003
8.307661e+002, 7.350274e+003
8.312482e+002, 7.355722e+003
8.317303e+002, 7.359949e+003
8.322124e+002, 7.362705e+003
8.326945e+002, 7.365809e+003
8.331766e+002, 7.368482e+003
8.336588e+002, 7.372614e+003
8.341409e+002, 7.380181e+003
8.346230e+002, 7.387971e+003
8.351051e+002, 7.393607e+003
8.355872e+002, 7.397092e+003
8.360693e+002, 7.399375e+003
8.365515e+002, 7.399916e+003
8.370336e+002, 7.400639e+003
8.375157e+002, 7.402432e+003
8.379978e+002, 7.405106e+003
8.384799e+002, 7.409057e+003
8.389620e+002, 7.413728e+003
8.394442e+002, 7.417333e+003
8.399263e+002, 7.419030e+003
8.404084e+002, 7.420438e+003
8.408905e+002, 7.424392e+003
8.413726e+002, 7.430178e+003
8.418547e+002, 7.432362e+003
8.423369e+002, 7.430417e+003
8.428190e+002, 7.432796e+003
8.433011e+002, 7.443676e+003
8.437832e+002, 7.456629e+003
8.442653e+002, 7.463820e+003
8.447474e+002, 7.465437e+003
8.452296e+002, 7.469869e+003
8.457117e+002, 7.479799e+003
8.461938e+002, 7.488516e+003
8.466759e+002, 7.496062e+003
8.471580e+002, 7.501635e+003
8.476401e+002, 7.503974e+003
8.481223e+002, 7.504104e+003
8.486044e+002, 7.503736e+003
8.490865e+002, 7.502545e+003
8.495686e+002, 7.504317e+003
8.500507e+002, 7.514291e+003
8.505328e+002, 7.525715e+003
8.510150e+002, 7.531926e+003
8.514971e+002, 7.533917e+003
8.519792e+002, 7.534590e+003
8.524613e+002, 7.535022e+003
8.529434e+002, 7.535349e+003
8.534255e+002, 7.535031e+003
8.539077e+002, 7.535305e+003
8.543898e+002, 7.541116e+003
8.548719e+002, 7.552459e+003
8.553540e+002, 7.561471e+003
8.558361e+002, 7.566118e+003
8.563182e+002, 7.570012e+003
8.568004e+002, 7.575705e+003
8.572825e+002, 7.582689e+003
8.577646e+002, 7.589525e+003
8.582467e+002, 7.596683e+003
8.587288e+002, 7.602499e+003
8.592109e+002, 7.606635e+003
8.596931e+002, 7.609822e+003
8.601752e+002, 7.610780e+003
8.606573e+002, 7.611822e+003
8.611394e+002, 7.616577e+003
8.616215e+002, 7.625173e+003
8.621036e+002, 7.632142e+003
8.625858e+002, 7.635326e+003
8.630679e+002, 7.636302e+003
8.635500e+002, 7.633409e+003
8.640321e+002, 7.630492e+003
8.645142e+002, 7.634073e+003
8.649963e+002, 7.643578e+003
8.654785e+002, 7.652757e+003
8.659606e+002, 7.657975e+003
8.664427e+002, 7.661174e+003
8.669248e+002, 7.665182e+003
8.674069e+002, 7.669740e+003
8.678890e+002, 7.673323e+003
8.683712e+002, 7.675768e+003
8.688533e+002, 7.678633e+003
8.693354e+002, 7.682370e+003
8.698175e+002, 7.687521e+003
8.702996e+002, 7.695115e+003
8.707817e+002, 7.705185e+003
8.712639e+002, 7.713470e+003
8.717459e+002, 7.718471e+003
8.722280e+002, 7.724318e+003
8.727101e+002, 7.731745e+003
8.731923e+002, 7.740133e+003
8.736744e+002, 7.750257e+003
8.741565e+002, 7.760917e+003
8.746386e+002, 7.769084e+003
8.751207e+002, 7.773041e+003
8.756028e+002, 7.778179e+003
8.760850e+002, 7.787525e+003
8.765671e+002, 7.797584e+003
8.770492e+002, 7.804866e+003
8.775313e+002, 7.811358e+003
8.780134e+002, 7.820749e+003
8.784955e+002, 7.833750e+003
8.789777e+002, 7.848409e+003
8.794598e+002, 7.864521e+003
8.799419e+002, 7.879864e+003
8.804240e+002, 7.888243e+003
8.809061e+002, 7.892631e+003
8.813882e+002, 7.905116e+003
8.818704e+002, 7.927188e+003
8.823525e+002, 7.949465e+003
8.828346e+002, 7.965829e+003
8.833167e+002, 7.979299e+003
8.837988e+002, 7.995900e+003
8.842809e+002, 8.015884e+003
8.847631e+002, 8.037339e+003
8.852452e+002, 8.060434e+003
8.857273e+002, 8.084698e+003
8.862094e+002, 8.111063e+003
8.866915e+002, 8.137437e+003
8.871736e+002, 8.161196e+003
8.876558e+002, 8.182525e+003
8.881379e+002, 8.205677e+003
8.886200e+002, 8.235830e+003
8.891021e+002, 8.260573e+003
8.895842e+002, 8.275885e+003
8.900663e+002, 8.287028e+003
8.905485e+002, 8.300101e+003
8.910306e+002, 8.311036e+003
8.915127e+002, 8.310645e+003
8.919948e+002, 8.296166e+003
8.924769e+002, 8.277255e+003
8.929590e+002, 8.262005e+003
8.934412e+002, 8.243761e+003
8.939233e+002, 8.212485e+003
8.944054e+002, 8.173576e+003
8.948875e+002, 8.136991e+003
8.953696e+002, 8.105917e+003
8.958517e+002, 8.082083e+003
8.963339e+002, 8.067625e+003
8.968160e+002, 8.058867e+003
8.972981e+002, 8.048295e+003
8.977802e+002, 8.036377e+003
8.982623e+002, 8.027860e+003
8.987444e+002, 8.023353e+003
8.992266e+002, 8.019748e+003
8.997087e+002, 8.015320e+003
9.001908e+002, 8.011688e+003
9.006729e+002, 8.011560e+003
9.011550e+002, 8.015121e+003
9.016371e+002, 8.017364e+003
9.021193e+002, 8.018086e+003
9.026014e+002, 8.017750e+003
9.030835e+002, 8.013938e+003
9.035656e+002, 8.011567e+003
9.040477e+002, 8.015223e+003
9.045298e+002, 8.022735e+003
9.050120e+002, 8.028469e+003
9.054941e+002, 8.031345e+003
9.059762e+002, 8.033913e+003
9.064583e+002, 8.037076e+003
9.069404e+002, 8.039888e+003
9.074225e+002, 8.041323e+003
9.079047e+002, 8.042342e+003
9.083868e+002, 8.044360e+003
9.088689e+002, 8.047524e+003
9.093510e+002, 8.050809e+003
9.098331e+002, 8.053183e+003
9.103152e+002, 8.056108e+003
9.107974e+002, 8.062380e+003
9.112795e+002, 8.069715e+003
9.117616e+002, 8.072814e+003
9.122437e+002, 8.072279e+003
9.127258e+002, 8.073675e+003
9.132079e+002, 8.079615e+003
9.136901e+002, 8.087396e+003
9.141722e+002, 8.093565e+003
9.146543e+002, 8.098347e+003
9.151364e+002, 8.103380e+003
9.156185e+002, 8.108641e+003
9.161006e+002, 8.114165e+003
9.165828e+002, 8.120190e+003
9.170649e+002, 8.125431e+003
9.175470e+002, 8.128527e+003
9.180291e+002, 8.130338e+003
9.185112e+002, 8.133936e+003
9.189933e+002, 8.139514e+003
9.194755e+002, 8.146953e+003
9.199576e+002, 8.161201e+003
9.204397e+002, 8.170307e+003
9.209218e+002, 8.163982e+003
9.214039e+002, 8.153874e+003
9.218860e+002, 8.153213e+003
9.223682e+002, 8.161818e+003
9.228503e+002, 8.169422e+003
9.233324e+002, 8.174108e+003
9.238145e+002, 8.178353e+003
9.242966e+002, 8.181632e+003
9.247787e+002, 8.185776e+003
9.252609e+002, 8.192403e+003
9.257430e+002, 8.200917e+003
9.262251e+002, 8.210354e+003
9.267072e+002, 8.220470e+003
9.271893e+002, 8.229252e+003
9.276714e+002, 8.234363e+003
9.281536e+002, 8.238260e+003
9.286357e+002, 8.244106e+003
9.291178e+002, 8.250392e+003
9.295999e+002, 8.253459e+003
9.300820e+002, 8.253363e+003
9.305641e+002, 8.253924e+003
9.310463e+002, 8.257630e+003
9.315284e+002, 8.262925e+003
9.320105e+002, 8.267514e+003
9.324926e+002, 8.271599e+003
9.329747e+002, 8.276438e+003
9.334568e+002, 8.281975e+003
9.339390e+002, 8.285046e+003
9.344211e+002, 8.284224e+003
9.349032e+002, 8.283420e+003
9.353853e+002, 8.286936e+003
9.358674e+002, 8.294194e+003
9.363495e+002, 8.302083e+003
9.368317e+002, 8.311260e+003
9.373138e+002, 8.318057e+003
9.377959e+002, 8.320970e+003
9.382780e+002, 8.323809e+003
9.387601e+002, 8.328159e+003
9.392422e+002, 8.334114e+003
9.397244e+002, 8.342321e+003
9.402065e+002, 8.353394e+003
9.406886e+002, 8.362569e+003
9.411707e+002, 8.368419e+003
9.416528e+002, 8.374264e+003
9.421349e+002, 8.381921e+003
9.426171e+002, 8.388625e+003
9.430992e+002, 8.390126e+003
9.435813e+002, 8.389329e+003
9.440634e+002, 8.394186e+003
9.445455e+002, 8.407783e+003
9.450276e+002, 8.421257e+003
9.455098e+002, 8.432551e+003
9.459919e+002, 8.441765e+003
9.464740e+002, 8.447778e+003
9.469561e+002, 8.452396e+003
9.474382e+002, 8.457113e+003
9.479203e+002, 8.462754e+003
9.484025e+002, 8.471094e+003
9.488846e+002, 8.483794e+003
9.493667e+002, 8.497726e+003
9.498488e+002, 8.510372e+003
9.503309e+002, 8.522080e+003
9.508130e+002, 8.531899e+003
9.512952e+002, 8.541334e+003
9.517773e+002, 8.554854e+003
9.522594e+002, 8.573924e+003
9.527415e+002, 8.596632e+003
9.532236e+002, 8.621111e+003
9.537057e+002, 8.648159e+003
9.541878e+002, 8.680065e+003
9.546699e+002, 8.716545e+003
9.551520e+002, 8.756071e+003
9.556342e+002, 8.798654e+003
9.561163e+002, 8.842541e+003
9.565984e+002, 8.886860e+003
9.570805e+002, 8.933135e+003
9.575626e+002, 8.984151e+003
9.580447e+002, 9.040152e+003
9.585269e+002, 9.092193e+003
9.590090e+002, 9.140203e+003
9.594911e+002, 9.184500e+003
9.599732e+002, 9.221208e+003
9.604553e+002, 9.263135e+003
9.609374e+002, 9.319850e+003
9.614196e+002, 9.388256e+003
9.619017e+002, 9.459348e+003
9.623838e+002, 9.530260e+003
9.628659e+002, 9.612004e+003
9.633480e+002, 9.699784e+003
9.638301e+002, 9.804698e+003
9.643123e+002, 9.928099e+003
9.647944e+002, 1.006995e+004
9.652765e+002, 1.023153e+004
9.657586e+002, 1.041234e+004
9.662407e+002, 1.061025e+004
9.667228e+002, 1.083321e+004
9.672050e+002, 1.105743e+004
9.676871e+002, 1.131822e+004
9.681692e+002, 1.153564e+004
9.686513e+002, 1.168965e+004
9.691334e+002, 1.175740e+004
9.696155e+002, 1.170293e+004
9.700977e+002, 1.152963e+004
9.705798e+002, 1.128700e+004
9.710619e+002, 1.096090e+004
9.715440e+002, 1.063023e+004
9.720261e+002, 1.032736e+004
9.725082e+002, 1.005850e+004
9.729904e+002, 9.834830e+003
9.734725e+002, 9.651628e+003
9.739546e+002, 9.499870e+003
9.744367e+002, 9.375938e+003
9.749188e+002, 9.273743e+003
9.754009e+002, 9.191476e+003
9.758831e+002, 9.125955e+003
9.763652e+002, 9.077213e+003
9.768473e+002, 9.040573e+003
9.773294e+002, 9.005037e+003
9.778115e+002, 8.970190e+003
9.782936e+002, 8.943559e+003
9.787758e+002, 8.928517e+003
9.792579e+002, 8.919660e+003
9.797400e+002, 8.910460e+003
9.802221e+002, 8.901929e+003
9.807042e+002, 8.898732e+003
9.811863e+002, 8.900181e+003
9.816685e+002, 8.899754e+003
9.821506e+002, 8.896236e+003
9.826327e+002, 8.894268e+003
9.831148e+002, 8.896901e+003
9.835969e+002, 8.903019e+003
9.840790e+002, 8.911779e+003
9.845612e+002, 8.923271e+003
9.850433e+002, 8.927649e+003
9.855254e+002, 8.923924e+003
9.860075e+002, 8.918163e+003
9.864896e+002, 8.910745e+003
9.869717e+002, 8.905559e+003
9.874539e+002, 8.906814e+003
9.879360e+002, 8.911674e+003
9.884181e+002, 8.911174e+003
9.889002e+002, 8.903976e+003
9.893823e+002, 8.895781e+003
9.898644e+002, 8.885634e+003
9.903466e+002, 8.876116e+003
9.908287e+002, 8.866890e+003
9.913108e+002, 8.859814e+003
9.917929e+002, 8.856667e+003
9.922750e+002, 8.857271e+003
9.927571e+002, 8.860671e+003
9.932393e+002, 8.869577e+003
9.937214e+002, 8.876530e+003
9.942035e+002, 8.881628e+003
9.946856e+002, 8.884685e+003
9.951677e+002, 8.883637e+003
9.956498e+002, 8.881925e+003
9.961320e+002, 8.883370e+003
9.966141e+002, 8.887778e+003
9.970962e+002, 8.892216e+003
9.975783e+002, 8.896111e+003
9.980604e+002, 8.899920e+003
9.985425e+002, 8.905251e+003
9.990247e+002, 8.908815e+003
9.995068e+002, 8.906666e+003
9.999889e+002, 8.902295e+003
1.000471e+003, 8.900105e+003
1.000953e+003, 8.900861e+003
1.001435e+003, 8.904348e+003
1.001917e+003, 8.913068e+003
1.002399e+003, 8.920487e+003
1.002882e+003, 8.921268e+003
1.003364e+003, 8.920667e+003
1.003846e+003, 8.924214e+003
1.004328e+003, 8.930101e+003
1.004810e+003, 8.933723e+003
1.005292e+003, 8.934221e+003
1.005774e+003, 8.935187e+003
1.006256e+003, 8.938598e+003
1.006739e+003, 8.943956e+003
1.007221e+003, 8.952321e+003
1.007703e+003, 8.961440e+003
1.008185e+003, 8.968872e+003
1.008667e+003, 8.974011e+003
1.009149e+003, 8.974670e+003
1.009631e+003, 8.970722e+003
1.010113e+003, 8.969748e+003
1.010595e+003, 8.980975e+003
1.011078e+003, 8.996124e+003
1.011560e+003, 9.001861e+003
1.012042e+003, 9.001924e+003
1.012524e+003, 9.004889e+003
1.013006e+003, 9.011350e+003
1.013488e+003, 9.017962e+003
1.013970e+003, 9.023288e+003
1.014452e+003, 9.029517e+003
1.014935e+003, 9.040317e+003
1.015417e+003, 9.052863e+003
1.015899e+003, 9.059396e+003
1.016381e+003, 9.061154e+003
1.016863e+003, 9.064392e+003
1.017345e+003, 9.069747e+003
1.017827e+003, 9.072541e+003
1.018309e+003, 9.070261e+003
1.018791e+003, 9.066887e+003
1.019274e+003, 9.068594e+003
1.019756e+003, 9.073800e+003
1.020238e+003, 9.073647e+003
1.020720e+003, 9.068452e+003
1.021202e+003, 9.065876e+003
1.021684e+003, 9.067375e+003
1.022166e+003, 9.069176e+003
1.022648e+003, 9.068975e+003
1.023130e+003, 9.068532e+003
1.023613e+003, 9.070978e+003
1.024095e+003, 9.076026e+003
1.024577e+003, 9.078665e+003
1.025059e+003, 9.078209e+003
1.025541e+003, 9.081000e+003
1.026023e+003, 9.089041e+003
1.026505e+003, 9.095987e+003
1.026987e+003, 9.097047e+003
1.027469e+003, 9.096357e+003
1.027952e+003, 9.102022e+003
1.028434e+003, 9.114416e+003
1.028916e+003, 9.124048e+003
1.029398e+003, 9.130236e+003
1.029880e+003, 9.136247e+003
1.030362e+003, 9.143017e+003
1.030844e+003, 9.149193e+003
1.031326e+003, 9.154238e+003
1.031809e+003, 9.157849e+003
1.032291e+003, 9.158980e+003
1.032773e+003, 9.157142e+003
1.033255e+003, 9.157692e+003
1.033737e+003, 9.160733e+003
1.034219e+003, 9.166337e+003
1.034701e+003, 9.175255e+003
1.035183e+003, 9.185787e+003
1.035666e+003, 9.196932e+003
1.036148e+003, 9.208801e+003
1.036630e+003, 9.222303e+003
1.037112e+003, 9.238707e+003
1.037594e+003, 9.248956e+003
1.038076e+003, 9.244041e+003
1.038558e+003, 9.247181e+003
1.039040e+003, 9.268118e+003
1.039522e+003, 9.291611e+003
1.040005e+003, 9.307404e+003
1.040487e+003, 9.318935e+003
1.040969e+003, 9.334066e+003
1.041451e+003, 9.354370e+003
1.041933e+003, 9.369974e+003
1.042415e+003, 9.378740e+003
1.042897e+003, 9.385674e+003
1.043379e+003, 9.394572e+003
1.043861e+003, 9.399214e+003
1.044344e+003, 9.393057e+003
1.044826e+003, 9.380757e+003
1.045308e+003, 9.371980e+003
1.045790e+003, 9.368515e+003
1.046272e+003, 9.360960e+003
1.046754e+003, 9.341957e+003
1.047236e+003, 9.327787e+003
1.047718e+003, 9.325721e+003
1.048201e+003, 9.326688e+003
1.048683e+003, 9.324457e+003
1.049165e+003, 9.320691e+003
1.049647e+003, 9.319515e+003
1.050129e+003, 9.321699e+003
1.050611e+003, 9.321904e+003
1.051093e+003, 9.316308e+003
1.051575e+003, 9.312183e+003
1.052057e+003, 9.310395e+003
1.052540e+003, 9.311871e+003
1.053022e+003, 9.320354e+003
1.053504e+003, 9.331256e+003
1.053986e+003, 9.335441e+003
1.054468e+003, 9.331416e+003
1.054950e+003, 9.330066e+003
1.055432e+003, 9.337223e+003
1.055914e+003, 9.343521e+003
1.056396e+003, 9.345358e+003
1.056879e+003, 9.345656e+003
1.057361e+003, 9.345480e+003
1.057843e+003, 9.345899e+003
1.058325e+003, 9.348899e+003
1.058807e+003, 9.354721e+003
1.059289e+003, 9.359590e+003
1.059771e+003, 9.361500e+003
1.060253e+003, 9.363404e+003
1.060736e+003, 9.367622e+003
1.061218e+003, 9.371140e+003
1.061700e+003, 9.370187e+003
1.062182e+003, 9.367607e+003
1.062664e+003, 9.369118e+003
1.063146e+003, 9.375142e+003
1.063628e+003, 9.378713e+003
1.064110e+003, 9.375145e+003
1.064593e+003, 9.371772e+003
1.065075e+003, 9.370954e+003
1.065557e+003, 9.372142e+003
1.066039e+003, 9.375788e+003
1.066521e+003, 9.380729e+003
1.067003e+003, 9.385315e+003
1.067485e+003, 9.389326e+003
1.067967e+003, 9.393568e+003
1.068449e+003, 9.398476e+003
1.068932e+003, 9.403425e+003
1.069414e+003, 9.408060e+003
1.069896e+003, 9.412691e+003
1.070378e+003, 9.418178e+003
1.070860e+003, 9.423449e+003
1.071342e+003, 9.426676e+003
1.071824e+003, 9.427956e+003
1.072306e+003, 9.429299e+003
1.072788e+003, 9.429947e+003
1.073271e+003, 9.434047e+003
1.073753e+003, 9.447921e+003
1.074235e+003, 9.461310e+003
1.074717e+003, 9.467691e+003
1.075199e+003, 9.468467e+003
1.075681e+003, 9.462854e+003
1.076163e+003, 9.453627e+003
1.076645e+003, 9.451382e+003
1.077127e+003, 9.462247e+003
1.077610e+003, 9.472291e+003
1.078092e+003, 9.473955e+003
1.078574e+003, 9.473882e+003
1.079056e+003, 9.475999e+003
1.079538e+003, 9.479433e+003
1.080020e+003, 9.483703e+003
1.080502e+003, 9.488041e+003
1.080984e+003, 9.489999e+003
1.081467e+003, 9.487842e+003
1.081949e+003, 9.488364e+003
1.082431e+003, 9.496109e+003
1.082913e+003, 9.505729e+003
1.083395e+003, 9.517124e+003
1.083877e+003, 9.526197e+003
1.084359e+003, 9.526193e+003
1.084841e+003, 9.520584e+003
1.085323e+003, 9.519262e+003
1.085806e+003, 9.525037e+003
1.086288e+003, 9.532467e+003
1.086770e+003, 9.542162e+003
1.087252e+003, 9.549244e+003
1.087734e+003, 9.547989e+003
1.088216e+003, 9.545737e+003
1.088698e+003, 9.549740e+003
1.089180e+003, 9.558105e+003
1.089662e+003, 9.566303e+003
1.090145e+003, 9.573455e+003
1.090627e+003, 9.578067e+003
1.091109e+003, 9.576637e+003
1.091591e+003, 9.576556e+003
1.092073e+003, 9.583063e+003
1.092555e+003, 9.590172e+003
1.093037e+003, 9.594036e+003
1.093519e+003, 9.594712e+003
1.094002e+003, 9.590918e+003
1.094484e+003, 9.583328e+003
1.094966e+003, 9.581247e+003
1.095448e+003, 9.591157e+003
1.095930e+003, 9.601754e+003
1.096412e+003, 9.611653e+003
1.096894e+003, 9.618589e+003
1.097376e+003, 9.618358e+003
1.097859e+003, 9.616061e+003
1.098341e+003, 9.619254e+003
1.098823e+003, 9.627572e+003
1.099305e+003, 9.633701e+003
1.099787e+003, 9.635933e+003
1.100269e+003, 9.635916e+003
1.100751e+003, 9.630334e+003
1.101233e+003, 9.627022e+003
1.101715e+003, 9.633265e+003
1.102198e+003, 9.641101e+003
1.102680e+003, 9.640842e+003
1.103162e+003, 9.634501e+003
1.103644e+003, 9.631528e+003
1.104126e+003, 9.633654e+003
1.104608e+003, 9.638112e+003
1.105090e+003, 9.646750e+003
1.105572e+003, 9.654693e+003
1.106054e+003, 9.659532e+003
1.106537e+003, 9.663722e+003
1.107019e+003, 9.669425e+003
1.107501e+003, 9.676032e+003
1.107983e+003, 9.681530e+003
1.108465e+003, 9.685222e+003
1.108947e+003, 9.690950e+003
1.109429e+003, 9.702478e+003
1.109911e+003, 9.711089e+003
1.110394e+003, 9.712317e+003
1.110876e+003, 9.712878e+003
1.111358e+003, 9.716708e+003
1.111840e+003, 9.722436e+003
1.112322e+003, 9.727696e+003
1.112804e+003, 9.732354e+003
1.113286e+003, 9.737980e+003
1.113768e+003, 9.748520e+003
1.114250e+003, 9.753277e+003
1.114733e+003, 9.745381e+003
1.115215e+003, 9.740146e+003
1.115697e+003, 9.746870e+003
1.116179e+003, 9.756962e+003
1.116661e+003, 9.760294e+003
1.117143e+003, 9.757921e+003
1.117625e+003, 9.757135e+003
1.118107e+003, 9.757209e+003
1.118589e+003, 9.761293e+003
1.119072e+003, 9.773527e+003
1.119554e+003, 9.781203e+003
1.120036e+003, 9.776933e+003
1.120518e+003, 9.772528e+003
1.121000e+003, 9.778423e+003
1.121482e+003, 9.791763e+003
1.121964e+003, 9.804691e+003
1.122446e+003, 9.817926e+003
1.122929e+003, 9.825679e+003
1.123411e+003, 9.826284e+003
1.123893e+003, 9.826848e+003
1.124375e+003, 9.828764e+003
1.124857e+003, 9.830749e+003
1.125339e+003, 9.831299e+003
1.125821e+003, 9.832956e+003
1.126303e+003, 9.841020e+003
1.126786e+003, 9.854832e+003
1.127268e+003, 9.861969e+003
1.127750e+003, 9.861313e+003
1.128232e+003, 9.864118e+003
1.128714e+003, 9.872450e+003
1.129196e+003, 9.879208e+003
1.129678e+003, 9.880998e+003
1.130160e+003, 9.880776e+003
1.130642e+003, 9.881291e+003
1.131125e+003, 9.883488e+003
1.131607e+003, 9.891764e+003
1.132089e+003, 9.905687e+003
1.132571e+003, 9.917291e+003
1.133053e+003, 9.926155e+003
1.133535e+003, 9.930783e+003
1.134017e+003, 9.930754e+003
1.134499e+003, 9.929034e+003
1.134981e+003, 9.927766e+003
1.135464e+003, 9.926933e+003
1.135946e+003, 9.924101e+003
1.136428e+003, 9.921924e+003
1.136910e+003, 9.935109e+003
1.137392e+003, 9.959252e+003
1.137874e+003, 9.970329e+003
1.138356e+003, 9.966044e+003
1.138838e+003, 9.965802e+003
1.139321e+003, 9.979575e+003
1.139803e+003, 9.995225e+003
1.140285e+003, 9.998234e+003
1.140767e+003, 9.995059e+003
1.141249e+003, 9.997786e+003
1.141731e+003, 1.000357e+004
1.142213e+003, 1.000511e+004
1.142695e+003, 1.000362e+004
1.143177e+003, 1.000683e+004
1.143660e+003, 1.001640e+004
1.144142e+003, 1.002423e+004
1.144624e+003, 1.002346e+004
1.145106e+003, 1.002143e+004
1.145588e+003, 1.002688e+004
1.146070e+003, 1.003476e+004
1.146552e+003, 1.003878e+004
1.147034e+003, 1.004033e+004
1.147516e+003, 1.004172e+004
1.147999e+003, 1.004403e+004
1.148481e+003, 1.004962e+004
1.148963e+003, 1.006049e+004
1.149445e+003, 1.006849e+004
1.149927e+003, 1.006339e+004
1.150409e+003, 1.005927e+004
1.150891e+003, 1.006919e+004
1.151373e+003, 1.008302e+004
1.151856e+003, 1.008811e+004
1.152338e+003, 1.008796e+004
1.152820e+003, 1.009443e+004
1.153302e+003, 1.010990e+004
1.153784e+003, 1.012080e+004
1.154266e+003, 1.011780e+004
1.154748e+003, 1.011629e+004
1.155230e+003, 1.012325e+004
1.155713e+003, 1.013116e+004
1.156195e+003, 1.013562e+004
1.156677e+003, 1.013821e+004
1.157159e+003, 1.014113e+004
1.157641e+003, 1.014451e+004
1.158123e+003, 1.014784e+004
1.158605e+003, 1.015125e+004
1.159087e+003, 1.015450e+004
1.159569e+003, 1.015713e+004
1.160052e+003, 1.016033e+004
1.160534e+003, 1.016379e+004
1.161016e+003, 1.016877e+004
1.161498e+003, 1.017796e+004
1.161980e+003, 1.018831e+004
1.162462e+003, 1.019249e+004
1.162944e+003, 1.018958e+004
1.163426e+003, 1.019021e+004
1.163908e+003, 1.019503e+004
1.164391e+003, 1.020157e+004
1.164873e+003, 1.021014e+004
1.165355e+003, 1.021842e+004
1.165837e+003, 1.022551e+004
1.166319e+003, 1.023097e+004
1.166801e+003, 1.023351e+004
1.167283e+003, 1.023471e+004
1.167765e+003, 1.024268e+004
1.168247e+003, 1.025788e+004
1.168730e+003, 1.026383e+004
1.169212e+003, 1.025950e+004
1.169694e+003, 1.025967e+004
1.170176e+003, 1.026843e+004
1.170658e+003, 1.027953e+004
1.171140e+003, 1.028881e+004
1.171622e+003, 1.029743e+004
1.172104e+003, 1.030805e+004
1.172587e+003, 1.031930e+004
1.173069e+003, 1.032650e+004
1.173551e+003, 1.033021e+004
1.174033e+003, 1.033234e+004
1.174515e+003, 1.033326e+004
1.174997e+003, 1.033188e+004
1.175479e+003, 1.032828e+004
1.175961e+003, 1.032886e+004
1.176443e+003, 1.034030e+004
1.176926e+003, 1.035526e+004
1.177408e+003, 1.036506e+004
1.177890e+003, 1.037220e+004
1.178372e+003, 1.038228e+004
1.178854e+003, 1.039180e+004
1.179336e+003, 1.039151e+004
1.179818e+003, 1.038272e+004
1.180300e+003, 1.037684e+004
1.180782e+003, 1.037879e+004
1.181265e+003, 1.038248e+004
1.181747e+003, 1.038433e+004
1.182229e+003, 1.038671e+004
1.182711e+003, 1.039322e+004
1.183193e+003, 1.039926e+004
1.183675e+003, 1.039864e+004
1.184157e+003, 1.039502e+004
1.184639e+003, 1.039617e+004
1.185122e+003, 1.040294e+004
1.185604e+003, 1.040868e+004
1.186086e+003, 1.041289e+004
1.186568e+003, 1.041445e+004
1.187050e+003, 1.040766e+004
1.187532e+003, 1.040503e+004
1.188014e+003, 1.041485e+004
1.188496e+003, 1.042851e+004
1.188979e+003, 1.043890e+004
1.189461e+003, 1.044655e+004
1.189943e+003, 1.045308e+004
1.190425e+003, 1.045919e+004
1.190907e+003, 1.045912e+004
1.191389e+003, 1.044823e+004
1.191871e+003, 1.044469e+004
1.192353e+003, 1.045349e+004
1.192835e+003, 1.046370e+004
1.193318e+003, 1.046999e+004
1.193800e+003, 1.047466e+004
1.194282e+003, 1.048024e+004
1.194764e+003, 1.048684e+004
1.195246e+003, 1.049618e+004
1.195728e+003, 1.050794e+004
1.196210e+003, 1.051028e+004
1.196692e+003, 1.050341e+004
1.197174e+003, 1.050523e+004
1.197657e+003, 1.051951e+004
1.198139e+003, 1.052893e+004
1.198621e+003, 1.052223e+004
1.199103e+003, 1.051251e+004
1.199585e+003, 1.051816e+004
1.200067e+003, 1.053217e+004
1.200549e+003, 1.054256e+004
1.201031e+003, 1.054946e+004
1.201514e+003, 1.055302e+004
1.201996e+003, 1.055353e+004
1.202478e+003, 1.054949e+004
1.202960e+003, 1.054200e+004
1.203442e+003, 1.054096e+004
1.203924e+003, 1.055504e+004
1.204406e+003, 1.056845e+004
1.204888e+003, 1.056841e+004
1.205370e+003, 1.056378e+004
1.205853e+003, 1.055935e+004
1.206335e+003, 1.055669e+004
1.206817e+003, 1.055697e+004
1.207299e+003, 1.056026e+004
1.207781e+003, 1.056736e+004
1.208263e+003, 1.057880e+004
1.208745e+003, 1.058707e+004
1.209227e+003, 1.058790e+004
1.209709e+003, 1.058902e+004
1.210192e+003, 1.059051e+004
1.210674e+003, 1.059436e+004
1.211156e+003, 1.060429e+004
1.211638e+003, 1.061452e+004
1.212120e+003, 1.061862e+004
1.212602e+003, 1.061822e+004
1.213084e+003, 1.061945e+004
1.213566e+003, 1.062212e+004
1.214049e+003, 1.062723e+004
1.214531e+003, 1.063507e+004
1.215013e+003, 1.064491e+004
1.215495e+003, 1.065789e+004
1.215977e+003, 1.066654e+004
1.216459e+003, 1.066650e+004
1.216941e+003, 1.066223e+004
1.217423e+003, 1.065809e+004
1.217906e+003, 1.065599e+004
1.218388e+003, 1.066460e+004
1.218870e+003, 1.068079e+004
1.219352e+003, 1.068646e+004
1.219834e+003, 1.068347e+004
1.220316e+003, 1.068760e+004
1.220798e+003, 1.070116e+004
1.221280e+003, 1.071339e+004
1.221762e+003, 1.071847e+004
1.222245e+003, 1.072056e+004
1.222727e+003, 1.072269e+004
1.223209e+003, 1.072517e+004
1.223691e+003, 1.072762e+004
1.224173e+003, 1.073117e+004
1.224655e+003, 1.073826e+004
1.225137e+003, 1.074722e+004
1.225619e+003, 1.075481e+004
1.226101e+003, 1.076054e+004
1.226584e+003, 1.076579e+004
1.227066e+003, 1.077136e+004
1.227548e+003, 1.077569e+004
1.228030e+003, 1.077836e+004
1.228512e+003, 1.077966e+004
1.228994e+003, 1.077639e+004
1.229476e+003, 1.077520e+004
1.229958e+003, 1.078342e+004
1.230441e+003, 1.079623e+004
1.230923e+003, 1.080475e+004
1.231405e+003, 1.080914e+004
1.231887e+003, 1.081385e+004
1.232369e+003, 1.081815e+004
1.232851e+003, 1.082532e+004
1.233333e+003, 1.083712e+004
1.233815e+003, 1.084527e+004
1.234297e+003, 1.084658e+004
1.234780e+003, 1.084642e+004
1.235262e+003, 1.084864e+004
1.235744e+003, 1.085168e+004
1.236226e+003, 1.085220e+004
1.236708e+003, 1.085167e+004
1.237190e+003, 1.085852e+004
1.237672e+003, 1.087020e+004
1.238154e+003, 1.087518e+004
1.238636e+003, 1.087334e+004
1.239119e+003, 1.086958e+004
1.239601e+003, 1.086595e+004
1.240083e+003, 1.086462e+004
1.240565e+003, 1.086714e+004
1.241047e+003, 1.087188e+004
1.241529e+003, 1.087983e+004
1.242011e+003, 1.088668e+004
1.242493e+003, 1.088659e+004
1.242975e+003, 1.088433e+004
1.243458e+003, 1.088496e+004
1.243940e+003, 1.088878e+004
1.244422e+003, 1.089601e+004
1.244904e+003, 1.090629e+004
1.245386e+003, 1.091417e+004
1.245868e+003, 1.091947e+004
1.246350e+003, 1.092012e+004
1.246832e+003, 1.090777e+004
1.247315e+003, 1.090165e+004
1.247797e+003, 1.091181e+004
1.248279e+003, 1.092593e+004
1.248761e+003, 1.093711e+004
1.249243e+003, 1.094475e+004
1.249725e+003, 1.094682e+004
1.250207e+003, 1.094379e+004
1.250689e+003, 1.094732e+004
1.251172e+003, 1.095852e+004
1.251654e+003, 1.096139e+004
1.252136e+003, 1.095429e+004
1.252618e+003, 1.094802e+004
1.253100e+003, 1.094581e+004
1.253582e+003, 1.094835e+004
1.254064e+003, 1.095642e+004
1.254546e+003, 1.096622e+004
1.255028e+003, 1.097492e+004
1.255510e+003, 1.097987e+004
1.255993e+003, 1.097202e+004
1.256475e+003, 1.095897e+004
1.256957e+003, 1.095432e+004
1.257439e+003, 1.095737e+004
1.257921e+003, 1.096482e+004
1.258403e+003, 1.097424e+004
1.258885e+003, 1.097872e+004
1.259367e+003, 1.097422e+004
1.259850e+003, 1.096880e+004
1.260332e+003, 1.096614e+004
1.260814e+003, 1.096358e+004
1.261296e+003, 1.095691e+004
1.261778e+003, 1.095275e+004
1.262260e+003, 1.095782e+004
1.262742e+003, 1.096780e+004
1.263224e+003, 1.097679e+004
1.263707e+003, 1.098436e+004
1.264189e+003, 1.098672e+004
1.264671e+003, 1.098136e+004
1.265153e+003, 1.097923e+004
1.265635e+003, 1.098082e+004
1.266117e+003, 1.098371e+004
1.266599e+003, 1.098748e+004
1.267081e+003, 1.099145e+004
1.267563e+003, 1.099514e+004
1.268046e+003, 1.099967e+004
1.268528e+003, 1.100680e+004
1.269010e+003, 1.101502e+004
1.269492e+003, 1.102056e+004
1.269974e+003, 1.102456e+004
1.270456e+003, 1.102927e+004
1.270938e+003, 1.103530e+004
1.271420e+003, 1.104560e+004
1.271902e+003, 1.105850e+004
1.272385e+003, 1.106646e+004
1.272867e+003, 1.106658e+004
1.273349e+003, 1.106461e+004
1.273831e+003, 1.106087e+004
1.274313e+003, 1.106030e+004
1.274795e+003, 1.106522e+004
1.275277e+003, 1.107437e+004
1.275759e+003, 1.109298e+004
1.276242e+003, 1.111063e+004
1.276724e+003, 1.111283e+004
1.277206e+003, 1.110470e+004
1.277688e+003, 1.110460e+004
1.278170e+003, 1.111383e+004
1.278652e+003, 1.111864e+004
1.279134e+003, 1.111654e+004
1.279616e+003, 1.111941e+004
1.280099e+003, 1.112909e+004
1.280581e+003, 1.114068e+004
1.281063e+003, 1.115270e+004
1.281545e+003, 1.116223e+004
1.282027e+003, 1.116658e+004
1.282509e+003, 1.116958e+004
1.282991e+003, 1.117860e+004
1.283473e+003, 1.119053e+004
1.283955e+003, 1.120106e+004
##END=



