##NAMES=Woodhouseite
##RRUFFID=R060520
##IDEAL CHEMISTRY=CaAl_3_(S^6+^O_4_)(PO_4_)(OH)_6_
##LOCALITY=Champion mine, Mono County, California, USA
##OWNER=RRUFF
##SOURCE=Michael Scott
##DESCRIPTION=Colorless cubes, with striations that display the rhombohedral symmetry
##STATUS=The identification of this mineral has been confirmed by X-ray diffraction and chemical analysis
##URL=rruff.info/R060520
##MEASURED CHEMISTRY=(Ca_0.98_Sr_0.02_)_Σ=1_Al_3.00_[(P_0.53_S_0.47_)_Σ=1_O_4_]_2_((OH)_5.94_(H_2_O)_0.06_)_Σ=6_ ; = darker phase  (Ca_0.94_Sr_0.06_)_Σ=1_Al_3.00_[(P_0.52_S_0.48_)O_4_]_2_((OH)_5.96_(H_2_O)_0.04_)_Σ=6 = lighter phase
9.059570e+001, 3.002117e+003
9.107782e+001, 2.940005e+003
9.155994e+001, 2.918065e+003
9.204205e+001, 2.965470e+003
9.252417e+001, 3.033280e+003
9.300629e+001, 3.105490e+003
9.348840e+001, 3.160193e+003
9.397052e+001, 3.177037e+003
9.445264e+001, 3.148807e+003
9.493475e+001, 3.116046e+003
9.541687e+001, 3.083840e+003
9.589898e+001, 3.055649e+003
9.638110e+001, 3.029678e+003
9.686321e+001, 3.003977e+003
9.734533e+001, 2.975614e+003
9.782745e+001, 2.940063e+003
9.830956e+001, 2.909851e+003
9.879168e+001, 2.885049e+003
9.927380e+001, 2.864571e+003
9.975591e+001, 2.848437e+003
1.002380e+002, 2.835585e+003
1.007201e+002, 2.824379e+003
1.012023e+002, 2.814122e+003
1.016844e+002, 2.804545e+003
1.021665e+002, 2.794618e+003
1.026486e+002, 2.783010e+003
1.031307e+002, 2.771448e+003
1.036128e+002, 2.760949e+003
1.040950e+002, 2.750981e+003
1.045771e+002, 2.743560e+003
1.050592e+002, 2.740192e+003
1.055413e+002, 2.739281e+003
1.060234e+002, 2.739058e+003
1.065055e+002, 2.738517e+003
1.069877e+002, 2.737872e+003
1.074698e+002, 2.738590e+003
1.079519e+002, 2.743084e+003
1.084340e+002, 2.745485e+003
1.089161e+002, 2.743286e+003
1.093982e+002, 2.737112e+003
1.098804e+002, 2.728650e+003
1.103625e+002, 2.718426e+003
1.108446e+002, 2.705310e+003
1.113267e+002, 2.696530e+003
1.118088e+002, 2.694724e+003
1.122909e+002, 2.694596e+003
1.127731e+002, 2.694290e+003
1.132552e+002, 2.693255e+003
1.137373e+002, 2.691550e+003
1.142194e+002, 2.689192e+003
1.147015e+002, 2.685052e+003
1.151836e+002, 2.682344e+003
1.156658e+002, 2.682208e+003
1.161479e+002, 2.682888e+003
1.166300e+002, 2.682871e+003
1.171121e+002, 2.681643e+003
1.175942e+002, 2.679250e+003
1.180763e+002, 2.675428e+003
1.185584e+002, 2.669264e+003
1.190406e+002, 2.663822e+003
1.195227e+002, 2.660339e+003
1.200048e+002, 2.658307e+003
1.204869e+002, 2.656055e+003
1.209690e+002, 2.651955e+003
1.214511e+002, 2.648112e+003
1.219333e+002, 2.648181e+003
1.224154e+002, 2.653382e+003
1.228975e+002, 2.660316e+003
1.233796e+002, 2.666458e+003
1.238617e+002, 2.671822e+003
1.243438e+002, 2.676264e+003
1.248260e+002, 2.680717e+003
1.253081e+002, 2.683757e+003
1.257902e+002, 2.683357e+003
1.262723e+002, 2.677977e+003
1.267544e+002, 2.669780e+003
1.272365e+002, 2.663592e+003
1.277187e+002, 2.659935e+003
1.282008e+002, 2.657682e+003
1.286829e+002, 2.657003e+003
1.291650e+002, 2.657140e+003
1.296471e+002, 2.657084e+003
1.301292e+002, 2.656143e+003
1.306114e+002, 2.654418e+003
1.310935e+002, 2.653274e+003
1.315756e+002, 2.653257e+003
1.320577e+002, 2.653372e+003
1.325398e+002, 2.653067e+003
1.330219e+002, 2.652664e+003
1.335041e+002, 2.652980e+003
1.339862e+002, 2.654837e+003
1.344683e+002, 2.658599e+003
1.349504e+002, 2.661625e+003
1.354325e+002, 2.662957e+003
1.359146e+002, 2.664455e+003
1.363968e+002, 2.667194e+003
1.368789e+002, 2.671256e+003
1.373610e+002, 2.676002e+003
1.378431e+002, 2.680564e+003
1.383252e+002, 2.684759e+003
1.388073e+002, 2.690243e+003
1.392895e+002, 2.696259e+003
1.397716e+002, 2.703938e+003
1.402537e+002, 2.714414e+003
1.407358e+002, 2.727765e+003
1.412179e+002, 2.744454e+003
1.417000e+002, 2.767117e+003
1.421821e+002, 2.795184e+003
1.426643e+002, 2.821331e+003
1.431464e+002, 2.850797e+003
1.436285e+002, 2.877888e+003
1.441106e+002, 2.880950e+003
1.445927e+002, 2.847216e+003
1.450748e+002, 2.794579e+003
1.455570e+002, 2.736894e+003
1.460391e+002, 2.674798e+003
1.465212e+002, 2.617485e+003
1.470033e+002, 2.573472e+003
1.474854e+002, 2.543591e+003
1.479675e+002, 2.518415e+003
1.484497e+002, 2.498877e+003
1.489318e+002, 2.481911e+003
1.494139e+002, 2.465910e+003
1.498960e+002, 2.450638e+003
1.503781e+002, 2.437002e+003
1.508602e+002, 2.426857e+003
1.513424e+002, 2.421884e+003
1.518245e+002, 2.416738e+003
1.523066e+002, 2.410176e+003
1.527887e+002, 2.403629e+003
1.532708e+002, 2.397938e+003
1.537529e+002, 2.393489e+003
1.542351e+002, 2.390390e+003
1.547172e+002, 2.388976e+003
1.551993e+002, 2.390813e+003
1.556814e+002, 2.392679e+003
1.561635e+002, 2.393746e+003
1.566456e+002, 2.394940e+003
1.571278e+002, 2.397280e+003
1.576099e+002, 2.401254e+003
1.580920e+002, 2.406795e+003
1.585741e+002, 2.413802e+003
1.590562e+002, 2.422290e+003
1.595383e+002, 2.431927e+003
1.600205e+002, 2.442687e+003
1.605026e+002, 2.454527e+003
1.609847e+002, 2.467414e+003
1.614668e+002, 2.481268e+003
1.619489e+002, 2.496204e+003
1.624310e+002, 2.511979e+003
1.629131e+002, 2.528597e+003
1.633953e+002, 2.545868e+003
1.638774e+002, 2.563534e+003
1.643595e+002, 2.581651e+003
1.648416e+002, 2.600432e+003
1.653237e+002, 2.619966e+003
1.658058e+002, 2.640403e+003
1.662880e+002, 2.661766e+003
1.667701e+002, 2.683102e+003
1.672522e+002, 2.706261e+003
1.677343e+002, 2.733429e+003
1.682164e+002, 2.764896e+003
1.686985e+002, 2.798796e+003
1.691807e+002, 2.832882e+003
1.696628e+002, 2.868762e+003
1.701449e+002, 2.909403e+003
1.706270e+002, 2.956405e+003
1.711091e+002, 3.008372e+003
1.715912e+002, 3.062069e+003
1.720734e+002, 3.117035e+003
1.725555e+002, 3.174976e+003
1.730376e+002, 3.234924e+003
1.735197e+002, 3.298247e+003
1.740018e+002, 3.367307e+003
1.744839e+002, 3.443207e+003
1.749661e+002, 3.525766e+003
1.754482e+002, 3.613243e+003
1.759303e+002, 3.709058e+003
1.764124e+002, 3.806785e+003
1.768945e+002, 3.906005e+003
1.773766e+002, 4.005699e+003
1.778588e+002, 4.104741e+003
1.783409e+002, 4.204519e+003
1.788230e+002, 4.305354e+003
1.793051e+002, 4.384883e+003
1.797872e+002, 4.445277e+003
1.802693e+002, 4.482916e+003
1.807515e+002, 4.494908e+003
1.812336e+002, 4.482239e+003
1.817157e+002, 4.446705e+003
1.821978e+002, 4.388820e+003
1.826799e+002, 4.307033e+003
1.831620e+002, 4.214437e+003
1.836441e+002, 4.104441e+003
1.841263e+002, 3.992158e+003
1.846084e+002, 3.881645e+003
1.850905e+002, 3.774882e+003
1.855726e+002, 3.675380e+003
1.860547e+002, 3.586557e+003
1.865368e+002, 3.509806e+003
1.870190e+002, 3.443991e+003
1.875011e+002, 3.392149e+003
1.879832e+002, 3.348937e+003
1.884653e+002, 3.311181e+003
1.889474e+002, 3.278593e+003
1.894296e+002, 3.251104e+003
1.899117e+002, 3.229544e+003
1.903938e+002, 3.214096e+003
1.908759e+002, 3.201384e+003
1.913580e+002, 3.191879e+003
1.918401e+002, 3.184680e+003
1.923223e+002, 3.179271e+003
1.928044e+002, 3.175882e+003
1.932865e+002, 3.172734e+003
1.937686e+002, 3.166633e+003
1.942507e+002, 3.158863e+003
1.947328e+002, 3.154317e+003
1.952150e+002, 3.156548e+003
1.956971e+002, 3.162658e+003
1.961792e+002, 3.166898e+003
1.966613e+002, 3.168288e+003
1.971434e+002, 3.168897e+003
1.976255e+002, 3.170042e+003
1.981077e+002, 3.171627e+003
1.985898e+002, 3.173474e+003
1.990719e+002, 3.174729e+003
1.995540e+002, 3.175976e+003
2.000361e+002, 3.179873e+003
2.005182e+002, 3.187710e+003
2.010004e+002, 3.196743e+003
2.014825e+002, 3.205670e+003
2.019646e+002, 3.214470e+003
2.024467e+002, 3.223057e+003
2.029288e+002, 3.231588e+003
2.034109e+002, 3.240033e+003
2.038930e+002, 3.247280e+003
2.043752e+002, 3.251079e+003
2.048573e+002, 3.256067e+003
2.053394e+002, 3.264409e+003
2.058215e+002, 3.275363e+003
2.063036e+002, 3.287061e+003
2.067857e+002, 3.298063e+003
2.072679e+002, 3.308351e+003
2.077500e+002, 3.318358e+003
2.082321e+002, 3.327014e+003
2.087142e+002, 3.336376e+003
2.091963e+002, 3.347082e+003
2.096784e+002, 3.359051e+003
2.101606e+002, 3.371939e+003
2.106427e+002, 3.385599e+003
2.111248e+002, 3.400091e+003
2.116069e+002, 3.414027e+003
2.120890e+002, 3.426635e+003
2.125711e+002, 3.439407e+003
2.130533e+002, 3.453072e+003
2.135354e+002, 3.467487e+003
2.140175e+002, 3.482155e+003
2.144996e+002, 3.496543e+003
2.149817e+002, 3.510522e+003
2.154638e+002, 3.525416e+003
2.159460e+002, 3.541675e+003
2.164281e+002, 3.558266e+003
2.169102e+002, 3.574927e+003
2.173923e+002, 3.591515e+003
2.178744e+002, 3.608042e+003
2.183565e+002, 3.624414e+003
2.188387e+002, 3.640604e+003
2.193208e+002, 3.656792e+003
2.198029e+002, 3.673146e+003
2.202850e+002, 3.689429e+003
2.207671e+002, 3.704983e+003
2.212492e+002, 3.720021e+003
2.217314e+002, 3.735947e+003
2.222135e+002, 3.753963e+003
2.226956e+002, 3.774311e+003
2.231777e+002, 3.795596e+003
2.236598e+002, 3.818802e+003
2.241419e+002, 3.842237e+003
2.246240e+002, 3.864745e+003
2.251062e+002, 3.886283e+003
2.255883e+002, 3.906830e+003
2.260704e+002, 3.926057e+003
2.265525e+002, 3.944068e+003
2.270346e+002, 3.962524e+003
2.275167e+002, 3.980433e+003
2.279989e+002, 3.999486e+003
2.284810e+002, 4.021396e+003
2.289631e+002, 4.046259e+003
2.294452e+002, 4.072217e+003
2.299273e+002, 4.098542e+003
2.304094e+002, 4.124790e+003
2.308916e+002, 4.149891e+003
2.313737e+002, 4.171930e+003
2.318558e+002, 4.193604e+003
2.323379e+002, 4.218174e+003
2.328200e+002, 4.245933e+003
2.333021e+002, 4.274426e+003
2.337843e+002, 4.302110e+003
2.342664e+002, 4.329649e+003
2.347485e+002, 4.358109e+003
2.352306e+002, 4.387435e+003
2.357127e+002, 4.418058e+003
2.361948e+002, 4.451109e+003
2.366770e+002, 4.487285e+003
2.371591e+002, 4.523813e+003
2.376412e+002, 4.559565e+003
2.381233e+002, 4.594955e+003
2.386054e+002, 4.630504e+003
2.390875e+002, 4.665973e+003
2.395697e+002, 4.702296e+003
2.400518e+002, 4.740473e+003
2.405339e+002, 4.780474e+003
2.410160e+002, 4.823134e+003
2.414981e+002, 4.871132e+003
2.419802e+002, 4.920863e+003
2.424624e+002, 4.969435e+003
2.429445e+002, 5.016040e+003
2.434266e+002, 5.060018e+003
2.439087e+002, 5.100335e+003
2.443908e+002, 5.136948e+003
2.448729e+002, 5.169496e+003
2.453550e+002, 5.199088e+003
2.458372e+002, 5.224333e+003
2.463193e+002, 5.244187e+003
2.468014e+002, 5.258386e+003
2.472835e+002, 5.266060e+003
2.477656e+002, 5.265894e+003
2.482477e+002, 5.257688e+003
2.487299e+002, 5.241058e+003
2.492120e+002, 5.215657e+003
2.496941e+002, 5.183450e+003
2.501762e+002, 5.145111e+003
2.506583e+002, 5.100867e+003
2.511404e+002, 5.051997e+003
2.516226e+002, 4.999889e+003
2.521047e+002, 4.944151e+003
2.525868e+002, 4.886417e+003
2.530689e+002, 4.825691e+003
2.535510e+002, 4.764201e+003
2.540331e+002, 4.702754e+003
2.545153e+002, 4.641867e+003
2.549974e+002, 4.581891e+003
2.554795e+002, 4.523280e+003
2.559616e+002, 4.467821e+003
2.564437e+002, 4.410170e+003
2.569258e+002, 4.346544e+003
2.574080e+002, 4.283789e+003
2.578901e+002, 4.226453e+003
2.583722e+002, 4.175303e+003
2.588543e+002, 4.127296e+003
2.593364e+002, 4.078277e+003
2.598185e+002, 4.026895e+003
2.603007e+002, 3.978050e+003
2.607828e+002, 3.930886e+003
2.612649e+002, 3.885836e+003
2.617470e+002, 3.843500e+003
2.622291e+002, 3.803652e+003
2.627112e+002, 3.765961e+003
2.631934e+002, 3.729889e+003
2.636755e+002, 3.695725e+003
2.641576e+002, 3.662270e+003
2.646397e+002, 3.628433e+003
2.651218e+002, 3.596107e+003
2.656039e+002, 3.566784e+003
2.660861e+002, 3.540339e+003
2.665682e+002, 3.515330e+003
2.670503e+002, 3.490259e+003
2.675324e+002, 3.464814e+003
2.680145e+002, 3.442130e+003
2.684966e+002, 3.423271e+003
2.689788e+002, 3.405574e+003
2.694609e+002, 3.388483e+003
2.699430e+002, 3.371606e+003
2.704251e+002, 3.354129e+003
2.709072e+002, 3.335126e+003
2.713893e+002, 3.314598e+003
2.718715e+002, 3.296201e+003
2.723536e+002, 3.281257e+003
2.728357e+002, 3.266681e+003
2.733178e+002, 3.250747e+003
2.737999e+002, 3.234053e+003
2.742820e+002, 3.218790e+003
2.747642e+002, 3.206810e+003
2.752463e+002, 3.197603e+003
2.757284e+002, 3.184949e+003
2.762105e+002, 3.167043e+003
2.766926e+002, 3.148519e+003
2.771747e+002, 3.129697e+003
2.776568e+002, 3.111313e+003
2.781389e+002, 3.095331e+003
2.786211e+002, 3.083226e+003
2.791032e+002, 3.073725e+003
2.795853e+002, 3.061073e+003
2.800674e+002, 3.042596e+003
2.805495e+002, 3.024758e+003
2.810316e+002, 3.009890e+003
2.815138e+002, 2.996660e+003
2.819959e+002, 2.982810e+003
2.824780e+002, 2.967441e+003
2.829601e+002, 2.950742e+003
2.834422e+002, 2.933354e+003
2.839243e+002, 2.914874e+003
2.844065e+002, 2.896499e+003
2.848886e+002, 2.877877e+003
2.853707e+002, 2.859660e+003
2.858528e+002, 2.842971e+003
2.863349e+002, 2.828232e+003
2.868170e+002, 2.814635e+003
2.872992e+002, 2.800638e+003
2.877813e+002, 2.785927e+003
2.882634e+002, 2.772068e+003
2.887455e+002, 2.759423e+003
2.892276e+002, 2.747786e+003
2.897097e+002, 2.737085e+003
2.901919e+002, 2.727311e+003
2.906740e+002, 2.718277e+003
2.911561e+002, 2.709856e+003
2.916382e+002, 2.702199e+003
2.921203e+002, 2.694146e+003
2.926024e+002, 2.684610e+003
2.930846e+002, 2.675173e+003
2.935667e+002, 2.667537e+003
2.940488e+002, 2.661872e+003
2.945309e+002, 2.657017e+003
2.950130e+002, 2.652034e+003
2.954951e+002, 2.646910e+003
2.959773e+002, 2.641789e+003
2.964594e+002, 2.635839e+003
2.969415e+002, 2.630486e+003
2.974236e+002, 2.627459e+003
2.979057e+002, 2.626579e+003
2.983878e+002, 2.625232e+003
2.988700e+002, 2.621141e+003
2.993521e+002, 2.614950e+003
2.998342e+002, 2.610905e+003
3.003163e+002, 2.610711e+003
3.007984e+002, 2.611073e+003
3.012805e+002, 2.609641e+003
3.017627e+002, 2.606913e+003
3.022448e+002, 2.605271e+003
3.027269e+002, 2.606178e+003
3.032090e+002, 2.608911e+003
3.036911e+002, 2.611225e+003
3.041732e+002, 2.613644e+003
3.046554e+002, 2.614970e+003
3.051375e+002, 2.613707e+003
3.056196e+002, 2.610893e+003
3.061017e+002, 2.609186e+003
3.065838e+002, 2.609605e+003
3.070659e+002, 2.611595e+003
3.075481e+002, 2.614452e+003
3.080302e+002, 2.618604e+003
3.085123e+002, 2.621939e+003
3.089944e+002, 2.623168e+003
3.094765e+002, 2.623262e+003
3.099586e+002, 2.623785e+003
3.104408e+002, 2.625106e+003
3.109229e+002, 2.627000e+003
3.114050e+002, 2.629189e+003
3.118871e+002, 2.631625e+003
3.123692e+002, 2.634573e+003
3.128513e+002, 2.638418e+003
3.133335e+002, 2.642629e+003
3.138156e+002, 2.646800e+003
3.142977e+002, 2.650875e+003
3.147798e+002, 2.654389e+003
3.152619e+002, 2.656739e+003
3.157440e+002, 2.657973e+003
3.162262e+002, 2.659254e+003
3.167083e+002, 2.660406e+003
3.171904e+002, 2.661816e+003
3.176725e+002, 2.664014e+003
3.181546e+002, 2.666949e+003
3.186367e+002, 2.669778e+003
3.191188e+002, 2.671938e+003
3.196010e+002, 2.673511e+003
3.200831e+002, 2.675125e+003
3.205652e+002, 2.676831e+003
3.210473e+002, 2.678541e+003
3.215294e+002, 2.679977e+003
3.220115e+002, 2.681320e+003
3.224937e+002, 2.683199e+003
3.229758e+002, 2.685863e+003
3.234579e+002, 2.689314e+003
3.239400e+002, 2.693607e+003
3.244221e+002, 2.699349e+003
3.249042e+002, 2.704542e+003
3.253864e+002, 2.708294e+003
3.258685e+002, 2.711063e+003
3.263506e+002, 2.713742e+003
3.268327e+002, 2.716629e+003
3.273148e+002, 2.719444e+003
3.277969e+002, 2.721427e+003
3.282791e+002, 2.722187e+003
3.287612e+002, 2.724366e+003
3.292433e+002, 2.730199e+003
3.297254e+002, 2.736900e+003
3.302075e+002, 2.740838e+003
3.306896e+002, 2.741389e+003
3.311718e+002, 2.741175e+003
3.316539e+002, 2.742532e+003
3.321360e+002, 2.745632e+003
3.326181e+002, 2.750028e+003
3.331002e+002, 2.756887e+003
3.335823e+002, 2.764113e+003
3.340645e+002, 2.769608e+003
3.345466e+002, 2.773629e+003
3.350287e+002, 2.778885e+003
3.355108e+002, 2.787597e+003
3.359929e+002, 2.799188e+003
3.364750e+002, 2.808913e+003
3.369572e+002, 2.816200e+003
3.374393e+002, 2.822555e+003
3.379214e+002, 2.828063e+003
3.384035e+002, 2.833113e+003
3.388856e+002, 2.838605e+003
3.393677e+002, 2.845025e+003
3.398499e+002, 2.851954e+003
3.403320e+002, 2.858181e+003
3.408141e+002, 2.862966e+003
3.412962e+002, 2.868435e+003
3.417783e+002, 2.875577e+003
3.422604e+002, 2.883420e+003
3.427426e+002, 2.890615e+003
3.432247e+002, 2.896750e+003
3.437068e+002, 2.902526e+003
3.441889e+002, 2.908983e+003
3.446710e+002, 2.916700e+003
3.451531e+002, 2.923294e+003
3.456353e+002, 2.927310e+003
3.461174e+002, 2.931166e+003
3.465995e+002, 2.936732e+003
3.470816e+002, 2.944092e+003
3.475637e+002, 2.952399e+003
3.480458e+002, 2.960988e+003
3.485280e+002, 2.969932e+003
3.490101e+002, 2.977928e+003
3.494922e+002, 2.984148e+003
3.499743e+002, 2.990435e+003
3.504564e+002, 2.997416e+003
3.509385e+002, 3.005034e+003
3.514207e+002, 3.013116e+003
3.519028e+002, 3.021558e+003
3.523849e+002, 3.030301e+003
3.528670e+002, 3.039179e+003
3.533491e+002, 3.048368e+003
3.538312e+002, 3.057461e+003
3.543134e+002, 3.064891e+003
3.547955e+002, 3.072783e+003
3.552776e+002, 3.084732e+003
3.557597e+002, 3.101808e+003
3.562418e+002, 3.120173e+003
3.567239e+002, 3.133194e+003
3.572061e+002, 3.136603e+003
3.576882e+002, 3.143232e+003
3.581703e+002, 3.154244e+003
3.586524e+002, 3.167259e+003
3.591345e+002, 3.181099e+003
3.596166e+002, 3.195416e+003
3.600987e+002, 3.209855e+003
3.605808e+002, 3.224232e+003
3.610630e+002, 3.238616e+003
3.615451e+002, 3.252136e+003
3.620272e+002, 3.265325e+003
3.625093e+002, 3.277135e+003
3.629914e+002, 3.286689e+003
3.634735e+002, 3.294666e+003
3.639557e+002, 3.302249e+003
3.644378e+002, 3.310240e+003
3.649199e+002, 3.318235e+003
3.654020e+002, 3.324548e+003
3.658841e+002, 3.329473e+003
3.663662e+002, 3.331993e+003
3.668484e+002, 3.330805e+003
3.673305e+002, 3.327933e+003
3.678126e+002, 3.325692e+003
3.682947e+002, 3.324726e+003
3.687768e+002, 3.323324e+003
3.692589e+002, 3.318654e+003
3.697411e+002, 3.309760e+003
3.702232e+002, 3.300087e+003
3.707053e+002, 3.288991e+003
3.711874e+002, 3.277808e+003
3.716695e+002, 3.267156e+003
3.721516e+002, 3.257059e+003
3.726338e+002, 3.246878e+003
3.731159e+002, 3.235520e+003
3.735980e+002, 3.223126e+003
3.740801e+002, 3.214230e+003
3.745622e+002, 3.211140e+003
3.750443e+002, 3.208962e+003
3.755265e+002, 3.206564e+003
3.760086e+002, 3.203826e+003
3.764907e+002, 3.200527e+003
3.769728e+002, 3.196334e+003
3.774549e+002, 3.192004e+003
3.779370e+002, 3.189075e+003
3.784192e+002, 3.187473e+003
3.789013e+002, 3.187561e+003
3.793834e+002, 3.190802e+003
3.798655e+002, 3.194932e+003
3.803476e+002, 3.197875e+003
3.808297e+002, 3.199254e+003
3.813119e+002, 3.201202e+003
3.817940e+002, 3.206930e+003
3.822761e+002, 3.216328e+003
3.827582e+002, 3.222613e+003
3.832403e+002, 3.222216e+003
3.837224e+002, 3.221735e+003
3.842046e+002, 3.225535e+003
3.846867e+002, 3.232955e+003
3.851688e+002, 3.241557e+003
3.856509e+002, 3.249784e+003
3.861330e+002, 3.258263e+003
3.866151e+002, 3.268590e+003
3.870973e+002, 3.280961e+003
3.875794e+002, 3.294324e+003
3.880615e+002, 3.308088e+003
3.885436e+002, 3.322542e+003
3.890257e+002, 3.338210e+003
3.895078e+002, 3.355141e+003
3.899900e+002, 3.373351e+003
3.904721e+002, 3.393397e+003
3.909542e+002, 3.415085e+003
3.914363e+002, 3.436040e+003
3.919184e+002, 3.454451e+003
3.924005e+002, 3.473154e+003
3.928827e+002, 3.496513e+003
3.933648e+002, 3.524791e+003
3.938469e+002, 3.552992e+003
3.943290e+002, 3.577783e+003
3.948111e+002, 3.601714e+003
3.952932e+002, 3.628582e+003
3.957754e+002, 3.659267e+003
3.962575e+002, 3.691911e+003
3.967396e+002, 3.725309e+003
3.972217e+002, 3.759583e+003
3.977038e+002, 3.795106e+003
3.981859e+002, 3.830828e+003
3.986681e+002, 3.869146e+003
3.991501e+002, 3.912778e+003
3.996323e+002, 3.960678e+003
4.001144e+002, 4.008763e+003
4.005965e+002, 4.054500e+003
4.010786e+002, 4.099824e+003
4.015607e+002, 4.150107e+003
4.020428e+002, 4.207390e+003
4.025250e+002, 4.265162e+003
4.030071e+002, 4.322794e+003
4.034892e+002, 4.380144e+003
4.039713e+002, 4.437188e+003
4.044534e+002, 4.493591e+003
4.049355e+002, 4.548700e+003
4.054177e+002, 4.602366e+003
4.058998e+002, 4.655483e+003
4.063819e+002, 4.699397e+003
4.068640e+002, 4.731519e+003
4.073461e+002, 4.758101e+003
4.078282e+002, 4.782000e+003
4.083104e+002, 4.803034e+003
4.087925e+002, 4.820457e+003
4.092746e+002, 4.834208e+003
4.097567e+002, 4.843473e+003
4.102388e+002, 4.844758e+003
4.107209e+002, 4.833055e+003
4.112031e+002, 4.819107e+003
4.116852e+002, 4.801073e+003
4.121673e+002, 4.782730e+003
4.126494e+002, 4.766854e+003
4.131315e+002, 4.754441e+003
4.136136e+002, 4.745826e+003
4.140958e+002, 4.741301e+003
4.145779e+002, 4.740606e+003
4.150600e+002, 4.745123e+003
4.155421e+002, 4.756394e+003
4.160242e+002, 4.771662e+003
4.165063e+002, 4.790331e+003
4.169885e+002, 4.812352e+003
4.174706e+002, 4.837377e+003
4.179527e+002, 4.865126e+003
4.184348e+002, 4.895981e+003
4.189169e+002, 4.931791e+003
4.193990e+002, 4.972751e+003
4.198812e+002, 5.018116e+003
4.203633e+002, 5.070263e+003
4.208454e+002, 5.124727e+003
4.213275e+002, 5.176972e+003
4.218096e+002, 5.225776e+003
4.222917e+002, 5.274084e+003
4.227739e+002, 5.324430e+003
4.232560e+002, 5.376701e+003
4.237381e+002, 5.430887e+003
4.242202e+002, 5.486986e+003
4.247023e+002, 5.544974e+003
4.251844e+002, 5.605668e+003
4.256666e+002, 5.668328e+003
4.261487e+002, 5.730839e+003
4.266308e+002, 5.791803e+003
4.271129e+002, 5.852438e+003
4.275950e+002, 5.913487e+003
4.280771e+002, 5.975208e+003
4.285593e+002, 6.039568e+003
4.290414e+002, 6.108759e+003
4.295235e+002, 6.180591e+003
4.300056e+002, 6.249804e+003
4.304877e+002, 6.316169e+003
4.309698e+002, 6.380640e+003
4.314520e+002, 6.442295e+003
4.319341e+002, 6.502323e+003
4.324162e+002, 6.563781e+003
4.328983e+002, 6.627292e+003
4.333804e+002, 6.691202e+003
4.338625e+002, 6.753693e+003
4.343447e+002, 6.814532e+003
4.348268e+002, 6.874337e+003
4.353089e+002, 6.932956e+003
4.357910e+002, 6.990681e+003
4.362731e+002, 7.047657e+003
4.367552e+002, 7.103694e+003
4.372374e+002, 7.158461e+003
4.377195e+002, 7.211868e+003
4.382016e+002, 7.263554e+003
4.386837e+002, 7.311219e+003
4.391658e+002, 7.353202e+003
4.396479e+002, 7.393304e+003
4.401301e+002, 7.431135e+003
4.406122e+002, 7.467442e+003
4.410943e+002, 7.503929e+003
4.415764e+002, 7.540193e+003
4.420585e+002, 7.572926e+003
4.425406e+002, 7.597901e+003
4.430227e+002, 7.614536e+003
4.435049e+002, 7.628302e+003
4.439870e+002, 7.639096e+003
4.444691e+002, 7.647064e+003
4.449512e+002, 7.653542e+003
4.454333e+002, 7.656872e+003
4.459154e+002, 7.654434e+003
4.463976e+002, 7.644799e+003
4.468797e+002, 7.628924e+003
4.473618e+002, 7.608681e+003
4.478439e+002, 7.583711e+003
4.483260e+002, 7.555336e+003
4.488081e+002, 7.524377e+003
4.492903e+002, 7.489339e+003
4.497724e+002, 7.449320e+003
4.502545e+002, 7.404098e+003
4.507366e+002, 7.353271e+003
4.512187e+002, 7.295853e+003
4.517008e+002, 7.232403e+003
4.521830e+002, 7.167027e+003
4.526651e+002, 7.100943e+003
4.531472e+002, 7.030742e+003
4.536293e+002, 6.952795e+003
4.541114e+002, 6.869781e+003
4.545935e+002, 6.784592e+003
4.550757e+002, 6.697698e+003
4.555578e+002, 6.609671e+003
4.560399e+002, 6.520746e+003
4.565220e+002, 6.431046e+003
4.570041e+002, 6.339208e+003
4.574862e+002, 6.244245e+003
4.579684e+002, 6.148052e+003
4.584505e+002, 6.052638e+003
4.589326e+002, 5.958069e+003
4.594147e+002, 5.864051e+003
4.598968e+002, 5.771200e+003
4.603789e+002, 5.678832e+003
4.608611e+002, 5.585598e+003
4.613432e+002, 5.491979e+003
4.618253e+002, 5.400475e+003
4.623074e+002, 5.311813e+003
4.627895e+002, 5.226583e+003
4.632716e+002, 5.145194e+003
4.637538e+002, 5.070221e+003
4.642359e+002, 4.995421e+003
4.647180e+002, 4.916854e+003
4.652001e+002, 4.839151e+003
4.656822e+002, 4.767220e+003
4.661643e+002, 4.701692e+003
4.666465e+002, 4.640922e+003
4.671286e+002, 4.583581e+003
4.676107e+002, 4.529554e+003
4.680928e+002, 4.475486e+003
4.685749e+002, 4.420165e+003
4.690570e+002, 4.366011e+003
4.695392e+002, 4.312507e+003
4.700213e+002, 4.261015e+003
4.705034e+002, 4.214132e+003
4.709855e+002, 4.173036e+003
4.714676e+002, 4.135714e+003
4.719497e+002, 4.098699e+003
4.724319e+002, 4.061787e+003
4.729140e+002, 4.026342e+003
4.733961e+002, 3.992578e+003
4.738782e+002, 3.960678e+003
4.743603e+002, 3.930720e+003
4.748424e+002, 3.902888e+003
4.753246e+002, 3.876992e+003
4.758067e+002, 3.853336e+003
4.762888e+002, 3.831624e+003
4.767709e+002, 3.810711e+003
4.772530e+002, 3.790487e+003
4.777351e+002, 3.772396e+003
4.782173e+002, 3.757845e+003
4.786994e+002, 3.745578e+003
4.791815e+002, 3.733770e+003
4.796636e+002, 3.722647e+003
4.801457e+002, 3.710950e+003
4.806278e+002, 3.697974e+003
4.811100e+002, 3.683999e+003
4.815920e+002, 3.669721e+003
4.820742e+002, 3.655293e+003
4.825563e+002, 3.639678e+003
4.830384e+002, 3.621875e+003
4.835205e+002, 3.601793e+003
4.840026e+002, 3.580229e+003
4.844847e+002, 3.558786e+003
4.849669e+002, 3.534300e+003
4.854490e+002, 3.505578e+003
4.859311e+002, 3.472758e+003
4.864132e+002, 3.436059e+003
4.868953e+002, 3.395472e+003
4.873774e+002, 3.351587e+003
4.878596e+002, 3.305581e+003
4.883417e+002, 3.256404e+003
4.888238e+002, 3.206926e+003
4.893059e+002, 3.156347e+003
4.897880e+002, 3.106402e+003
4.902701e+002, 3.057544e+003
4.907523e+002, 3.010196e+003
4.912344e+002, 2.965044e+003
4.917165e+002, 2.922612e+003
4.921986e+002, 2.882866e+003
4.926807e+002, 2.845751e+003
4.931628e+002, 2.811523e+003
4.936450e+002, 2.779513e+003
4.941271e+002, 2.749182e+003
4.946092e+002, 2.721621e+003
4.950913e+002, 2.698780e+003
4.955734e+002, 2.680284e+003
4.960555e+002, 2.662225e+003
4.965377e+002, 2.641624e+003
4.970198e+002, 2.619584e+003
4.975019e+002, 2.598978e+003
4.979840e+002, 2.579710e+003
4.984661e+002, 2.562537e+003
4.989482e+002, 2.548186e+003
4.994304e+002, 2.536037e+003
4.999125e+002, 2.524890e+003
5.003946e+002, 2.514949e+003
5.008767e+002, 2.505276e+003
5.013588e+002, 2.494875e+003
5.018409e+002, 2.484507e+003
5.023231e+002, 2.475445e+003
5.028052e+002, 2.467985e+003
5.032873e+002, 2.461479e+003
5.037694e+002, 2.455501e+003
5.042515e+002, 2.450035e+003
5.047336e+002, 2.444183e+003
5.052158e+002, 2.436583e+003
5.056979e+002, 2.430158e+003
5.061800e+002, 2.426167e+003
5.066621e+002, 2.423940e+003
5.071442e+002, 2.422759e+003
5.076263e+002, 2.422294e+003
5.081085e+002, 2.421981e+003
5.085906e+002, 2.420884e+003
5.090727e+002, 2.418655e+003
5.095548e+002, 2.416864e+003
5.100369e+002, 2.415818e+003
5.105190e+002, 2.414887e+003
5.110012e+002, 2.413650e+003
5.114833e+002, 2.412369e+003
5.119654e+002, 2.411401e+003
5.124475e+002, 2.410774e+003
5.129296e+002, 2.411052e+003
5.134117e+002, 2.413597e+003
5.138939e+002, 2.418738e+003
5.143760e+002, 2.423741e+003
5.148581e+002, 2.428331e+003
5.153402e+002, 2.432276e+003
5.158223e+002, 2.434852e+003
5.163044e+002, 2.436388e+003
5.167866e+002, 2.438976e+003
5.172687e+002, 2.443742e+003
5.177508e+002, 2.449916e+003
5.182329e+002, 2.456902e+003
5.187150e+002, 2.464606e+003
5.191971e+002, 2.471934e+003
5.196793e+002, 2.478062e+003
5.201614e+002, 2.483879e+003
5.206435e+002, 2.491443e+003
5.211256e+002, 2.501219e+003
5.216077e+002, 2.511004e+003
5.220898e+002, 2.520429e+003
5.225720e+002, 2.529671e+003
5.230541e+002, 2.538163e+003
5.235362e+002, 2.546316e+003
5.240183e+002, 2.555709e+003
5.245004e+002, 2.567265e+003
5.249825e+002, 2.581136e+003
5.254647e+002, 2.598718e+003
5.259468e+002, 2.623458e+003
5.264289e+002, 2.646923e+003
5.269110e+002, 2.665602e+003
5.273931e+002, 2.684786e+003
5.278752e+002, 2.708938e+003
5.283574e+002, 2.738365e+003
5.288395e+002, 2.770160e+003
5.293216e+002, 2.801932e+003
5.298037e+002, 2.833817e+003
5.302858e+002, 2.867488e+003
5.307679e+002, 2.903996e+003
5.312501e+002, 2.939624e+003
5.317322e+002, 2.974760e+003
5.322143e+002, 3.007138e+003
5.326964e+002, 3.035360e+003
5.331785e+002, 3.059638e+003
5.336606e+002, 3.076229e+003
5.341428e+002, 3.084539e+003
5.346249e+002, 3.083161e+003
5.351070e+002, 3.068293e+003
5.355891e+002, 3.039144e+003
5.360712e+002, 3.000088e+003
5.365533e+002, 2.952818e+003
5.370355e+002, 2.898063e+003
5.375176e+002, 2.842826e+003
5.379997e+002, 2.782693e+003
5.384818e+002, 2.727272e+003
5.389639e+002, 2.678937e+003
5.394460e+002, 2.636707e+003
5.399282e+002, 2.599432e+003
5.404103e+002, 2.566838e+003
5.408924e+002, 2.538864e+003
5.413745e+002, 2.515815e+003
5.418566e+002, 2.497753e+003
5.423387e+002, 2.482462e+003
5.428209e+002, 2.470210e+003
5.433029e+002, 2.460821e+003
5.437850e+002, 2.455812e+003
5.442672e+002, 2.452921e+003
5.447493e+002, 2.449362e+003
5.452314e+002, 2.444464e+003
5.457135e+002, 2.440456e+003
5.461956e+002, 2.440052e+003
5.466777e+002, 2.443015e+003
5.471599e+002, 2.446682e+003
5.476420e+002, 2.451160e+003
5.481241e+002, 2.455797e+003
5.486062e+002, 2.460173e+003
5.490883e+002, 2.464441e+003
5.495704e+002, 2.468786e+003
5.500526e+002, 2.472874e+003
5.505347e+002, 2.477792e+003
5.510168e+002, 2.484679e+003
5.514989e+002, 2.492823e+003
5.519810e+002, 2.500848e+003
5.524631e+002, 2.508469e+003
5.529453e+002, 2.515847e+003
5.534274e+002, 2.523031e+003
5.539095e+002, 2.530041e+003
5.543916e+002, 2.537521e+003
5.548737e+002, 2.545714e+003
5.553558e+002, 2.553990e+003
5.558380e+002, 2.561786e+003
5.563201e+002, 2.569792e+003
5.568022e+002, 2.578769e+003
5.572843e+002, 2.588943e+003
5.577664e+002, 2.599863e+003
5.582485e+002, 2.610963e+003
5.587307e+002, 2.622128e+003
5.592128e+002, 2.634997e+003
5.596949e+002, 2.650978e+003
5.601770e+002, 2.666520e+003
5.606591e+002, 2.679880e+003
5.611412e+002, 2.692459e+003
5.616234e+002, 2.706130e+003
5.621055e+002, 2.721385e+003
5.625876e+002, 2.737098e+003
5.630697e+002, 2.751733e+003
5.635518e+002, 2.766004e+003
5.640339e+002, 2.782577e+003
5.645161e+002, 2.802171e+003
5.649982e+002, 2.822307e+003
5.654803e+002, 2.840943e+003
5.659624e+002, 2.858718e+003
5.664445e+002, 2.878388e+003
5.669266e+002, 2.901435e+003
5.674088e+002, 2.924230e+003
5.678909e+002, 2.944654e+003
5.683730e+002, 2.964538e+003
5.688551e+002, 2.986568e+003
5.693372e+002, 3.010943e+003
5.698193e+002, 3.036115e+003
5.703015e+002, 3.060231e+003
5.707836e+002, 3.083514e+003
5.712657e+002, 3.108541e+003
5.717478e+002, 3.137004e+003
5.722299e+002, 3.165114e+003
5.727120e+002, 3.191923e+003
5.731942e+002, 3.218456e+003
5.736763e+002, 3.245551e+003
5.741584e+002, 3.273493e+003
5.746405e+002, 3.302062e+003
5.751226e+002, 3.330785e+003
5.756047e+002, 3.359961e+003
5.760869e+002, 3.390960e+003
5.765690e+002, 3.423915e+003
5.770511e+002, 3.457973e+003
5.775332e+002, 3.492551e+003
5.780153e+002, 3.527837e+003
5.784974e+002, 3.563784e+003
5.789796e+002, 3.600311e+003
5.794617e+002, 3.637879e+003
5.799438e+002, 3.677646e+003
5.804259e+002, 3.717943e+003
5.809080e+002, 3.756759e+003
5.813901e+002, 3.794121e+003
5.818723e+002, 3.831965e+003
5.823544e+002, 3.871337e+003
5.828365e+002, 3.912492e+003
5.833186e+002, 3.956457e+003
5.838007e+002, 4.004958e+003
5.842828e+002, 4.054137e+003
5.847650e+002, 4.105591e+003
5.852471e+002, 4.156513e+003
5.857292e+002, 4.204308e+003
5.862113e+002, 4.249870e+003
5.866934e+002, 4.296428e+003
5.871755e+002, 4.346233e+003
5.876577e+002, 4.397778e+003
5.881398e+002, 4.446767e+003
5.886219e+002, 4.492777e+003
5.891040e+002, 4.539771e+003
5.895861e+002, 4.589901e+003
5.900682e+002, 4.640260e+003
5.905504e+002, 4.687683e+003
5.910325e+002, 4.732547e+003
5.915146e+002, 4.776853e+003
5.919967e+002, 4.820474e+003
5.924788e+002, 4.864217e+003
5.929609e+002, 4.907972e+003
5.934431e+002, 4.951917e+003
5.939252e+002, 4.997381e+003
5.944073e+002, 5.044840e+003
5.948894e+002, 5.092311e+003
5.953715e+002, 5.136978e+003
5.958536e+002, 5.177871e+003
5.963358e+002, 5.220750e+003
5.968179e+002, 5.268424e+003
5.973000e+002, 5.314655e+003
5.977821e+002, 5.356735e+003
5.982642e+002, 5.396357e+003
5.987463e+002, 5.436113e+003
5.992285e+002, 5.476963e+003
5.997106e+002, 5.517924e+003
6.001927e+002, 5.557891e+003
6.006748e+002, 5.597037e+003
6.011569e+002, 5.636522e+003
6.016390e+002, 5.676528e+003
6.021212e+002, 5.716242e+003
6.026033e+002, 5.756003e+003
6.030854e+002, 5.794816e+003
6.035675e+002, 5.830150e+003
6.040496e+002, 5.861412e+003
6.045317e+002, 5.890534e+003
6.050139e+002, 5.918941e+003
6.054960e+002, 5.945818e+003
6.059781e+002, 5.969440e+003
6.064602e+002, 5.989788e+003
6.069423e+002, 6.009165e+003
6.074244e+002, 6.029514e+003
6.079066e+002, 6.049727e+003
6.083887e+002, 6.064885e+003
6.088708e+002, 6.073313e+003
6.093529e+002, 6.078617e+003
6.098350e+002, 6.081220e+003
6.103171e+002, 6.080704e+003
6.107993e+002, 6.076287e+003
6.112814e+002, 6.068415e+003
6.117635e+002, 6.058617e+003
6.122456e+002, 6.048143e+003
6.127277e+002, 6.035824e+003
6.132098e+002, 6.019000e+003
6.136920e+002, 5.997391e+003
6.141741e+002, 5.973264e+003
6.146562e+002, 5.947780e+003
6.151383e+002, 5.918865e+003
6.156204e+002, 5.883643e+003
6.161025e+002, 5.842786e+003
6.165847e+002, 5.799646e+003
6.170668e+002, 5.754924e+003
6.175489e+002, 5.708157e+003
6.180310e+002, 5.658580e+003
6.185131e+002, 5.606848e+003
6.189952e+002, 5.554163e+003
6.194774e+002, 5.500873e+003
6.199595e+002, 5.446329e+003
6.204416e+002, 5.389859e+003
6.209237e+002, 5.331218e+003
6.214058e+002, 5.271262e+003
6.218879e+002, 5.210333e+003
6.223701e+002, 5.147448e+003
6.228522e+002, 5.080796e+003
6.233343e+002, 5.013328e+003
6.238164e+002, 4.948329e+003
6.242985e+002, 4.886674e+003
6.247806e+002, 4.826708e+003
6.252628e+002, 4.767716e+003
6.257448e+002, 4.709609e+003
6.262269e+002, 4.652107e+003
6.267090e+002, 4.594975e+003
6.271912e+002, 4.540301e+003
6.276733e+002, 4.489533e+003
6.281554e+002, 4.440982e+003
6.286375e+002, 4.390399e+003
6.291196e+002, 4.336912e+003
6.296017e+002, 4.286311e+003
6.300839e+002, 4.240586e+003
6.305660e+002, 4.196773e+003
6.310481e+002, 4.152672e+003
6.315302e+002, 4.108583e+003
6.320123e+002, 4.065460e+003
6.324944e+002, 4.023931e+003
6.329766e+002, 3.983342e+003
6.334587e+002, 3.942960e+003
6.339408e+002, 3.902774e+003
6.344229e+002, 3.862050e+003
6.349050e+002, 3.822403e+003
6.353871e+002, 3.780212e+003
6.358693e+002, 3.732909e+003
6.363514e+002, 3.682752e+003
6.368335e+002, 3.632738e+003
6.373156e+002, 3.583492e+003
6.377977e+002, 3.535742e+003
6.382798e+002, 3.491283e+003
6.387620e+002, 3.448703e+003
6.392441e+002, 3.404596e+003
6.397262e+002, 3.358812e+003
6.402083e+002, 3.312796e+003
6.406904e+002, 3.267283e+003
6.411725e+002, 3.222528e+003
6.416547e+002, 3.178931e+003
6.421368e+002, 3.135247e+003
6.426189e+002, 3.095021e+003
6.431010e+002, 3.060015e+003
6.435831e+002, 3.026948e+003
6.440652e+002, 2.993223e+003
6.445474e+002, 2.959579e+003
6.450295e+002, 2.928331e+003
6.455116e+002, 2.901041e+003
6.459937e+002, 2.875777e+003
6.464758e+002, 2.849149e+003
6.469579e+002, 2.821188e+003
6.474401e+002, 2.795442e+003
6.479222e+002, 2.772821e+003
6.484043e+002, 2.751923e+003
6.488864e+002, 2.732543e+003
6.493685e+002, 2.714102e+003
6.498506e+002, 2.695274e+003
6.503328e+002, 2.675142e+003
6.508149e+002, 2.655929e+003
6.512970e+002, 2.639449e+003
6.517791e+002, 2.623931e+003
6.522612e+002, 2.607537e+003
6.527433e+002, 2.589988e+003
6.532255e+002, 2.571759e+003
6.537076e+002, 2.553195e+003
6.541897e+002, 2.534249e+003
6.546718e+002, 2.514452e+003
6.551539e+002, 2.493337e+003
6.556360e+002, 2.472586e+003
6.561182e+002, 2.453453e+003
6.566003e+002, 2.433771e+003
6.570824e+002, 2.411719e+003
6.575645e+002, 2.387988e+003
6.580466e+002, 2.365042e+003
6.585287e+002, 2.344021e+003
6.590109e+002, 2.323575e+003
6.594930e+002, 2.301904e+003
6.599751e+002, 2.279833e+003
6.604572e+002, 2.259463e+003
6.609393e+002, 2.241313e+003
6.614214e+002, 2.224479e+003
6.619036e+002, 2.208146e+003
6.623857e+002, 2.192334e+003
6.628678e+002, 2.177522e+003
6.633499e+002, 2.164486e+003
6.638320e+002, 2.151503e+003
6.643141e+002, 2.137547e+003
6.647963e+002, 2.124237e+003
6.652784e+002, 2.112952e+003
6.657605e+002, 2.103568e+003
6.662426e+002, 2.095115e+003
6.667247e+002, 2.087152e+003
6.672068e+002, 2.079417e+003
6.676890e+002, 2.071618e+003
6.681711e+002, 2.063727e+003
6.686532e+002, 2.054341e+003
6.691353e+002, 2.042597e+003
6.696174e+002, 2.030712e+003
6.700995e+002, 2.020950e+003
6.705817e+002, 2.013118e+003
6.710638e+002, 2.005223e+003
6.715459e+002, 1.997142e+003
6.720280e+002, 1.989093e+003
6.725101e+002, 1.980949e+003
6.729922e+002, 1.973056e+003
6.734744e+002, 1.965896e+003
6.739565e+002, 1.959419e+003
6.744386e+002, 1.953066e+003
6.749207e+002, 1.946418e+003
6.754028e+002, 1.939481e+003
6.758849e+002, 1.931968e+003
6.763671e+002, 1.923459e+003
6.768492e+002, 1.916313e+003
6.773313e+002, 1.911772e+003
6.778134e+002, 1.907821e+003
6.782955e+002, 1.902730e+003
6.787776e+002, 1.896856e+003
6.792598e+002, 1.891533e+003
6.797419e+002, 1.887821e+003
6.802240e+002, 1.883770e+003
6.807061e+002, 1.877216e+003
6.811882e+002, 1.869982e+003
6.816703e+002, 1.865283e+003
6.821525e+002, 1.863457e+003
6.826346e+002, 1.862067e+003
6.831167e+002, 1.859189e+003
6.835988e+002, 1.855016e+003
6.840809e+002, 1.850382e+003
6.845630e+002, 1.844869e+003
6.850452e+002, 1.839838e+003
6.855273e+002, 1.835714e+003
6.860094e+002, 1.831941e+003
6.864915e+002, 1.828193e+003
6.869736e+002, 1.824534e+003
6.874557e+002, 1.821243e+003
6.879379e+002, 1.818732e+003
6.884200e+002, 1.816072e+003
6.889021e+002, 1.812258e+003
6.893842e+002, 1.807695e+003
6.898663e+002, 1.803440e+003
6.903484e+002, 1.799643e+003
6.908306e+002, 1.795562e+003
6.913127e+002, 1.790378e+003
6.917948e+002, 1.784565e+003
6.922769e+002, 1.780483e+003
6.927590e+002, 1.779991e+003
6.932411e+002, 1.778282e+003
6.937233e+002, 1.775034e+003
6.942054e+002, 1.770734e+003
6.946875e+002, 1.765388e+003
6.951696e+002, 1.759253e+003
6.956517e+002, 1.752606e+003
6.961339e+002, 1.745141e+003
6.966160e+002, 1.738572e+003
6.970981e+002, 1.735619e+003
6.975802e+002, 1.735203e+003
6.980623e+002, 1.733236e+003
6.985444e+002, 1.729020e+003
6.990266e+002, 1.724789e+003
6.995087e+002, 1.722297e+003
6.999908e+002, 1.720872e+003
7.004729e+002, 1.717995e+003
7.009550e+002, 1.711870e+003
7.014371e+002, 1.707025e+003
7.019193e+002, 1.704772e+003
7.024014e+002, 1.702634e+003
7.028835e+002, 1.699148e+003
7.033656e+002, 1.694577e+003
7.038477e+002, 1.689597e+003
7.043298e+002, 1.684476e+003
7.048120e+002, 1.679555e+003
7.052941e+002, 1.675351e+003
7.057762e+002, 1.671793e+003
7.062583e+002, 1.668664e+003
7.067404e+002, 1.666083e+003
7.072225e+002, 1.662987e+003
7.077046e+002, 1.658481e+003
7.081867e+002, 1.653229e+003
7.086688e+002, 1.648972e+003
7.091509e+002, 1.646290e+003
7.096331e+002, 1.643043e+003
7.101152e+002, 1.638600e+003
7.105973e+002, 1.633985e+003
7.110794e+002, 1.629778e+003
7.115615e+002, 1.625837e+003
7.120436e+002, 1.621716e+003
7.125258e+002, 1.617241e+003
7.130079e+002, 1.613083e+003
7.134900e+002, 1.610555e+003
7.139721e+002, 1.609152e+003
7.144542e+002, 1.605780e+003
7.149363e+002, 1.600100e+003
7.154185e+002, 1.594111e+003
7.159006e+002, 1.588395e+003
7.163827e+002, 1.583276e+003
7.168648e+002, 1.579455e+003
7.173469e+002, 1.577143e+003
7.178290e+002, 1.574781e+003
7.183112e+002, 1.572974e+003
7.187933e+002, 1.570326e+003
7.192754e+002, 1.565841e+003
7.197575e+002, 1.560217e+003
7.202396e+002, 1.554140e+003
7.207217e+002, 1.547952e+003
7.212039e+002, 1.542261e+003
7.216860e+002, 1.537787e+003
7.221681e+002, 1.534255e+003
7.226502e+002, 1.530708e+003
7.231323e+002, 1.527157e+003
7.236144e+002, 1.523329e+003
7.240966e+002, 1.519048e+003
7.245787e+002, 1.514627e+003
7.250608e+002, 1.510548e+003
7.255429e+002, 1.506773e+003
7.260250e+002, 1.502661e+003
7.265071e+002, 1.497588e+003
7.269893e+002, 1.492873e+003
7.274714e+002, 1.488944e+003
7.279535e+002, 1.485646e+003
7.284356e+002, 1.483108e+003
7.289177e+002, 1.481139e+003
7.293998e+002, 1.479121e+003
7.298820e+002, 1.476783e+003
7.303641e+002, 1.473770e+003
7.308462e+002, 1.468409e+003
7.313283e+002, 1.460539e+003
7.318104e+002, 1.455595e+003
7.322925e+002, 1.455742e+003
7.327747e+002, 1.456382e+003
7.332568e+002, 1.453700e+003
7.337389e+002, 1.448247e+003
7.342210e+002, 1.443283e+003
7.347031e+002, 1.438453e+003
7.351852e+002, 1.434675e+003
7.356674e+002, 1.433232e+003
7.361495e+002, 1.432007e+003
7.366316e+002, 1.429208e+003
7.371137e+002, 1.425049e+003
7.375958e+002, 1.420470e+003
7.380779e+002, 1.415825e+003
7.385601e+002, 1.411674e+003
7.390422e+002, 1.409143e+003
7.395243e+002, 1.408035e+003
7.400064e+002, 1.406528e+003
7.404885e+002, 1.404621e+003
7.409706e+002, 1.401608e+003
7.414528e+002, 1.396513e+003
7.419349e+002, 1.390498e+003
7.424170e+002, 1.386189e+003
7.428991e+002, 1.383937e+003
7.433812e+002, 1.381995e+003
7.438633e+002, 1.381063e+003
7.443455e+002, 1.379553e+003
7.448276e+002, 1.376130e+003
7.453097e+002, 1.371779e+003
7.457918e+002, 1.368027e+003
7.462739e+002, 1.365315e+003
7.467560e+002, 1.362968e+003
7.472382e+002, 1.360582e+003
7.477203e+002, 1.358035e+003
7.482024e+002, 1.354535e+003
7.486845e+002, 1.350029e+003
7.491666e+002, 1.346949e+003
7.496487e+002, 1.346543e+003
7.501309e+002, 1.346796e+003
7.506130e+002, 1.345276e+003
7.510951e+002, 1.341856e+003
7.515772e+002, 1.338908e+003
7.520593e+002, 1.336763e+003
7.525414e+002, 1.334591e+003
7.530236e+002, 1.332007e+003
7.535057e+002, 1.329427e+003
7.539878e+002, 1.327212e+003
7.544699e+002, 1.325368e+003
7.549520e+002, 1.323746e+003
7.554341e+002, 1.322402e+003
7.559163e+002, 1.320904e+003
7.563984e+002, 1.318256e+003
7.568805e+002, 1.314850e+003
7.573626e+002, 1.312681e+003
7.578447e+002, 1.312146e+003
7.583268e+002, 1.311686e+003
7.588090e+002, 1.310316e+003
7.592911e+002, 1.308092e+003
7.597732e+002, 1.305094e+003
7.602553e+002, 1.299932e+003
7.607374e+002, 1.296608e+003
7.612195e+002, 1.296965e+003
7.617017e+002, 1.297143e+003
7.621838e+002, 1.294653e+003
7.626659e+002, 1.291044e+003
7.631480e+002, 1.289047e+003
7.636301e+002, 1.289477e+003
7.641122e+002, 1.290125e+003
7.645944e+002, 1.289701e+003
7.650765e+002, 1.288277e+003
7.655586e+002, 1.284956e+003
7.660407e+002, 1.280384e+003
7.665228e+002, 1.278469e+003
7.670049e+002, 1.280860e+003
7.674871e+002, 1.284363e+003
7.679692e+002, 1.284731e+003
7.684513e+002, 1.281817e+003
7.689334e+002, 1.279151e+003
7.694155e+002, 1.276526e+003
7.698976e+002, 1.274451e+003
7.703798e+002, 1.272891e+003
7.708619e+002, 1.271991e+003
7.713440e+002, 1.272295e+003
7.718261e+002, 1.273508e+003
7.723082e+002, 1.274214e+003
7.727903e+002, 1.273682e+003
7.732725e+002, 1.272826e+003
7.737546e+002, 1.272451e+003
7.742367e+002, 1.272101e+003
7.747188e+002, 1.270826e+003
7.752009e+002, 1.268694e+003
7.756830e+002, 1.266753e+003
7.761652e+002, 1.265665e+003
7.766473e+002, 1.265331e+003
7.771294e+002, 1.265902e+003
7.776115e+002, 1.267794e+003
7.780936e+002, 1.267656e+003
7.785757e+002, 1.264146e+003
7.790579e+002, 1.260681e+003
7.795400e+002, 1.259335e+003
7.800221e+002, 1.259104e+003
7.805042e+002, 1.258218e+003
7.809863e+002, 1.256359e+003
7.814684e+002, 1.255146e+003
7.819506e+002, 1.255476e+003
7.824327e+002, 1.256060e+003
7.829148e+002, 1.256075e+003
7.833969e+002, 1.255765e+003
7.838790e+002, 1.255637e+003
7.843611e+002, 1.255804e+003
7.848433e+002, 1.255963e+003
7.853254e+002, 1.255842e+003
7.858075e+002, 1.255492e+003
7.862896e+002, 1.254896e+003
7.867717e+002, 1.254041e+003
7.872538e+002, 1.254007e+003
7.877360e+002, 1.255416e+003
7.882181e+002, 1.256625e+003
7.887002e+002, 1.255970e+003
7.891823e+002, 1.253702e+003
7.896644e+002, 1.251985e+003
7.901465e+002, 1.251031e+003
7.906286e+002, 1.250287e+003
7.911107e+002, 1.250087e+003
7.915928e+002, 1.249745e+003
7.920750e+002, 1.248531e+003
7.925571e+002, 1.246882e+003
7.930392e+002, 1.245730e+003
7.935213e+002, 1.245422e+003
7.940034e+002, 1.245576e+003
7.944855e+002, 1.246437e+003
7.949677e+002, 1.247296e+003
7.954498e+002, 1.246377e+003
7.959319e+002, 1.243915e+003
7.964140e+002, 1.242078e+003
7.968961e+002, 1.241766e+003
7.973782e+002, 1.242377e+003
7.978604e+002, 1.243276e+003
7.983425e+002, 1.244521e+003
7.988246e+002, 1.244374e+003
7.993067e+002, 1.241767e+003
7.997888e+002, 1.239679e+003
8.002709e+002, 1.239332e+003
8.007531e+002, 1.239383e+003
8.012352e+002, 1.239058e+003
8.017173e+002, 1.238296e+003
8.021994e+002, 1.236964e+003
8.026815e+002, 1.234069e+003
8.031636e+002, 1.232006e+003
8.036458e+002, 1.232858e+003
8.041279e+002, 1.234720e+003
8.046100e+002, 1.235374e+003
8.050921e+002, 1.234805e+003
8.055742e+002, 1.233991e+003
8.060563e+002, 1.233444e+003
8.065385e+002, 1.233198e+003
8.070206e+002, 1.233745e+003
8.075027e+002, 1.234932e+003
8.079848e+002, 1.234134e+003
8.084669e+002, 1.230789e+003
8.089490e+002, 1.227805e+003
8.094312e+002, 1.226500e+003
8.099133e+002, 1.226177e+003
8.103954e+002, 1.225818e+003
8.108775e+002, 1.225346e+003
8.113596e+002, 1.225406e+003
8.118417e+002, 1.227307e+003
8.123239e+002, 1.228076e+003
8.128060e+002, 1.226229e+003
8.132881e+002, 1.223377e+003
8.137702e+002, 1.220537e+003
8.142523e+002, 1.218127e+003
8.147344e+002, 1.216934e+003
8.152166e+002, 1.217911e+003
8.156987e+002, 1.219053e+003
8.161808e+002, 1.217706e+003
8.166629e+002, 1.215081e+003
8.171450e+002, 1.214166e+003
8.176271e+002, 1.215095e+003
8.181093e+002, 1.215566e+003
8.185914e+002, 1.214186e+003
8.190735e+002, 1.212053e+003
8.195556e+002, 1.211495e+003
8.200377e+002, 1.212955e+003
8.205198e+002, 1.213062e+003
8.210020e+002, 1.211251e+003
8.214841e+002, 1.209106e+003
8.219662e+002, 1.206681e+003
8.224483e+002, 1.204591e+003
8.229304e+002, 1.203810e+003
8.234125e+002, 1.204281e+003
8.238947e+002, 1.204205e+003
8.243768e+002, 1.202775e+003
8.248589e+002, 1.201295e+003
8.253410e+002, 1.200106e+003
8.258231e+002, 1.199324e+003
8.263052e+002, 1.199351e+003
8.267874e+002, 1.199949e+003
8.272695e+002, 1.200316e+003
8.277516e+002, 1.200051e+003
8.282337e+002, 1.199137e+003
8.287158e+002, 1.197105e+003
8.291979e+002, 1.194355e+003
8.296801e+002, 1.192631e+003
8.301622e+002, 1.192094e+003
8.306443e+002, 1.192082e+003
8.311264e+002, 1.192517e+003
8.316085e+002, 1.192524e+003
8.320906e+002, 1.190422e+003
8.325728e+002, 1.185726e+003
8.330549e+002, 1.182477e+003
8.335370e+002, 1.181549e+003
8.340191e+002, 1.180851e+003
8.345012e+002, 1.180045e+003
8.349833e+002, 1.179169e+003
8.354655e+002, 1.178168e+003
8.359476e+002, 1.177105e+003
8.364297e+002, 1.176241e+003
8.369118e+002, 1.175864e+003
8.373939e+002, 1.175387e+003
8.378760e+002, 1.174279e+003
8.383582e+002, 1.173050e+003
8.388403e+002, 1.172657e+003
8.393224e+002, 1.172727e+003
8.398045e+002, 1.171726e+003
8.402866e+002, 1.168925e+003
8.407687e+002, 1.165698e+003
8.412509e+002, 1.163990e+003
8.417330e+002, 1.163559e+003
8.422151e+002, 1.163175e+003
8.426972e+002, 1.162849e+003
8.431793e+002, 1.162056e+003
8.436614e+002, 1.160539e+003
8.441436e+002, 1.158653e+003
8.446257e+002, 1.156677e+003
8.451078e+002, 1.154618e+003
8.455899e+002, 1.153362e+003
8.460720e+002, 1.153765e+003
8.465541e+002, 1.153701e+003
8.470363e+002, 1.152931e+003
8.475184e+002, 1.151692e+003
8.480005e+002, 1.149878e+003
8.484826e+002, 1.147750e+003
8.489647e+002, 1.145878e+003
8.494468e+002, 1.144481e+003
8.499290e+002, 1.143015e+003
8.504111e+002, 1.140807e+003
8.508932e+002, 1.138690e+003
8.513753e+002, 1.137792e+003
8.518574e+002, 1.137631e+003
8.523395e+002, 1.137069e+003
8.528217e+002, 1.135747e+003
8.533038e+002, 1.133854e+003
8.537859e+002, 1.131357e+003
8.542680e+002, 1.128656e+003
8.547501e+002, 1.127018e+003
8.552322e+002, 1.126443e+003
8.557144e+002, 1.126732e+003
8.561965e+002, 1.128149e+003
8.566786e+002, 1.129101e+003
8.571607e+002, 1.128364e+003
8.576428e+002, 1.126274e+003
8.581249e+002, 1.123841e+003
8.586071e+002, 1.120587e+003
8.590892e+002, 1.118032e+003
8.595713e+002, 1.116079e+003
8.600534e+002, 1.114899e+003
8.605355e+002, 1.115141e+003
8.610176e+002, 1.115839e+003
8.614998e+002, 1.115951e+003
8.619819e+002, 1.115334e+003
8.624640e+002, 1.114169e+003
8.629461e+002, 1.111618e+003
8.634282e+002, 1.109503e+003
8.639103e+002, 1.109823e+003
8.643925e+002, 1.110960e+003
8.648746e+002, 1.110575e+003
8.653567e+002, 1.108586e+003
8.658388e+002, 1.106268e+003
8.663209e+002, 1.104325e+003
8.668030e+002, 1.102698e+003
8.672852e+002, 1.101473e+003
8.677673e+002, 1.100533e+003
8.682494e+002, 1.098996e+003
8.687315e+002, 1.096779e+003
8.692136e+002, 1.095337e+003
8.696957e+002, 1.095406e+003
8.701779e+002, 1.096062e+003
8.706600e+002, 1.096203e+003
8.711421e+002, 1.095834e+003
8.716242e+002, 1.094392e+003
8.721063e+002, 1.090946e+003
8.725884e+002, 1.088065e+003
8.730705e+002, 1.086458e+003
8.735526e+002, 1.085286e+003
8.740347e+002, 1.084130e+003
8.745168e+002, 1.083023e+003
8.749990e+002, 1.082081e+003
8.754811e+002, 1.081373e+003
8.759632e+002, 1.080681e+003
8.764453e+002, 1.079861e+003
8.769274e+002, 1.079098e+003
8.774095e+002, 1.078634e+003
8.778917e+002, 1.078285e+003
8.783738e+002, 1.077755e+003
8.788559e+002, 1.076969e+003
8.793380e+002, 1.076005e+003
8.798201e+002, 1.074885e+003
8.803022e+002, 1.073663e+003
8.807844e+002, 1.072265e+003
8.812665e+002, 1.070830e+003
8.817486e+002, 1.069885e+003
8.822307e+002, 1.069506e+003
8.827128e+002, 1.069552e+003
8.831949e+002, 1.070011e+003
8.836771e+002, 1.070511e+003
8.841592e+002, 1.070221e+003
8.846413e+002, 1.069019e+003
8.851234e+002, 1.067870e+003
8.856055e+002, 1.066704e+003
8.860876e+002, 1.065759e+003
8.865698e+002, 1.065325e+003
8.870519e+002, 1.064919e+003
8.875340e+002, 1.063987e+003
8.880161e+002, 1.062550e+003
8.884982e+002, 1.060952e+003
8.889803e+002, 1.058449e+003
8.894625e+002, 1.056851e+003
8.899446e+002, 1.056933e+003
8.904267e+002, 1.057576e+003
8.909088e+002, 1.058548e+003
8.913909e+002, 1.059351e+003
8.918730e+002, 1.059022e+003
8.923552e+002, 1.057254e+003
8.928373e+002, 1.055502e+003
8.933194e+002, 1.054709e+003
8.938015e+002, 1.054390e+003
8.942836e+002, 1.054026e+003
8.947657e+002, 1.053739e+003
8.952479e+002, 1.054128e+003
8.957300e+002, 1.055109e+003
8.962121e+002, 1.055305e+003
8.966942e+002, 1.053484e+003
8.971763e+002, 1.050976e+003
8.976584e+002, 1.050806e+003
8.981406e+002, 1.052670e+003
8.986227e+002, 1.053542e+003
8.991048e+002, 1.053103e+003
8.995869e+002, 1.051984e+003
9.000690e+002, 1.050216e+003
9.005511e+002, 1.048660e+003
9.010333e+002, 1.048773e+003
9.015154e+002, 1.050678e+003
9.019975e+002, 1.051456e+003
9.024796e+002, 1.050627e+003
9.029617e+002, 1.049560e+003
9.034438e+002, 1.047946e+003
9.039260e+002, 1.046734e+003
9.044081e+002, 1.046701e+003
9.048902e+002, 1.047548e+003
9.053723e+002, 1.048685e+003
9.058544e+002, 1.050604e+003
9.063365e+002, 1.051219e+003
9.068187e+002, 1.048528e+003
9.073008e+002, 1.045969e+003
9.077829e+002, 1.046143e+003
9.082650e+002, 1.047447e+003
9.087471e+002, 1.047558e+003
9.092292e+002, 1.046159e+003
9.097114e+002, 1.044362e+003
9.101935e+002, 1.042175e+003
9.106756e+002, 1.040902e+003
9.111577e+002, 1.042937e+003
9.116398e+002, 1.046395e+003
9.121219e+002, 1.047823e+003
9.126041e+002, 1.047070e+003
9.130862e+002, 1.045436e+003
9.135683e+002, 1.043534e+003
9.140504e+002, 1.041767e+003
9.145325e+002, 1.040710e+003
9.150146e+002, 1.040272e+003
9.154968e+002, 1.039884e+003
9.159789e+002, 1.039553e+003
9.164610e+002, 1.039281e+003
9.169431e+002, 1.039078e+003
9.174252e+002, 1.038954e+003
9.179073e+002, 1.039033e+003
9.183895e+002, 1.039097e+003
9.188716e+002, 1.038166e+003
9.193537e+002, 1.035006e+003
9.198358e+002, 1.034076e+003
9.203179e+002, 1.037529e+003
9.208000e+002, 1.040101e+003
9.212822e+002, 1.039163e+003
9.217643e+002, 1.036643e+003
9.222464e+002, 1.034339e+003
9.227285e+002, 1.032295e+003
9.232106e+002, 1.030624e+003
9.236927e+002, 1.029525e+003
9.241749e+002, 1.028541e+003
9.246570e+002, 1.027299e+003
9.251391e+002, 1.026352e+003
9.256212e+002, 1.026295e+003
9.261033e+002, 1.026844e+003
9.265854e+002, 1.027552e+003
9.270676e+002, 1.028315e+003
9.275497e+002, 1.028420e+003
9.280318e+002, 1.026779e+003
9.285139e+002, 1.024822e+003
9.289960e+002, 1.023945e+003
9.294781e+002, 1.023862e+003
9.299603e+002, 1.024207e+003
9.304424e+002, 1.024727e+003
9.309245e+002, 1.024655e+003
9.314066e+002, 1.023390e+003
9.318887e+002, 1.021942e+003
9.323708e+002, 1.022240e+003
9.328530e+002, 1.023751e+003
9.333351e+002, 1.024136e+003
9.338172e+002, 1.023333e+003
9.342993e+002, 1.022659e+003
9.347814e+002, 1.022616e+003
9.352635e+002, 1.022649e+003
9.357457e+002, 1.022075e+003
9.362278e+002, 1.021098e+003
9.367099e+002, 1.021026e+003
9.371920e+002, 1.022062e+003
9.376741e+002, 1.023102e+003
9.381563e+002, 1.024012e+003
9.386384e+002, 1.025007e+003
9.391205e+002, 1.026742e+003
9.396026e+002, 1.028193e+003
9.400847e+002, 1.027208e+003
9.405668e+002, 1.023116e+003
9.410490e+002, 1.020584e+003
9.415311e+002, 1.020192e+003
9.420132e+002, 1.020500e+003
9.424953e+002, 1.021881e+003
9.429774e+002, 1.023307e+003
9.434595e+002, 1.023772e+003
9.439417e+002, 1.023719e+003
9.444238e+002, 1.024339e+003
9.449059e+002, 1.025929e+003
9.453880e+002, 1.027958e+003
9.458701e+002, 1.031006e+003
9.463522e+002, 1.033634e+003
9.468344e+002, 1.034331e+003
9.473165e+002, 1.034309e+003
9.477986e+002, 1.035318e+003
9.482807e+002, 1.037443e+003
9.487628e+002, 1.039479e+003
9.492449e+002, 1.040671e+003
9.497271e+002, 1.041841e+003
9.502092e+002, 1.044068e+003
9.506913e+002, 1.046618e+003
9.511734e+002, 1.048065e+003
9.516555e+002, 1.048775e+003
9.521376e+002, 1.050096e+003
9.526198e+002, 1.052523e+003
9.531019e+002, 1.055973e+003
9.535840e+002, 1.060687e+003
9.540661e+002, 1.065996e+003
9.545482e+002, 1.070216e+003
9.550303e+002, 1.073503e+003
9.555124e+002, 1.076692e+003
9.559945e+002, 1.079924e+003
9.564766e+002, 1.084092e+003
9.569587e+002, 1.089835e+003
9.574409e+002, 1.095964e+003
9.579230e+002, 1.100317e+003
9.584051e+002, 1.102980e+003
9.588872e+002, 1.107489e+003
9.593693e+002, 1.114449e+003
9.598514e+002, 1.120658e+003
9.603336e+002, 1.125096e+003
9.608157e+002, 1.129373e+003
9.612978e+002, 1.134608e+003
9.617799e+002, 1.140560e+003
9.622620e+002, 1.146517e+003
9.627441e+002, 1.152222e+003
9.632263e+002, 1.158710e+003
9.637084e+002, 1.166188e+003
9.641905e+002, 1.174161e+003
9.646726e+002, 1.183054e+003
9.651547e+002, 1.191909e+003
9.656368e+002, 1.200025e+003
9.661190e+002, 1.207428e+003
9.666011e+002, 1.214247e+003
9.670832e+002, 1.219817e+003
9.675653e+002, 1.226234e+003
9.680474e+002, 1.234776e+003
9.685295e+002, 1.243389e+003
9.690117e+002, 1.250972e+003
9.694938e+002, 1.257847e+003
9.699759e+002, 1.264384e+003
9.704580e+002, 1.270690e+003
9.709401e+002, 1.276878e+003
9.714222e+002, 1.283178e+003
9.719044e+002, 1.289039e+003
9.723865e+002, 1.293326e+003
9.728686e+002, 1.297616e+003
9.733507e+002, 1.304204e+003
9.738328e+002, 1.312055e+003
9.743149e+002, 1.318380e+003
9.747971e+002, 1.322465e+003
9.752792e+002, 1.326440e+003
9.757613e+002, 1.332007e+003
9.762434e+002, 1.338317e+003
9.767255e+002, 1.344088e+003
9.772076e+002, 1.349770e+003
9.776898e+002, 1.356646e+003
9.781719e+002, 1.364618e+003
9.786540e+002, 1.372026e+003
9.791361e+002, 1.378127e+003
9.796182e+002, 1.384481e+003
9.801003e+002, 1.393124e+003
9.805825e+002, 1.403579e+003
9.810646e+002, 1.413973e+003
9.815467e+002, 1.424395e+003
9.820288e+002, 1.436217e+003
9.825109e+002, 1.449656e+003
9.829930e+002, 1.462114e+003
9.834752e+002, 1.471736e+003
9.839573e+002, 1.479904e+003
9.844394e+002, 1.489385e+003
9.849215e+002, 1.500181e+003
9.854036e+002, 1.509879e+003
9.858857e+002, 1.518499e+003
9.863679e+002, 1.525914e+003
9.868500e+002, 1.532266e+003
9.873321e+002, 1.536872e+003
9.878142e+002, 1.538952e+003
9.882963e+002, 1.539066e+003
9.887784e+002, 1.539098e+003
9.892606e+002, 1.539644e+003
9.897427e+002, 1.537896e+003
9.902248e+002, 1.533020e+003
9.907069e+002, 1.527368e+003
9.911890e+002, 1.520894e+003
9.916711e+002, 1.514757e+003
9.921533e+002, 1.510549e+003
9.926354e+002, 1.507777e+003
9.931175e+002, 1.503528e+003
9.935996e+002, 1.497032e+003
9.940817e+002, 1.490488e+003
9.945638e+002, 1.482191e+003
9.950460e+002, 1.475891e+003
9.955281e+002, 1.474517e+003
9.960102e+002, 1.474850e+003
9.964923e+002, 1.472985e+003
9.969744e+002, 1.469259e+003
9.974565e+002, 1.467595e+003
9.979387e+002, 1.469671e+003
9.984208e+002, 1.472286e+003
9.989029e+002, 1.474249e+003
9.993850e+002, 1.476916e+003
9.998671e+002, 1.481755e+003
1.000349e+003, 1.487489e+003
1.000831e+003, 1.492152e+003
1.001313e+003, 1.495591e+003
1.001796e+003, 1.499290e+003
1.002278e+003, 1.504655e+003
1.002760e+003, 1.509177e+003
1.003242e+003, 1.510473e+003
1.003724e+003, 1.511177e+003
1.004206e+003, 1.514480e+003
1.004688e+003, 1.518902e+003
1.005170e+003, 1.521119e+003
1.005653e+003, 1.520443e+003
1.006135e+003, 1.519158e+003
1.006617e+003, 1.519177e+003
1.007099e+003, 1.518537e+003
1.007581e+003, 1.515137e+003
1.008063e+003, 1.510095e+003
1.008545e+003, 1.504562e+003
1.009027e+003, 1.498911e+003
1.009509e+003, 1.493276e+003
1.009992e+003, 1.487831e+003
1.010474e+003, 1.483590e+003
1.010956e+003, 1.481226e+003
1.011438e+003, 1.480869e+003
1.011920e+003, 1.482861e+003
1.012402e+003, 1.487000e+003
1.012884e+003, 1.492391e+003
1.013366e+003, 1.499325e+003
1.013849e+003, 1.509463e+003
1.014331e+003, 1.523572e+003
1.014813e+003, 1.540894e+003
1.015295e+003, 1.560205e+003
1.015777e+003, 1.582414e+003
1.016259e+003, 1.609734e+003
1.016741e+003, 1.642073e+003
1.017223e+003, 1.677860e+003
1.017705e+003, 1.717055e+003
1.018188e+003, 1.763071e+003
1.018670e+003, 1.817629e+003
1.019152e+003, 1.879793e+003
1.019634e+003, 1.947998e+003
1.020116e+003, 2.022695e+003
1.020598e+003, 2.106703e+003
1.021080e+003, 2.199853e+003
1.021562e+003, 2.306127e+003
1.022044e+003, 2.426519e+003
1.022527e+003, 2.558009e+003
1.023009e+003, 2.699071e+003
1.023491e+003, 2.849746e+003
1.023973e+003, 3.012161e+003
1.024455e+003, 3.185861e+003
1.024937e+003, 3.360047e+003
1.025419e+003, 3.535233e+003
1.025901e+003, 3.702535e+003
1.026384e+003, 3.862871e+003
1.026866e+003, 4.007688e+003
1.027348e+003, 4.134198e+003
1.027830e+003, 4.237383e+003
1.028312e+003, 4.308289e+003
1.028794e+003, 4.347561e+003
1.029276e+003, 4.349038e+003
1.029758e+003, 4.311303e+003
1.030240e+003, 4.239634e+003
1.030723e+003, 4.130811e+003
1.031205e+003, 3.996832e+003
1.031687e+003, 3.840816e+003
1.032169e+003, 3.669167e+003
1.032651e+003, 3.492646e+003
1.033133e+003, 3.309897e+003
1.033615e+003, 3.135858e+003
1.034097e+003, 2.971156e+003
1.034579e+003, 2.813117e+003
1.035062e+003, 2.661087e+003
1.035544e+003, 2.515529e+003
1.036026e+003, 2.377201e+003
1.036508e+003, 2.246840e+003
1.036990e+003, 2.126633e+003
1.037472e+003, 2.017122e+003
1.037954e+003, 1.915369e+003
1.038436e+003, 1.821249e+003
1.038919e+003, 1.736204e+003
1.039401e+003, 1.662050e+003
1.039883e+003, 1.595870e+003
1.040365e+003, 1.536745e+003
1.040847e+003, 1.484045e+003
1.041329e+003, 1.436985e+003
1.041811e+003, 1.395593e+003
1.042293e+003, 1.358821e+003
1.042776e+003, 1.327544e+003
1.043258e+003, 1.299387e+003
1.043740e+003, 1.274781e+003
1.044222e+003, 1.252287e+003
1.044704e+003, 1.231019e+003
1.045186e+003, 1.211292e+003
1.045668e+003, 1.193970e+003
1.046150e+003, 1.179266e+003
1.046632e+003, 1.166271e+003
1.047115e+003, 1.155620e+003
1.047597e+003, 1.145660e+003
1.048079e+003, 1.136333e+003
1.048561e+003, 1.127278e+003
1.049043e+003, 1.117388e+003
1.049525e+003, 1.107886e+003
1.050007e+003, 1.101396e+003
1.050489e+003, 1.098587e+003
1.050971e+003, 1.094626e+003
1.051454e+003, 1.087656e+003
1.051936e+003, 1.080718e+003
1.052418e+003, 1.074088e+003
1.052900e+003, 1.068402e+003
1.053382e+003, 1.064450e+003
1.053864e+003, 1.061613e+003
1.054346e+003, 1.058792e+003
1.054828e+003, 1.055814e+003
1.055311e+003, 1.053108e+003
1.055793e+003, 1.050979e+003
1.056275e+003, 1.048883e+003
1.056757e+003, 1.046249e+003
1.057239e+003, 1.043957e+003
1.057721e+003, 1.042864e+003
1.058203e+003, 1.042523e+003
1.058685e+003, 1.042171e+003
1.059167e+003, 1.041681e+003
1.059650e+003, 1.041050e+003
1.060132e+003, 1.040024e+003
1.060614e+003, 1.039199e+003
1.061096e+003, 1.039006e+003
1.061578e+003, 1.038890e+003
1.062060e+003, 1.038304e+003
1.062542e+003, 1.037543e+003
1.063024e+003, 1.036960e+003
1.063506e+003, 1.036670e+003
1.063989e+003, 1.037199e+003
1.064471e+003, 1.039794e+003
1.064953e+003, 1.041731e+003
1.065435e+003, 1.040852e+003
1.065917e+003, 1.039917e+003
1.066399e+003, 1.040890e+003
1.066881e+003, 1.043314e+003
1.067363e+003, 1.046952e+003
1.067846e+003, 1.051354e+003
1.068328e+003, 1.054016e+003
1.068810e+003, 1.052607e+003
1.069292e+003, 1.051757e+003
1.069774e+003, 1.053168e+003
1.070256e+003, 1.056295e+003
1.070738e+003, 1.061814e+003
1.071220e+003, 1.068171e+003
1.071703e+003, 1.073446e+003
1.072185e+003, 1.077404e+003
1.072667e+003, 1.080787e+003
1.073149e+003, 1.083404e+003
1.073631e+003, 1.086532e+003
1.074113e+003, 1.090830e+003
1.074595e+003, 1.095788e+003
1.075077e+003, 1.101872e+003
1.075559e+003, 1.107860e+003
1.076042e+003, 1.111927e+003
1.076524e+003, 1.114302e+003
1.077006e+003, 1.117097e+003
1.077488e+003, 1.121379e+003
1.077970e+003, 1.125058e+003
1.078452e+003, 1.125777e+003
1.078934e+003, 1.127108e+003
1.079416e+003, 1.132588e+003
1.079898e+003, 1.139296e+003
1.080380e+003, 1.143657e+003
1.080863e+003, 1.145837e+003
1.081345e+003, 1.147959e+003
1.081827e+003, 1.150651e+003
1.082309e+003, 1.153382e+003
1.082791e+003, 1.155657e+003
1.083273e+003, 1.158205e+003
1.083755e+003, 1.161826e+003
1.084237e+003, 1.165658e+003
1.084720e+003, 1.168346e+003
1.085202e+003, 1.170480e+003
1.085684e+003, 1.173996e+003
1.086166e+003, 1.179523e+003
1.086648e+003, 1.185015e+003
1.087130e+003, 1.189317e+003
1.087612e+003, 1.193713e+003
1.088094e+003, 1.199968e+003
1.088577e+003, 1.205731e+003
1.089059e+003, 1.208710e+003
1.089541e+003, 1.209465e+003
1.090023e+003, 1.209138e+003
1.090505e+003, 1.207971e+003
1.090987e+003, 1.207501e+003
1.091469e+003, 1.208820e+003
1.091951e+003, 1.210289e+003
1.092433e+003, 1.211234e+003
1.092916e+003, 1.212056e+003
1.093398e+003, 1.213273e+003
1.093880e+003, 1.214503e+003
1.094362e+003, 1.215373e+003
1.094844e+003, 1.215726e+003
1.095326e+003, 1.214591e+003
1.095808e+003, 1.209797e+003
1.096290e+003, 1.206240e+003
1.096772e+003, 1.207042e+003
1.097255e+003, 1.207941e+003
1.097737e+003, 1.206120e+003
1.098219e+003, 1.202787e+003
1.098701e+003, 1.199362e+003
1.099183e+003, 1.196145e+003
1.099665e+003, 1.193588e+003
1.100147e+003, 1.192076e+003
1.100629e+003, 1.190617e+003
1.101112e+003, 1.189306e+003
1.101594e+003, 1.187569e+003
1.102076e+003, 1.184565e+003
1.102558e+003, 1.181400e+003
1.103040e+003, 1.179870e+003
1.103522e+003, 1.179260e+003
1.104004e+003, 1.176458e+003
1.104486e+003, 1.169948e+003
1.104969e+003, 1.164637e+003
1.105451e+003, 1.161912e+003
1.105933e+003, 1.159854e+003
1.106415e+003, 1.158285e+003
1.106897e+003, 1.156671e+003
1.107379e+003, 1.154633e+003
1.107861e+003, 1.152212e+003
1.108343e+003, 1.149469e+003
1.108825e+003, 1.146298e+003
1.109307e+003, 1.143422e+003
1.109790e+003, 1.142291e+003
1.110272e+003, 1.139473e+003
1.110754e+003, 1.132086e+003
1.111236e+003, 1.125163e+003
1.111718e+003, 1.122524e+003
1.112200e+003, 1.121893e+003
1.112682e+003, 1.119339e+003
1.113164e+003, 1.114690e+003
1.113647e+003, 1.111148e+003
1.114129e+003, 1.109500e+003
1.114611e+003, 1.107687e+003
1.115093e+003, 1.105420e+003
1.115575e+003, 1.103202e+003
1.116057e+003, 1.101266e+003
1.116539e+003, 1.099481e+003
1.117021e+003, 1.097865e+003
1.117504e+003, 1.096309e+003
1.117986e+003, 1.093944e+003
1.118468e+003, 1.090027e+003
1.118950e+003, 1.087131e+003
1.119432e+003, 1.085821e+003
1.119914e+003, 1.084426e+003
1.120396e+003, 1.082358e+003
1.120878e+003, 1.080124e+003
1.121360e+003, 1.078168e+003
1.121843e+003, 1.076359e+003
1.122325e+003, 1.074315e+003
1.122807e+003, 1.072001e+003
1.123289e+003, 1.069679e+003
1.123771e+003, 1.067317e+003
1.124253e+003, 1.065090e+003
1.124735e+003, 1.063176e+003
1.125217e+003, 1.060899e+003
1.125699e+003, 1.057583e+003
1.126182e+003, 1.054210e+003
1.126664e+003, 1.052655e+003
1.127146e+003, 1.052772e+003
1.127628e+003, 1.051724e+003
1.128110e+003, 1.049338e+003
1.128592e+003, 1.047263e+003
1.129074e+003, 1.045644e+003
1.129556e+003, 1.045179e+003
1.130039e+003, 1.046440e+003
1.130521e+003, 1.047465e+003
1.131003e+003, 1.045903e+003
1.131485e+003, 1.042460e+003
1.131967e+003, 1.039273e+003
1.132449e+003, 1.036406e+003
1.132931e+003, 1.035394e+003
1.133413e+003, 1.036258e+003
1.133896e+003, 1.036820e+003
1.134378e+003, 1.036415e+003
1.134860e+003, 1.035888e+003
1.135342e+003, 1.035899e+003
1.135824e+003, 1.036149e+003
1.136306e+003, 1.036349e+003
1.136788e+003, 1.036298e+003
1.137270e+003, 1.034866e+003
1.137752e+003, 1.032394e+003
1.138234e+003, 1.030262e+003
1.138717e+003, 1.028868e+003
1.139199e+003, 1.029055e+003
1.139681e+003, 1.031262e+003
1.140163e+003, 1.033677e+003
1.140645e+003, 1.034173e+003
1.141127e+003, 1.033637e+003
1.141609e+003, 1.033740e+003
1.142091e+003, 1.034072e+003
1.142574e+003, 1.033394e+003
1.143056e+003, 1.032070e+003
1.143538e+003, 1.031982e+003
1.144020e+003, 1.033500e+003
1.144502e+003, 1.034333e+003
1.144984e+003, 1.032403e+003
1.145466e+003, 1.030230e+003
1.145948e+003, 1.030481e+003
1.146431e+003, 1.031986e+003
1.146913e+003, 1.034171e+003
1.147395e+003, 1.036055e+003
1.147877e+003, 1.035360e+003
1.148359e+003, 1.032596e+003
1.148841e+003, 1.031437e+003
1.149323e+003, 1.033711e+003
1.149805e+003, 1.035968e+003
1.150287e+003, 1.036061e+003
1.150770e+003, 1.035327e+003
1.151252e+003, 1.033884e+003
1.151734e+003, 1.032819e+003
1.152216e+003, 1.033801e+003
1.152698e+003, 1.035951e+003
1.153180e+003, 1.036998e+003
1.153662e+003, 1.036474e+003
1.154144e+003, 1.036191e+003
1.154626e+003, 1.036434e+003
1.155109e+003, 1.037482e+003
1.155591e+003, 1.040743e+003
1.156073e+003, 1.043396e+003
1.156555e+003, 1.042927e+003
1.157037e+003, 1.041324e+003
1.157519e+003, 1.041378e+003
1.158001e+003, 1.042952e+003
1.158483e+003, 1.043835e+003
1.158966e+003, 1.043553e+003
1.159448e+003, 1.043163e+003
1.159930e+003, 1.042238e+003
1.160412e+003, 1.041885e+003
1.160894e+003, 1.042217e+003
1.161376e+003, 1.043441e+003
1.161858e+003, 1.046275e+003
1.162340e+003, 1.049793e+003
1.162822e+003, 1.051968e+003
1.163305e+003, 1.052708e+003
1.163787e+003, 1.052994e+003
1.164269e+003, 1.052281e+003
1.164751e+003, 1.052893e+003
1.165233e+003, 1.055779e+003
1.165715e+003, 1.058090e+003
1.166197e+003, 1.058418e+003
1.166679e+003, 1.057694e+003
1.167161e+003, 1.056847e+003
1.167644e+003, 1.056049e+003
1.168126e+003, 1.055993e+003
1.168608e+003, 1.056684e+003
1.169090e+003, 1.058053e+003
1.169572e+003, 1.060114e+003
1.170054e+003, 1.062087e+003
1.170536e+003, 1.063764e+003
1.171018e+003, 1.064751e+003
1.171500e+003, 1.064729e+003
1.171983e+003, 1.064184e+003
1.172465e+003, 1.063775e+003
1.172947e+003, 1.063529e+003
1.173429e+003, 1.063789e+003
1.173911e+003, 1.064289e+003
1.174393e+003, 1.063836e+003
1.174875e+003, 1.062501e+003
1.175357e+003, 1.061439e+003
1.175840e+003, 1.061067e+003
1.176322e+003, 1.060862e+003
1.176804e+003, 1.060419e+003
1.177286e+003, 1.059857e+003
1.177768e+003, 1.059374e+003
1.178250e+003, 1.058826e+003
1.178732e+003, 1.057862e+003
1.179214e+003, 1.056724e+003
1.179697e+003, 1.056302e+003
1.180179e+003, 1.056280e+003
1.180661e+003, 1.054814e+003
1.181143e+003, 1.050987e+003
1.181625e+003, 1.046949e+003
1.182107e+003, 1.044011e+003
1.182589e+003, 1.041303e+003
1.183071e+003, 1.038230e+003
1.183553e+003, 1.035157e+003
1.184036e+003, 1.032689e+003
1.184518e+003, 1.030396e+003
1.185000e+003, 1.027374e+003
1.185482e+003, 1.023531e+003
1.185964e+003, 1.019686e+003
1.186446e+003, 1.016258e+003
1.186928e+003, 1.012452e+003
1.187410e+003, 1.007527e+003
1.187892e+003, 1.002963e+003
1.188375e+003, 9.999083e+002
1.188857e+003, 9.970592e+002
1.189339e+003, 9.933024e+002
1.189821e+003, 9.887981e+002
1.190303e+003, 9.840132e+002
1.190785e+003, 9.788406e+002
1.191267e+003, 9.740345e+002
1.191749e+003, 9.694622e+002
1.192232e+003, 9.657696e+002
1.192714e+003, 9.633942e+002
1.193196e+003, 9.608661e+002
1.193678e+003, 9.572811e+002
1.194160e+003, 9.536884e+002
1.194642e+003, 9.514169e+002
1.195124e+003, 9.501803e+002
1.195606e+003, 9.492278e+002
1.196089e+003, 9.484912e+002
1.196571e+003, 9.457704e+002
1.197053e+003, 9.410993e+002
1.197535e+003, 9.368573e+002
1.198017e+003, 9.336862e+002
1.198499e+003, 9.317484e+002
1.198981e+003, 9.312393e+002
1.199463e+003, 9.307204e+002
1.199945e+003, 9.279241e+002
1.200427e+003, 9.240761e+002
1.200910e+003, 9.215828e+002
1.201392e+003, 9.199512e+002
1.201874e+003, 9.178215e+002
1.202356e+003, 9.155201e+002
1.202838e+003, 9.149343e+002
1.203320e+003, 9.161672e+002
1.203802e+003, 9.160582e+002
1.204284e+003, 9.120641e+002
1.204767e+003, 9.083438e+002
1.205249e+003, 9.089224e+002
1.205731e+003, 9.101501e+002
1.206213e+003, 9.091087e+002
1.206695e+003, 9.068629e+002
1.207177e+003, 9.044739e+002
1.207659e+003, 9.022438e+002
1.208141e+003, 9.004694e+002
1.208624e+003, 8.992311e+002
1.209106e+003, 8.981766e+002
1.209588e+003, 8.970884e+002
1.210070e+003, 8.963893e+002
1.210552e+003, 8.964960e+002
1.211034e+003, 8.966089e+002
1.211516e+003, 8.961604e+002
1.211998e+003, 8.956689e+002
1.212480e+003, 8.957220e+002
1.212963e+003, 8.961466e+002
1.213445e+003, 8.963176e+002
1.213927e+003, 8.962244e+002
1.214409e+003, 8.958781e+002
1.214891e+003, 8.952696e+002
1.215373e+003, 8.944457e+002
1.215855e+003, 8.934624e+002
1.216337e+003, 8.919221e+002
1.216819e+003, 8.894953e+002
1.217302e+003, 8.871529e+002
1.217784e+003, 8.862266e+002
1.218266e+003, 8.861036e+002
1.218748e+003, 8.844423e+002
1.219230e+003, 8.818311e+002
1.219712e+003, 8.816390e+002
1.220194e+003, 8.834842e+002
1.220676e+003, 8.844542e+002
1.221159e+003, 8.839562e+002
1.221641e+003, 8.830175e+002
1.222123e+003, 8.821775e+002
1.222605e+003, 8.813637e+002
1.223087e+003, 8.806089e+002
1.223569e+003, 8.797194e+002
1.224051e+003, 8.776644e+002
1.224533e+003, 8.759418e+002
1.225016e+003, 8.774562e+002
1.225498e+003, 8.804825e+002
1.225980e+003, 8.813112e+002
1.226462e+003, 8.795888e+002
1.226944e+003, 8.777451e+002
1.227426e+003, 8.763701e+002
1.227908e+003, 8.756544e+002
1.228390e+003, 8.759832e+002
1.228872e+003, 8.765575e+002
1.229354e+003, 8.778115e+002
1.229837e+003, 8.784251e+002
1.230319e+003, 8.765650e+002
1.230801e+003, 8.737852e+002
1.231283e+003, 8.731046e+002
1.231765e+003, 8.744341e+002
1.232247e+003, 8.744795e+002
1.232729e+003, 8.726257e+002
1.233211e+003, 8.713640e+002
1.233694e+003, 8.707572e+002
1.234176e+003, 8.711169e+002
1.234658e+003, 8.728749e+002
1.235140e+003, 8.740656e+002
1.235622e+003, 8.731814e+002
1.236104e+003, 8.712518e+002
1.236586e+003, 8.698746e+002
1.237068e+003, 8.690460e+002
1.237551e+003, 8.688256e+002
1.238033e+003, 8.691239e+002
1.238515e+003, 8.700101e+002
1.238997e+003, 8.710798e+002
1.239479e+003, 8.702280e+002
1.239961e+003, 8.671595e+002
1.240443e+003, 8.644607e+002
1.240925e+003, 8.638386e+002
1.241407e+003, 8.637580e+002
1.241890e+003, 8.626176e+002
1.242372e+003, 8.614352e+002
1.242854e+003, 8.612789e+002
1.243336e+003, 8.616165e+002
1.243818e+003, 8.619211e+002
1.244300e+003, 8.620946e+002
1.244782e+003, 8.621641e+002
1.245264e+003, 8.621141e+002
1.245746e+003, 8.616885e+002
1.246229e+003, 8.605090e+002
1.246711e+003, 8.595323e+002
1.247193e+003, 8.591377e+002
1.247675e+003, 8.586713e+002
1.248157e+003, 8.582100e+002
1.248639e+003, 8.571760e+002
1.249121e+003, 8.544716e+002
1.249603e+003, 8.516392e+002
1.250085e+003, 8.518440e+002
1.250568e+003, 8.547922e+002
1.251050e+003, 8.550888e+002
1.251532e+003, 8.523757e+002
1.252014e+003, 8.509953e+002
1.252496e+003, 8.513177e+002
1.252978e+003, 8.514749e+002
1.253460e+003, 8.509072e+002
1.253942e+003, 8.505849e+002
1.254425e+003, 8.512200e+002
1.254907e+003, 8.519612e+002
1.255389e+003, 8.516853e+002
1.255871e+003, 8.506542e+002
1.256353e+003, 8.490492e+002
1.256835e+003, 8.472305e+002
1.257317e+003, 8.455818e+002
1.257799e+003, 8.444387e+002
1.258281e+003, 8.446660e+002
1.258764e+003, 8.461680e+002
1.259246e+003, 8.474723e+002
1.259728e+003, 8.480016e+002
1.260210e+003, 8.480911e+002
1.260692e+003, 8.480868e+002
1.261174e+003, 8.474341e+002
1.261656e+003, 8.438367e+002
1.262138e+003, 8.415536e+002
1.262620e+003, 8.461315e+002
1.263103e+003, 8.528235e+002
1.263585e+003, 8.535407e+002
1.264067e+003, 8.490190e+002
1.264549e+003, 8.456688e+002
1.265031e+003, 8.435724e+002
1.265513e+003, 8.424320e+002
1.265995e+003, 8.425035e+002
1.266477e+003, 8.424094e+002
1.266960e+003, 8.418749e+002
1.267442e+003, 8.408176e+002
1.267924e+003, 8.391435e+002
1.268406e+003, 8.373470e+002
1.268888e+003, 8.359396e+002
1.269370e+003, 8.349581e+002
1.269852e+003, 8.346201e+002
1.270334e+003, 8.347037e+002
1.270817e+003, 8.345457e+002
1.271299e+003, 8.343353e+002
1.271781e+003, 8.350767e+002
1.272263e+003, 8.364317e+002
1.272745e+003, 8.362693e+002
1.273227e+003, 8.337720e+002
1.273709e+003, 8.319156e+002
1.274191e+003, 8.330763e+002
1.274673e+003, 8.344868e+002
1.275156e+003, 8.349662e+002
1.275638e+003, 8.349993e+002
1.276120e+003, 8.345917e+002
1.276602e+003, 8.341644e+002
1.277084e+003, 8.344418e+002
1.277566e+003, 8.350241e+002
1.278048e+003, 8.344340e+002
1.278530e+003, 8.324045e+002
1.279012e+003, 8.318207e+002
1.279495e+003, 8.332636e+002
1.279977e+003, 8.337163e+002
1.280459e+003, 8.325683e+002
1.280941e+003, 8.323976e+002
1.281423e+003, 8.342582e+002
1.281905e+003, 8.361677e+002
1.282387e+003, 8.365742e+002
1.282869e+003, 8.360905e+002
1.283352e+003, 8.358830e+002
1.283834e+003, 8.354213e+002
1.284316e+003, 8.335070e+002
1.284798e+003, 8.301778e+002
##END=



