##NAMES=Woodhouseite
##RRUFFID=R060520
##IDEAL CHEMISTRY=CaAl_3_(S^6+^O_4_)(PO_4_)(OH)_6_
##LOCALITY=Champion mine, Mono County, California, USA
##OWNER=RRUFF
##SOURCE=Michael Scott
##DESCRIPTION=Colorless cubes, with striations that display the rhombohedral symmetry
##STATUS=The identification of this mineral has been confirmed by X-ray diffraction and chemical analysis
##URL=rruff.info/R060520
##MEASURED CHEMISTRY=(Ca_0.98_Sr_0.02_)_Σ=1_Al_3.00_[(P_0.53_S_0.47_)_Σ=1_O_4_]_2_((OH)_5.94_(H_2_O)_0.06_)_Σ=6_ ; = darker phase  (Ca_0.94_Sr_0.06_)_Σ=1_Al_3.00_[(P_0.52_S_0.48_)O_4_]_2_((OH)_5.96_(H_2_O)_0.04_)_Σ=6 = lighter phase
8.930109e+001, 0.000000e+000
8.978320e+001, 1.537512e+003
9.026532e+001, 1.534900e+003
9.074744e+001, 1.535305e+003
9.122955e+001, 1.538245e+003
9.171167e+001, 1.547086e+003
9.219379e+001, 1.570986e+003
9.267590e+001, 1.607746e+003
9.315802e+001, 1.635704e+003
9.364014e+001, 1.631700e+003
9.412225e+001, 1.605767e+003
9.460437e+001, 1.585465e+003
9.508649e+001, 1.579824e+003
9.556860e+001, 1.582316e+003
9.605072e+001, 1.579368e+003
9.653284e+001, 1.572205e+003
9.701495e+001, 1.563257e+003
9.749707e+001, 1.553243e+003
9.797919e+001, 1.542089e+003
9.846130e+001, 1.533321e+003
9.894342e+001, 1.527353e+003
9.942554e+001, 1.524158e+003
9.990765e+001, 1.526221e+003
1.003898e+002, 1.535117e+003
1.008719e+002, 1.545830e+003
1.013540e+002, 1.550951e+003
1.018361e+002, 1.549601e+003
1.023182e+002, 1.546786e+003
1.028004e+002, 1.543683e+003
1.032825e+002, 1.539393e+003
1.037646e+002, 1.538854e+003
1.042467e+002, 1.542797e+003
1.047288e+002, 1.549999e+003
1.052109e+002, 1.557274e+003
1.056931e+002, 1.562479e+003
1.061752e+002, 1.570879e+003
1.066573e+002, 1.585070e+003
1.071394e+002, 1.607762e+003
1.076215e+002, 1.631485e+003
1.081036e+002, 1.660825e+003
1.085858e+002, 1.692999e+003
1.090679e+002, 1.711574e+003
1.095500e+002, 1.707353e+003
1.100321e+002, 1.697024e+003
1.105142e+002, 1.689531e+003
1.109963e+002, 1.685641e+003
1.114785e+002, 1.683704e+003
1.119606e+002, 1.683597e+003
1.124427e+002, 1.685277e+003
1.129248e+002, 1.688633e+003
1.134069e+002, 1.693166e+003
1.138890e+002, 1.699496e+003
1.143712e+002, 1.708190e+003
1.148533e+002, 1.719887e+003
1.153354e+002, 1.733358e+003
1.158175e+002, 1.750241e+003
1.162996e+002, 1.771477e+003
1.167817e+002, 1.787504e+003
1.172639e+002, 1.790952e+003
1.177460e+002, 1.788506e+003
1.182281e+002, 1.788631e+003
1.187102e+002, 1.799209e+003
1.191923e+002, 1.809947e+003
1.196744e+002, 1.813741e+003
1.201566e+002, 1.808561e+003
1.206387e+002, 1.802392e+003
1.211208e+002, 1.798357e+003
1.216029e+002, 1.796802e+003
1.220850e+002, 1.798572e+003
1.225671e+002, 1.803913e+003
1.230493e+002, 1.812777e+003
1.235314e+002, 1.826906e+003
1.240135e+002, 1.849577e+003
1.244956e+002, 1.869950e+003
1.249777e+002, 1.875654e+003
1.254598e+002, 1.869295e+003
1.259420e+002, 1.860606e+003
1.264241e+002, 1.854543e+003
1.269062e+002, 1.850571e+003
1.273883e+002, 1.847708e+003
1.278704e+002, 1.845609e+003
1.283525e+002, 1.844679e+003
1.288347e+002, 1.845824e+003
1.293168e+002, 1.848987e+003
1.297989e+002, 1.853031e+003
1.302810e+002, 1.857506e+003
1.307631e+002, 1.862231e+003
1.312452e+002, 1.866705e+003
1.317274e+002, 1.871076e+003
1.322095e+002, 1.875006e+003
1.326916e+002, 1.877577e+003
1.331737e+002, 1.878778e+003
1.336558e+002, 1.878863e+003
1.341379e+002, 1.877322e+003
1.346201e+002, 1.874211e+003
1.351022e+002, 1.872441e+003
1.355843e+002, 1.872731e+003
1.360664e+002, 1.875062e+003
1.365485e+002, 1.879717e+003
1.370306e+002, 1.887285e+003
1.375128e+002, 1.895865e+003
1.379949e+002, 1.902862e+003
1.384770e+002, 1.907638e+003
1.389591e+002, 1.914198e+003
1.394412e+002, 1.925283e+003
1.399233e+002, 1.941481e+003
1.404055e+002, 1.952521e+003
1.408876e+002, 1.957928e+003
1.413697e+002, 1.958555e+003
1.418518e+002, 1.955424e+003
1.423339e+002, 1.947512e+003
1.428160e+002, 1.938153e+003
1.432982e+002, 1.928408e+003
1.437803e+002, 1.918410e+003
1.442624e+002, 1.907853e+003
1.447445e+002, 1.896809e+003
1.452266e+002, 1.885169e+003
1.457087e+002, 1.872956e+003
1.461909e+002, 1.858058e+003
1.466730e+002, 1.845045e+003
1.471551e+002, 1.835855e+003
1.476372e+002, 1.833851e+003
1.481193e+002, 1.830208e+003
1.486014e+002, 1.824572e+003
1.490836e+002, 1.817290e+003
1.495657e+002, 1.809211e+003
1.500478e+002, 1.799005e+003
1.505299e+002, 1.789263e+003
1.510120e+002, 1.781049e+003
1.514941e+002, 1.773378e+003
1.519763e+002, 1.768428e+003
1.524584e+002, 1.767465e+003
1.529405e+002, 1.769721e+003
1.534226e+002, 1.771300e+003
1.539047e+002, 1.770490e+003
1.543868e+002, 1.769830e+003
1.548690e+002, 1.770703e+003
1.553511e+002, 1.772951e+003
1.558332e+002, 1.777052e+003
1.563153e+002, 1.784214e+003
1.567974e+002, 1.793969e+003
1.572795e+002, 1.802535e+003
1.577617e+002, 1.806128e+003
1.582438e+002, 1.809836e+003
1.587259e+002, 1.817334e+003
1.592080e+002, 1.829714e+003
1.596901e+002, 1.845782e+003
1.601722e+002, 1.865609e+003
1.606544e+002, 1.889134e+003
1.611365e+002, 1.915174e+003
1.616186e+002, 1.943209e+003
1.621007e+002, 1.973417e+003
1.625828e+002, 2.006660e+003
1.630649e+002, 2.042998e+003
1.635471e+002, 2.082240e+003
1.640292e+002, 2.125876e+003
1.645113e+002, 2.173926e+003
1.649934e+002, 2.220428e+003
1.654755e+002, 2.260075e+003
1.659576e+002, 2.297208e+003
1.664398e+002, 2.336644e+003
1.669219e+002, 2.378823e+003
1.674040e+002, 2.425456e+003
1.678861e+002, 2.477558e+003
1.683682e+002, 2.535483e+003
1.688503e+002, 2.597025e+003
1.693325e+002, 2.659115e+003
1.698146e+002, 2.724361e+003
1.702967e+002, 2.795933e+003
1.707788e+002, 2.874253e+003
1.712609e+002, 2.961118e+003
1.717430e+002, 3.056887e+003
1.722252e+002, 3.161955e+003
1.727073e+002, 3.276539e+003
1.731894e+002, 3.399528e+003
1.736715e+002, 3.533258e+003
1.741536e+002, 3.678012e+003
1.746357e+002, 3.836454e+003
1.751179e+002, 4.007524e+003
1.756000e+002, 4.192670e+003
1.760821e+002, 4.391539e+003
1.765642e+002, 4.597088e+003
1.770463e+002, 4.809888e+003
1.775284e+002, 5.025935e+003
1.780106e+002, 5.229364e+003
1.784927e+002, 5.424378e+003
1.789748e+002, 5.599642e+003
1.794569e+002, 5.735040e+003
1.799390e+002, 5.832176e+003
1.804211e+002, 5.881674e+003
1.809033e+002, 5.873767e+003
1.813854e+002, 5.809353e+003
1.818675e+002, 5.694749e+003
1.823496e+002, 5.517641e+003
1.828317e+002, 5.294276e+003
1.833138e+002, 5.047941e+003
1.837960e+002, 4.777671e+003
1.842781e+002, 4.500751e+003
1.847602e+002, 4.240374e+003
1.852423e+002, 3.995055e+003
1.857244e+002, 3.773358e+003
1.862065e+002, 3.578599e+003
1.866887e+002, 3.410046e+003
1.871708e+002, 3.262236e+003
1.876529e+002, 3.136174e+003
1.881350e+002, 3.027745e+003
1.886171e+002, 2.935379e+003
1.890992e+002, 2.858117e+003
1.895814e+002, 2.789872e+003
1.900635e+002, 2.727399e+003
1.905456e+002, 2.670052e+003
1.910277e+002, 2.619895e+003
1.915098e+002, 2.578056e+003
1.919919e+002, 2.541428e+003
1.924741e+002, 2.504191e+003
1.929562e+002, 2.466328e+003
1.934383e+002, 2.431288e+003
1.939204e+002, 2.402445e+003
1.944025e+002, 2.379530e+003
1.948846e+002, 2.358025e+003
1.953668e+002, 2.337503e+003
1.958489e+002, 2.317996e+003
1.963310e+002, 2.299606e+003
1.968131e+002, 2.282341e+003
1.972952e+002, 2.266176e+003
1.977773e+002, 2.250885e+003
1.982595e+002, 2.236534e+003
1.987416e+002, 2.223376e+003
1.992237e+002, 2.211850e+003
1.997058e+002, 2.201379e+003
2.001879e+002, 2.190445e+003
2.006700e+002, 2.178787e+003
2.011522e+002, 2.167448e+003
2.016343e+002, 2.156979e+003
2.021164e+002, 2.147373e+003
2.025985e+002, 2.138871e+003
2.030806e+002, 2.131751e+003
2.035627e+002, 2.125699e+003
2.040449e+002, 2.119790e+003
2.045270e+002, 2.113915e+003
2.050091e+002, 2.108489e+003
2.054912e+002, 2.103539e+003
2.059733e+002, 2.098857e+003
2.064554e+002, 2.095851e+003
2.069376e+002, 2.094719e+003
2.074197e+002, 2.095370e+003
2.079018e+002, 2.097591e+003
2.083839e+002, 2.101655e+003
2.088660e+002, 2.106649e+003
2.093481e+002, 2.111802e+003
2.098303e+002, 2.116931e+003
2.103124e+002, 2.123290e+003
2.107945e+002, 2.131219e+003
2.112766e+002, 2.140460e+003
2.117587e+002, 2.150263e+003
2.122408e+002, 2.160736e+003
2.127230e+002, 2.171630e+003
2.132051e+002, 2.182965e+003
2.136872e+002, 2.194873e+003
2.141693e+002, 2.206664e+003
2.146514e+002, 2.217827e+003
2.151335e+002, 2.228759e+003
2.156157e+002, 2.240851e+003
2.160978e+002, 2.254238e+003
2.165799e+002, 2.268596e+003
2.170620e+002, 2.283985e+003
2.175441e+002, 2.300804e+003
2.180262e+002, 2.317401e+003
2.185084e+002, 2.333101e+003
2.189905e+002, 2.348636e+003
2.194726e+002, 2.366901e+003
2.199547e+002, 2.389270e+003
2.204368e+002, 2.412558e+003
2.209189e+002, 2.434274e+003
2.214011e+002, 2.453508e+003
2.218832e+002, 2.474153e+003
2.223653e+002, 2.496652e+003
2.228474e+002, 2.520842e+003
2.233295e+002, 2.547321e+003
2.238116e+002, 2.576376e+003
2.242938e+002, 2.606359e+003
2.247759e+002, 2.636087e+003
2.252580e+002, 2.664499e+003
2.257401e+002, 2.694692e+003
2.262222e+002, 2.727570e+003
2.267043e+002, 2.762358e+003
2.271865e+002, 2.797291e+003
2.276686e+002, 2.830711e+003
2.281507e+002, 2.865652e+003
2.286328e+002, 2.903630e+003
2.291149e+002, 2.945605e+003
2.295970e+002, 2.987946e+003
2.300792e+002, 3.029059e+003
2.305613e+002, 3.070393e+003
2.310434e+002, 3.116251e+003
2.315255e+002, 3.166663e+003
2.320076e+002, 3.220734e+003
2.324897e+002, 3.277586e+003
2.329719e+002, 3.337622e+003
2.334540e+002, 3.399400e+003
2.339361e+002, 3.463249e+003
2.344182e+002, 3.529162e+003
2.349003e+002, 3.598120e+003
2.353824e+002, 3.671167e+003
2.358646e+002, 3.745813e+003
2.363467e+002, 3.820407e+003
2.368288e+002, 3.892615e+003
2.373109e+002, 3.969937e+003
2.377930e+002, 4.052692e+003
2.382751e+002, 4.140883e+003
2.387573e+002, 4.232058e+003
2.392394e+002, 4.326292e+003
2.397215e+002, 4.423411e+003
2.402036e+002, 4.524331e+003
2.406857e+002, 4.630329e+003
2.411678e+002, 4.736907e+003
2.416500e+002, 4.843262e+003
2.421321e+002, 4.949837e+003
2.426142e+002, 5.060697e+003
2.430963e+002, 5.179725e+003
2.435784e+002, 5.296517e+003
2.440605e+002, 5.406302e+003
2.445427e+002, 5.511099e+003
2.450248e+002, 5.605845e+003
2.455069e+002, 5.692174e+003
2.459890e+002, 5.768147e+003
2.464711e+002, 5.828460e+003
2.469532e+002, 5.873406e+003
2.474354e+002, 5.903375e+003
2.479175e+002, 5.917808e+003
2.483996e+002, 5.915519e+003
2.488817e+002, 5.902642e+003
2.493638e+002, 5.880367e+003
2.498459e+002, 5.847031e+003
2.503281e+002, 5.798878e+003
2.508102e+002, 5.732325e+003
2.512923e+002, 5.657077e+003
2.517744e+002, 5.574919e+003
2.522565e+002, 5.485919e+003
2.527386e+002, 5.393102e+003
2.532208e+002, 5.295684e+003
2.537029e+002, 5.195089e+003
2.541850e+002, 5.091257e+003
2.546671e+002, 4.982074e+003
2.551492e+002, 4.873062e+003
2.556313e+002, 4.766099e+003
2.561135e+002, 4.661427e+003
2.565956e+002, 4.559131e+003
2.570777e+002, 4.460321e+003
2.575598e+002, 4.363900e+003
2.580419e+002, 4.268544e+003
2.585240e+002, 4.174708e+003
2.590062e+002, 4.082914e+003
2.594883e+002, 3.992078e+003
2.599704e+002, 3.903481e+003
2.604525e+002, 3.820034e+003
2.609346e+002, 3.743408e+003
2.614167e+002, 3.671125e+003
2.618989e+002, 3.600070e+003
2.623810e+002, 3.529493e+003
2.628631e+002, 3.463970e+003
2.633452e+002, 3.405558e+003
2.638273e+002, 3.353589e+003
2.643094e+002, 3.306141e+003
2.647916e+002, 3.263446e+003
2.652737e+002, 3.223819e+003
2.657558e+002, 3.184201e+003
2.662379e+002, 3.143099e+003
2.667200e+002, 3.108209e+003
2.672021e+002, 3.082249e+003
2.676843e+002, 3.064319e+003
2.681664e+002, 3.044073e+003
2.686485e+002, 3.020435e+003
2.691306e+002, 2.996730e+003
2.696127e+002, 2.976167e+003
2.700948e+002, 2.959356e+003
2.705770e+002, 2.943053e+003
2.710591e+002, 2.927028e+003
2.715412e+002, 2.911182e+003
2.720233e+002, 2.894614e+003
2.725054e+002, 2.877404e+003
2.729875e+002, 2.859819e+003
2.734697e+002, 2.842392e+003
2.739518e+002, 2.825172e+003
2.744339e+002, 2.806415e+003
2.749160e+002, 2.785249e+003
2.753981e+002, 2.762900e+003
2.758802e+002, 2.742474e+003
2.763624e+002, 2.724378e+003
2.768445e+002, 2.707928e+003
2.773266e+002, 2.693616e+003
2.778087e+002, 2.681735e+003
2.782908e+002, 2.667625e+003
2.787729e+002, 2.650404e+003
2.792551e+002, 2.631404e+003
2.797372e+002, 2.614586e+003
2.802193e+002, 2.600419e+003
2.807014e+002, 2.585021e+003
2.811835e+002, 2.566117e+003
2.816656e+002, 2.543740e+003
2.821478e+002, 2.519554e+003
2.826299e+002, 2.493292e+003
2.831120e+002, 2.465915e+003
2.835941e+002, 2.438499e+003
2.840762e+002, 2.410865e+003
2.845583e+002, 2.384696e+003
2.850405e+002, 2.361176e+003
2.855226e+002, 2.339970e+003
2.860047e+002, 2.317461e+003
2.864868e+002, 2.293062e+003
2.869689e+002, 2.269241e+003
2.874510e+002, 2.249673e+003
2.879332e+002, 2.234203e+003
2.884153e+002, 2.219641e+003
2.888974e+002, 2.205173e+003
2.893795e+002, 2.190777e+003
2.898616e+002, 2.176610e+003
2.903438e+002, 2.162554e+003
2.908259e+002, 2.149524e+003
2.913080e+002, 2.138491e+003
2.917901e+002, 2.129443e+003
2.922722e+002, 2.121730e+003
2.927543e+002, 2.115541e+003
2.932365e+002, 2.110458e+003
2.937186e+002, 2.105996e+003
2.942007e+002, 2.102213e+003
2.946828e+002, 2.097900e+003
2.951649e+002, 2.091004e+003
2.956470e+002, 2.082560e+003
2.961292e+002, 2.075804e+003
2.966113e+002, 2.071976e+003
2.970934e+002, 2.069922e+003
2.975755e+002, 2.068086e+003
2.980576e+002, 2.066446e+003
2.985397e+002, 2.064809e+003
2.990219e+002, 2.062655e+003
2.995040e+002, 2.060417e+003
2.999861e+002, 2.059224e+003
3.004682e+002, 2.059719e+003
3.009503e+002, 2.060505e+003
3.014324e+002, 2.059239e+003
3.019146e+002, 2.056554e+003
3.023967e+002, 2.055011e+003
3.028788e+002, 2.057347e+003
3.033609e+002, 2.061484e+003
3.038430e+002, 2.064245e+003
3.043251e+002, 2.064923e+003
3.048073e+002, 2.065250e+003
3.052894e+002, 2.066637e+003
3.057715e+002, 2.068885e+003
3.062536e+002, 2.071563e+003
3.067357e+002, 2.075297e+003
3.072178e+002, 2.078844e+003
3.077000e+002, 2.080550e+003
3.081821e+002, 2.080089e+003
3.086642e+002, 2.079430e+003
3.091463e+002, 2.080242e+003
3.096284e+002, 2.081736e+003
3.101105e+002, 2.082704e+003
3.105927e+002, 2.081519e+003
3.110748e+002, 2.080399e+003
3.115569e+002, 2.081373e+003
3.120390e+002, 2.084460e+003
3.125211e+002, 2.087113e+003
3.130032e+002, 2.087647e+003
3.134854e+002, 2.087148e+003
3.139675e+002, 2.086758e+003
3.144496e+002, 2.087087e+003
3.149317e+002, 2.087463e+003
3.154138e+002, 2.087352e+003
3.158959e+002, 2.086922e+003
3.163781e+002, 2.087092e+003
3.168602e+002, 2.089370e+003
3.173423e+002, 2.091794e+003
3.178244e+002, 2.092789e+003
3.183065e+002, 2.090303e+003
3.187886e+002, 2.088798e+003
3.192708e+002, 2.090522e+003
3.197529e+002, 2.094453e+003
3.202350e+002, 2.097735e+003
3.207171e+002, 2.097827e+003
3.211992e+002, 2.098269e+003
3.216813e+002, 2.100959e+003
3.221635e+002, 2.107095e+003
3.226456e+002, 2.113209e+003
3.231277e+002, 2.119071e+003
3.236098e+002, 2.124402e+003
3.240919e+002, 2.128769e+003
3.245740e+002, 2.130074e+003
3.250562e+002, 2.132177e+003
3.255383e+002, 2.136859e+003
3.260204e+002, 2.145319e+003
3.265025e+002, 2.151743e+003
3.269846e+002, 2.154411e+003
3.274667e+002, 2.155436e+003
3.279489e+002, 2.157089e+003
3.284310e+002, 2.158998e+003
3.289131e+002, 2.162069e+003
3.293952e+002, 2.166865e+003
3.298773e+002, 2.173455e+003
3.303594e+002, 2.179662e+003
3.308416e+002, 2.184958e+003
3.313237e+002, 2.190270e+003
3.318058e+002, 2.196302e+003
3.322879e+002, 2.203929e+003
3.327700e+002, 2.210711e+003
3.332521e+002, 2.215708e+003
3.337343e+002, 2.219617e+003
3.342164e+002, 2.226036e+003
3.346985e+002, 2.235951e+003
3.351806e+002, 2.246670e+003
3.356627e+002, 2.256765e+003
3.361448e+002, 2.265757e+003
3.366270e+002, 2.275261e+003
3.371091e+002, 2.285288e+003
3.375912e+002, 2.295752e+003
3.380733e+002, 2.306693e+003
3.385554e+002, 2.318054e+003
3.390375e+002, 2.329799e+003
3.395197e+002, 2.342496e+003
3.400018e+002, 2.356223e+003
3.404839e+002, 2.367335e+003
3.409660e+002, 2.374989e+003
3.414481e+002, 2.381416e+003
3.419302e+002, 2.389177e+003
3.424124e+002, 2.398400e+003
3.428945e+002, 2.408020e+003
3.433766e+002, 2.418152e+003
3.438587e+002, 2.428418e+003
3.443408e+002, 2.437418e+003
3.448229e+002, 2.444989e+003
3.453051e+002, 2.452056e+003
3.457872e+002, 2.459131e+003
3.462693e+002, 2.466271e+003
3.467514e+002, 2.474120e+003
3.472335e+002, 2.482640e+003
3.477156e+002, 2.492079e+003
3.481978e+002, 2.503055e+003
3.486799e+002, 2.515497e+003
3.491620e+002, 2.528280e+003
3.496441e+002, 2.540918e+003
3.501262e+002, 2.553363e+003
3.506083e+002, 2.565214e+003
3.510905e+002, 2.576344e+003
3.515726e+002, 2.587696e+003
3.520547e+002, 2.600198e+003
3.525368e+002, 2.613824e+003
3.530189e+002, 2.628493e+003
3.535010e+002, 2.644831e+003
3.539832e+002, 2.661858e+003
3.544653e+002, 2.678059e+003
3.549474e+002, 2.693456e+003
3.554295e+002, 2.709415e+003
3.559116e+002, 2.726705e+003
3.563937e+002, 2.745420e+003
3.568759e+002, 2.765446e+003
3.573580e+002, 2.788371e+003
3.578401e+002, 2.811438e+003
3.583222e+002, 2.831964e+003
3.588043e+002, 2.850652e+003
3.592864e+002, 2.870555e+003
3.597686e+002, 2.893235e+003
3.602507e+002, 2.918014e+003
3.607328e+002, 2.944376e+003
3.612149e+002, 2.974284e+003
3.616970e+002, 3.002574e+003
3.621791e+002, 3.027270e+003
3.626613e+002, 3.048796e+003
3.631434e+002, 3.068167e+003
3.636255e+002, 3.086204e+003
3.641076e+002, 3.101692e+003
3.645897e+002, 3.114644e+003
3.650718e+002, 3.125592e+003
3.655540e+002, 3.131086e+003
3.660361e+002, 3.129685e+003
3.665182e+002, 3.122776e+003
3.670003e+002, 3.112037e+003
3.674824e+002, 3.095277e+003
3.679645e+002, 3.077216e+003
3.684467e+002, 3.059308e+003
3.689288e+002, 3.042032e+003
3.694109e+002, 3.021284e+003
3.698930e+002, 2.994642e+003
3.703751e+002, 2.966493e+003
3.708572e+002, 2.939638e+003
3.713394e+002, 2.915054e+003
3.718215e+002, 2.890640e+003
3.723036e+002, 2.865839e+003
3.727857e+002, 2.841109e+003
3.732678e+002, 2.817722e+003
3.737499e+002, 2.795261e+003
3.742321e+002, 2.774419e+003
3.747142e+002, 2.755841e+003
3.751963e+002, 2.739704e+003
3.756784e+002, 2.724304e+003
3.761605e+002, 2.709371e+003
3.766426e+002, 2.695584e+003
3.771248e+002, 2.684885e+003
3.776069e+002, 2.677603e+003
3.780890e+002, 2.670620e+003
3.785711e+002, 2.662878e+003
3.790532e+002, 2.654531e+003
3.795353e+002, 2.647336e+003
3.800175e+002, 2.641379e+003
3.804996e+002, 2.635863e+003
3.809817e+002, 2.629255e+003
3.814638e+002, 2.621962e+003
3.819459e+002, 2.617394e+003
3.824280e+002, 2.616952e+003
3.829102e+002, 2.618701e+003
3.833923e+002, 2.618791e+003
3.838744e+002, 2.617405e+003
3.843565e+002, 2.616602e+003
3.848386e+002, 2.617646e+003
3.853207e+002, 2.620200e+003
3.858029e+002, 2.623218e+003
3.862850e+002, 2.626355e+003
3.867671e+002, 2.631376e+003
3.872492e+002, 2.640657e+003
3.877313e+002, 2.653271e+003
3.882134e+002, 2.666961e+003
3.886956e+002, 2.678514e+003
3.891777e+002, 2.691925e+003
3.896598e+002, 2.711882e+003
3.901419e+002, 2.738118e+003
3.906240e+002, 2.765789e+003
3.911061e+002, 2.791321e+003
3.915883e+002, 2.817344e+003
3.920704e+002, 2.846906e+003
3.925525e+002, 2.883191e+003
3.930346e+002, 2.919901e+003
3.935167e+002, 2.953188e+003
3.939988e+002, 2.984923e+003
3.944810e+002, 3.020674e+003
3.949631e+002, 3.063485e+003
3.954452e+002, 3.109951e+003
3.959273e+002, 3.158423e+003
3.964094e+002, 3.208542e+003
3.968915e+002, 3.261221e+003
3.973737e+002, 3.315555e+003
3.978558e+002, 3.372864e+003
3.983379e+002, 3.434768e+003
3.988200e+002, 3.502098e+003
3.993021e+002, 3.573254e+003
3.997842e+002, 3.648067e+003
4.002664e+002, 3.726448e+003
4.007485e+002, 3.808526e+003
4.012306e+002, 3.894151e+003
4.017127e+002, 3.982476e+003
4.021948e+002, 4.073319e+003
4.026769e+002, 4.169487e+003
4.031591e+002, 4.262026e+003
4.036412e+002, 4.350979e+003
4.041233e+002, 4.435493e+003
4.046054e+002, 4.517515e+003
4.050875e+002, 4.599302e+003
4.055696e+002, 4.669741e+003
4.060518e+002, 4.724897e+003
4.065339e+002, 4.764817e+003
4.070160e+002, 4.789758e+003
4.074981e+002, 4.800233e+003
4.079802e+002, 4.794032e+003
4.084623e+002, 4.768652e+003
4.089445e+002, 4.723943e+003
4.094266e+002, 4.660060e+003
4.099087e+002, 4.575106e+003
4.103908e+002, 4.473119e+003
4.108729e+002, 4.360774e+003
4.113550e+002, 4.237856e+003
4.118372e+002, 4.113444e+003
4.123193e+002, 3.989179e+003
4.128014e+002, 3.867407e+003
4.132835e+002, 3.752148e+003
4.137656e+002, 3.642732e+003
4.142477e+002, 3.541160e+003
4.147299e+002, 3.450576e+003
4.152120e+002, 3.369849e+003
4.156941e+002, 3.298857e+003
4.161762e+002, 3.238536e+003
4.166583e+002, 3.186146e+003
4.171404e+002, 3.139438e+003
4.176226e+002, 3.097908e+003
4.181047e+002, 3.062114e+003
4.185868e+002, 3.033196e+003
4.190689e+002, 3.009358e+003
4.195510e+002, 2.988526e+003
4.200331e+002, 2.971208e+003
4.205153e+002, 2.955677e+003
4.209974e+002, 2.941676e+003
4.214795e+002, 2.929154e+003
4.219616e+002, 2.918544e+003
4.224437e+002, 2.910697e+003
4.229258e+002, 2.904099e+003
4.234080e+002, 2.898181e+003
4.238901e+002, 2.892826e+003
4.243722e+002, 2.888441e+003
4.248543e+002, 2.883938e+003
4.253364e+002, 2.881066e+003
4.258185e+002, 2.881704e+003
4.263007e+002, 2.888968e+003
4.267828e+002, 2.895253e+003
4.272649e+002, 2.899035e+003
4.277470e+002, 2.900781e+003
4.282291e+002, 2.903719e+003
4.287112e+002, 2.908170e+003
4.291934e+002, 2.913161e+003
4.296755e+002, 2.918332e+003
4.301576e+002, 2.923690e+003
4.306397e+002, 2.928665e+003
4.311218e+002, 2.932802e+003
4.316039e+002, 2.937169e+003
4.320861e+002, 2.944369e+003
4.325682e+002, 2.954687e+003
4.330503e+002, 2.963143e+003
4.335324e+002, 2.966777e+003
4.340145e+002, 2.967547e+003
4.344966e+002, 2.973269e+003
4.349788e+002, 2.984144e+003
4.354609e+002, 2.994693e+003
4.359430e+002, 2.999095e+003
4.364251e+002, 2.999605e+003
4.369072e+002, 3.002663e+003
4.373893e+002, 3.010025e+003
4.378715e+002, 3.018802e+003
4.383536e+002, 3.025929e+003
4.388357e+002, 3.031813e+003
4.393178e+002, 3.037593e+003
4.397999e+002, 3.044457e+003
4.402820e+002, 3.051076e+003
4.407642e+002, 3.055833e+003
4.412463e+002, 3.058642e+003
4.417284e+002, 3.061356e+003
4.422105e+002, 3.065536e+003
4.426926e+002, 3.069825e+003
4.431747e+002, 3.072911e+003
4.436569e+002, 3.073770e+003
4.441390e+002, 3.074117e+003
4.446211e+002, 3.074056e+003
4.451032e+002, 3.073817e+003
4.455853e+002, 3.074085e+003
4.460674e+002, 3.076694e+003
4.465496e+002, 3.078391e+003
4.470317e+002, 3.077764e+003
4.475138e+002, 3.074005e+003
4.479959e+002, 3.070640e+003
4.484780e+002, 3.067992e+003
4.489601e+002, 3.065630e+003
4.494423e+002, 3.063031e+003
4.499244e+002, 3.059867e+003
4.504065e+002, 3.057433e+003
4.508886e+002, 3.056405e+003
4.513707e+002, 3.056244e+003
4.518528e+002, 3.054523e+003
4.523350e+002, 3.050930e+003
4.528171e+002, 3.046536e+003
4.532992e+002, 3.041202e+003
4.537813e+002, 3.034832e+003
4.542634e+002, 3.030578e+003
4.547455e+002, 3.028715e+003
4.552277e+002, 3.027949e+003
4.557098e+002, 3.027039e+003
4.561919e+002, 3.025873e+003
4.566740e+002, 3.023698e+003
4.571561e+002, 3.019714e+003
4.576382e+002, 3.015097e+003
4.581204e+002, 3.011549e+003
4.586025e+002, 3.009125e+003
4.590846e+002, 3.008375e+003
4.595667e+002, 3.009855e+003
4.600488e+002, 3.013193e+003
4.605309e+002, 3.018269e+003
4.610131e+002, 3.025407e+003
4.614952e+002, 3.032692e+003
4.619773e+002, 3.036938e+003
4.624594e+002, 3.040805e+003
4.629415e+002, 3.048273e+003
4.634236e+002, 3.061731e+003
4.639058e+002, 3.078141e+003
4.643879e+002, 3.097869e+003
4.648700e+002, 3.120164e+003
4.653521e+002, 3.140897e+003
4.658342e+002, 3.156335e+003
4.663163e+002, 3.172099e+003
4.667985e+002, 3.191354e+003
4.672806e+002, 3.215506e+003
4.677627e+002, 3.240958e+003
4.682448e+002, 3.267314e+003
4.687269e+002, 3.294810e+003
4.692090e+002, 3.324241e+003
4.696912e+002, 3.356969e+003
4.701733e+002, 3.389672e+003
4.706554e+002, 3.421374e+003
4.711375e+002, 3.452286e+003
4.716196e+002, 3.484602e+003
4.721017e+002, 3.518729e+003
4.725839e+002, 3.553183e+003
4.730660e+002, 3.587611e+003
4.735481e+002, 3.621864e+003
4.740302e+002, 3.656820e+003
4.745123e+002, 3.692641e+003
4.749944e+002, 3.729028e+003
4.754766e+002, 3.766234e+003
4.759587e+002, 3.803988e+003
4.764408e+002, 3.840430e+003
4.769229e+002, 3.873742e+003
4.774050e+002, 3.905652e+003
4.778871e+002, 3.939638e+003
4.783693e+002, 3.975327e+003
4.788514e+002, 4.008971e+003
4.793335e+002, 4.037551e+003
4.798156e+002, 4.062894e+003
4.802977e+002, 4.087179e+003
4.807798e+002, 4.111266e+003
4.812620e+002, 4.132384e+003
4.817441e+002, 4.150281e+003
4.822262e+002, 4.163750e+003
4.827083e+002, 4.171020e+003
4.831904e+002, 4.171454e+003
4.836725e+002, 4.165465e+003
4.841547e+002, 4.154208e+003
4.846368e+002, 4.137397e+003
4.851189e+002, 4.110801e+003
4.856010e+002, 4.072785e+003
4.860831e+002, 4.025159e+003
4.865652e+002, 3.969361e+003
4.870474e+002, 3.903874e+003
4.875295e+002, 3.832227e+003
4.880116e+002, 3.752725e+003
4.884937e+002, 3.669152e+003
4.889758e+002, 3.585610e+003
4.894579e+002, 3.501462e+003
4.899401e+002, 3.418408e+003
4.904222e+002, 3.334961e+003
4.909043e+002, 3.252926e+003
4.913864e+002, 3.177105e+003
4.918685e+002, 3.107363e+003
4.923506e+002, 3.042970e+003
4.928328e+002, 2.983888e+003
4.933149e+002, 2.929954e+003
4.937970e+002, 2.878767e+003
4.942791e+002, 2.829709e+003
4.947612e+002, 2.785116e+003
4.952433e+002, 2.747486e+003
4.957255e+002, 2.715946e+003
4.962076e+002, 2.687902e+003
4.966897e+002, 2.664060e+003
4.971718e+002, 2.641728e+003
4.976539e+002, 2.618311e+003
4.981360e+002, 2.594455e+003
4.986182e+002, 2.572092e+003
4.991003e+002, 2.553283e+003
4.995824e+002, 2.535770e+003
5.000645e+002, 2.517896e+003
5.005466e+002, 2.498379e+003
5.010287e+002, 2.482130e+003
5.015109e+002, 2.473062e+003
5.019930e+002, 2.466742e+003
5.024751e+002, 2.458865e+003
5.029572e+002, 2.446386e+003
5.034393e+002, 2.435283e+003
5.039214e+002, 2.426386e+003
5.044036e+002, 2.419411e+003
5.048857e+002, 2.413147e+003
5.053678e+002, 2.407544e+003
5.058499e+002, 2.402622e+003
5.063320e+002, 2.398222e+003
5.068141e+002, 2.394280e+003
5.072963e+002, 2.392125e+003
5.077784e+002, 2.392003e+003
5.082605e+002, 2.393003e+003
5.087426e+002, 2.394160e+003
5.092247e+002, 2.395517e+003
5.097068e+002, 2.397835e+003
5.101890e+002, 2.401474e+003
5.106711e+002, 2.405688e+003
5.111532e+002, 2.408987e+003
5.116353e+002, 2.411609e+003
5.121174e+002, 2.414646e+003
5.125995e+002, 2.417430e+003
5.130817e+002, 2.421605e+003
5.135638e+002, 2.430033e+003
5.140459e+002, 2.442566e+003
5.145280e+002, 2.455224e+003
5.150101e+002, 2.465345e+003
5.154922e+002, 2.474542e+003
5.159744e+002, 2.483915e+003
5.164565e+002, 2.492590e+003
5.169386e+002, 2.503865e+003
5.174207e+002, 2.520091e+003
5.179028e+002, 2.539381e+003
5.183849e+002, 2.558631e+003
5.188671e+002, 2.574683e+003
5.193492e+002, 2.593599e+003
5.198313e+002, 2.617752e+003
5.203134e+002, 2.646557e+003
5.207955e+002, 2.674563e+003
5.212776e+002, 2.701019e+003
5.217598e+002, 2.727852e+003
5.222419e+002, 2.755608e+003
5.227240e+002, 2.784194e+003
5.232061e+002, 2.814406e+003
5.236882e+002, 2.845802e+003
5.241703e+002, 2.880078e+003
5.246525e+002, 2.918988e+003
5.251346e+002, 2.962708e+003
5.256167e+002, 3.012169e+003
5.260988e+002, 3.067652e+003
5.265809e+002, 3.128247e+003
5.270630e+002, 3.192108e+003
5.275452e+002, 3.259227e+003
5.280273e+002, 3.330483e+003
5.285094e+002, 3.406706e+003
5.289915e+002, 3.487687e+003
5.294736e+002, 3.575866e+003
5.299557e+002, 3.671994e+003
5.304379e+002, 3.767902e+003
5.309200e+002, 3.864789e+003
5.314021e+002, 3.957267e+003
5.318842e+002, 4.040929e+003
5.323663e+002, 4.120007e+003
5.328484e+002, 4.182321e+003
5.333306e+002, 4.229491e+003
5.338127e+002, 4.257183e+003
5.342948e+002, 4.254751e+003
5.347769e+002, 4.219694e+003
5.352590e+002, 4.156215e+003
5.357411e+002, 4.060859e+003
5.362233e+002, 3.934862e+003
5.367054e+002, 3.798355e+003
5.371875e+002, 3.647113e+003
5.376696e+002, 3.495917e+003
5.381517e+002, 3.349942e+003
5.386339e+002, 3.209658e+003
5.391160e+002, 3.084387e+003
5.395981e+002, 2.974892e+003
5.400802e+002, 2.881745e+003
5.405623e+002, 2.804750e+003
5.410444e+002, 2.743257e+003
5.415266e+002, 2.691801e+003
5.420087e+002, 2.650272e+003
5.424908e+002, 2.616019e+003
5.429729e+002, 2.587000e+003
5.434550e+002, 2.563033e+003
5.439371e+002, 2.542427e+003
5.444193e+002, 2.523698e+003
5.449014e+002, 2.508075e+003
5.453835e+002, 2.497560e+003
5.458656e+002, 2.492544e+003
5.463477e+002, 2.487466e+003
5.468298e+002, 2.478773e+003
5.473120e+002, 2.469656e+003
5.477941e+002, 2.462825e+003
5.482762e+002, 2.460509e+003
5.487583e+002, 2.457916e+003
5.492404e+002, 2.454021e+003
5.497225e+002, 2.449812e+003
5.502047e+002, 2.447058e+003
5.506868e+002, 2.446523e+003
5.511689e+002, 2.445910e+003
5.516510e+002, 2.444304e+003
5.521331e+002, 2.442092e+003
5.526152e+002, 2.442132e+003
5.530974e+002, 2.444824e+003
5.535795e+002, 2.447939e+003
5.540616e+002, 2.449917e+003
5.545437e+002, 2.451042e+003
5.550258e+002, 2.452876e+003
5.555079e+002, 2.455610e+003
5.559901e+002, 2.458622e+003
5.564722e+002, 2.460532e+003
5.569543e+002, 2.462350e+003
5.574364e+002, 2.466350e+003
5.579185e+002, 2.474273e+003
5.584006e+002, 2.482803e+003
5.588828e+002, 2.489291e+003
5.593649e+002, 2.494352e+003
5.598470e+002, 2.499593e+003
5.603291e+002, 2.504887e+003
5.608112e+002, 2.511079e+003
5.612933e+002, 2.518924e+003
5.617755e+002, 2.528412e+003
5.622576e+002, 2.537546e+003
5.627397e+002, 2.545085e+003
5.632218e+002, 2.552824e+003
5.637039e+002, 2.561847e+003
5.641860e+002, 2.573174e+003
5.646682e+002, 2.583020e+003
5.651503e+002, 2.590598e+003
5.656324e+002, 2.597883e+003
5.661145e+002, 2.607469e+003
5.665966e+002, 2.619708e+003
5.670787e+002, 2.632151e+003
5.675609e+002, 2.644189e+003
5.680430e+002, 2.656359e+003
5.685251e+002, 2.669261e+003
5.690072e+002, 2.683058e+003
5.694893e+002, 2.697879e+003
5.699714e+002, 2.714437e+003
5.704536e+002, 2.731957e+003
5.709357e+002, 2.749272e+003
5.714178e+002, 2.766333e+003
5.718999e+002, 2.784165e+003
5.723820e+002, 2.803074e+003
5.728641e+002, 2.823044e+003
5.733463e+002, 2.843632e+003
5.738284e+002, 2.864586e+003
5.743105e+002, 2.887176e+003
5.747926e+002, 2.912290e+003
5.752747e+002, 2.939044e+003
5.757568e+002, 2.966234e+003
5.762390e+002, 2.994186e+003
5.767211e+002, 3.022335e+003
5.772032e+002, 3.049833e+003
5.776853e+002, 3.077658e+003
5.781674e+002, 3.108536e+003
5.786495e+002, 3.143272e+003
5.791317e+002, 3.178761e+003
5.796138e+002, 3.213956e+003
5.800959e+002, 3.248859e+003
5.805780e+002, 3.282673e+003
5.810601e+002, 3.315479e+003
5.815422e+002, 3.349725e+003
5.820244e+002, 3.387904e+003
5.825065e+002, 3.429354e+003
5.829886e+002, 3.471796e+003
5.834707e+002, 3.515707e+003
5.839528e+002, 3.559903e+003
5.844349e+002, 3.603494e+003
5.849171e+002, 3.646789e+003
5.853992e+002, 3.690281e+003
5.858813e+002, 3.736659e+003
5.863634e+002, 3.780669e+003
5.868455e+002, 3.819093e+003
5.873276e+002, 3.853345e+003
5.878098e+002, 3.885796e+003
5.882919e+002, 3.917665e+003
5.887740e+002, 3.946900e+003
5.892561e+002, 3.973447e+003
5.897382e+002, 3.997319e+003
5.902203e+002, 4.016208e+003
5.907025e+002, 4.029333e+003
5.911846e+002, 4.038525e+003
5.916667e+002, 4.045384e+003
5.921488e+002, 4.050159e+003
5.926309e+002, 4.048684e+003
5.931130e+002, 4.040368e+003
5.935952e+002, 4.027700e+003
5.940773e+002, 4.012419e+003
5.945594e+002, 3.995062e+003
5.950415e+002, 3.978047e+003
5.955236e+002, 3.962095e+003
5.960057e+002, 3.946279e+003
5.964879e+002, 3.929256e+003
5.969700e+002, 3.911683e+003
5.974521e+002, 3.895252e+003
5.979342e+002, 3.881099e+003
5.984163e+002, 3.867928e+003
5.988984e+002, 3.855091e+003
5.993806e+002, 3.842532e+003
5.998627e+002, 3.830549e+003
6.003448e+002, 3.817634e+003
6.008269e+002, 3.806673e+003
6.013090e+002, 3.799108e+003
6.017911e+002, 3.795734e+003
6.022733e+002, 3.792301e+003
6.027554e+002, 3.788026e+003
6.032375e+002, 3.784772e+003
6.037196e+002, 3.784630e+003
6.042017e+002, 3.787882e+003
6.046838e+002, 3.791013e+003
6.051660e+002, 3.792918e+003
6.056481e+002, 3.796250e+003
6.061302e+002, 3.806953e+003
6.066123e+002, 3.823436e+003
6.070944e+002, 3.838042e+003
6.075765e+002, 3.845990e+003
6.080587e+002, 3.852729e+003
6.085408e+002, 3.865266e+003
6.090229e+002, 3.882226e+003
6.095050e+002, 3.899180e+003
6.099871e+002, 3.911853e+003
6.104692e+002, 3.925191e+003
6.109514e+002, 3.942542e+003
6.114335e+002, 3.964440e+003
6.119156e+002, 3.986330e+003
6.123977e+002, 4.006652e+003
6.128798e+002, 4.027197e+003
6.133619e+002, 4.049035e+003
6.138441e+002, 4.074509e+003
6.143262e+002, 4.096087e+003
6.148083e+002, 4.112735e+003
6.152904e+002, 4.127160e+003
6.157725e+002, 4.142503e+003
6.162546e+002, 4.158896e+003
6.167368e+002, 4.174439e+003
6.172189e+002, 4.188783e+003
6.177010e+002, 4.202537e+003
6.181831e+002, 4.217076e+003
6.186652e+002, 4.232010e+003
6.191473e+002, 4.245824e+003
6.196295e+002, 4.257677e+003
6.201116e+002, 4.267964e+003
6.205937e+002, 4.276263e+003
6.210758e+002, 4.282987e+003
6.215579e+002, 4.290475e+003
6.220400e+002, 4.300464e+003
6.225222e+002, 4.310873e+003
6.230043e+002, 4.319878e+003
6.234864e+002, 4.326548e+003
6.239685e+002, 4.336269e+003
6.244506e+002, 4.350706e+003
6.249327e+002, 4.367352e+003
6.254149e+002, 4.384667e+003
6.258970e+002, 4.402158e+003
6.263791e+002, 4.421328e+003
6.268612e+002, 4.442415e+003
6.273433e+002, 4.464857e+003
6.278254e+002, 4.488139e+003
6.283076e+002, 4.512222e+003
6.287897e+002, 4.536383e+003
6.292718e+002, 4.560463e+003
6.297539e+002, 4.584610e+003
6.302360e+002, 4.609729e+003
6.307181e+002, 4.635092e+003
6.312003e+002, 4.657998e+003
6.316824e+002, 4.677107e+003
6.321645e+002, 4.693323e+003
6.326466e+002, 4.709104e+003
6.331287e+002, 4.723529e+003
6.336108e+002, 4.729729e+003
6.340930e+002, 4.723506e+003
6.345751e+002, 4.710126e+003
6.350572e+002, 4.692146e+003
6.355393e+002, 4.669897e+003
6.360214e+002, 4.641619e+003
6.365035e+002, 4.606898e+003
6.369857e+002, 4.566413e+003
6.374678e+002, 4.520438e+003
6.379499e+002, 4.468767e+003
6.384320e+002, 4.413798e+003
6.389141e+002, 4.355531e+003
6.393962e+002, 4.295918e+003
6.398784e+002, 4.237080e+003
6.403605e+002, 4.179537e+003
6.408426e+002, 4.122904e+003
6.413247e+002, 4.067139e+003
6.418068e+002, 4.013360e+003
6.422889e+002, 3.961771e+003
6.427711e+002, 3.912936e+003
6.432532e+002, 3.866742e+003
6.437353e+002, 3.824919e+003
6.442174e+002, 3.784827e+003
6.446995e+002, 3.744769e+003
6.451816e+002, 3.705218e+003
6.456638e+002, 3.668372e+003
6.461459e+002, 3.635262e+003
6.466280e+002, 3.604295e+003
6.471101e+002, 3.574406e+003
6.475922e+002, 3.545687e+003
6.480743e+002, 3.520509e+003
6.485565e+002, 3.499557e+003
6.490386e+002, 3.480724e+003
6.495207e+002, 3.463769e+003
6.500028e+002, 3.448306e+003
6.504849e+002, 3.430581e+003
6.509670e+002, 3.410160e+003
6.514492e+002, 3.389522e+003
6.519313e+002, 3.372993e+003
6.524134e+002, 3.357997e+003
6.528955e+002, 3.339997e+003
6.533776e+002, 3.317098e+003
6.538597e+002, 3.291982e+003
6.543419e+002, 3.266572e+003
6.548240e+002, 3.239911e+003
6.553061e+002, 3.210935e+003
6.557882e+002, 3.178175e+003
6.562703e+002, 3.144497e+003
6.567524e+002, 3.109618e+003
6.572346e+002, 3.074337e+003
6.577167e+002, 3.040887e+003
6.581988e+002, 3.009527e+003
6.586809e+002, 2.979458e+003
6.591630e+002, 2.950243e+003
6.596451e+002, 2.922065e+003
6.601273e+002, 2.896228e+003
6.606094e+002, 2.872431e+003
6.610915e+002, 2.850294e+003
6.615736e+002, 2.828852e+003
6.620557e+002, 2.808703e+003
6.625378e+002, 2.791141e+003
6.630200e+002, 2.776202e+003
6.635021e+002, 2.763106e+003
6.639842e+002, 2.752356e+003
6.644663e+002, 2.742529e+003
6.649484e+002, 2.732352e+003
6.654305e+002, 2.721215e+003
6.659127e+002, 2.710689e+003
6.663948e+002, 2.701070e+003
6.668769e+002, 2.692364e+003
6.673590e+002, 2.684520e+003
6.678411e+002, 2.678016e+003
6.683232e+002, 2.671719e+003
6.688054e+002, 2.666015e+003
6.692875e+002, 2.660086e+003
6.697696e+002, 2.652454e+003
6.702517e+002, 2.643092e+003
6.707338e+002, 2.632771e+003
6.712159e+002, 2.621093e+003
6.716981e+002, 2.609533e+003
6.721802e+002, 2.600642e+003
6.726623e+002, 2.594200e+003
6.731444e+002, 2.589120e+003
6.736265e+002, 2.586174e+003
6.741086e+002, 2.583392e+003
6.745908e+002, 2.579164e+003
6.750729e+002, 2.573722e+003
6.755550e+002, 2.568482e+003
6.760371e+002, 2.563527e+003
6.765192e+002, 2.559269e+003
6.770013e+002, 2.555921e+003
6.774835e+002, 2.553542e+003
6.779656e+002, 2.551332e+003
6.784477e+002, 2.549119e+003
6.789298e+002, 2.547368e+003
6.794119e+002, 2.546896e+003
6.798940e+002, 2.547700e+003
6.803762e+002, 2.546358e+003
6.808583e+002, 2.542403e+003
6.813404e+002, 2.538304e+003
6.818225e+002, 2.536363e+003
6.823046e+002, 2.536159e+003
6.827867e+002, 2.537041e+003
6.832689e+002, 2.539228e+003
6.837510e+002, 2.541230e+003
6.842331e+002, 2.541948e+003
6.847152e+002, 2.541839e+003
6.851973e+002, 2.541466e+003
6.856794e+002, 2.540678e+003
6.861616e+002, 2.540032e+003
6.866437e+002, 2.539832e+003
6.871258e+002, 2.539802e+003
6.876079e+002, 2.539243e+003
6.880900e+002, 2.537415e+003
6.885721e+002, 2.537157e+003
6.890543e+002, 2.539839e+003
6.895364e+002, 2.544058e+003
6.900185e+002, 2.545382e+003
6.905006e+002, 2.543878e+003
6.909827e+002, 2.542415e+003
6.914648e+002, 2.542759e+003
6.919470e+002, 2.543830e+003
6.924291e+002, 2.543875e+003
6.929112e+002, 2.543056e+003
6.933933e+002, 2.542299e+003
6.938754e+002, 2.542339e+003
6.943575e+002, 2.542453e+003
6.948397e+002, 2.541709e+003
6.953218e+002, 2.539879e+003
6.958039e+002, 2.540021e+003
6.962860e+002, 2.545001e+003
6.967681e+002, 2.549750e+003
6.972502e+002, 2.551561e+003
6.977324e+002, 2.549678e+003
6.982145e+002, 2.548762e+003
6.986966e+002, 2.549100e+003
6.991787e+002, 2.549641e+003
6.996608e+002, 2.548636e+003
7.001429e+002, 2.546726e+003
7.006251e+002, 2.547478e+003
7.011072e+002, 2.551702e+003
7.015893e+002, 2.556497e+003
7.020714e+002, 2.559398e+003
7.025535e+002, 2.560860e+003
7.030356e+002, 2.561437e+003
7.035178e+002, 2.560486e+003
7.039999e+002, 2.559994e+003
7.044820e+002, 2.561083e+003
7.049641e+002, 2.562965e+003
7.054462e+002, 2.564411e+003
7.059283e+002, 2.564626e+003
7.064105e+002, 2.565649e+003
7.068926e+002, 2.568352e+003
7.073747e+002, 2.571666e+003
7.078568e+002, 2.572821e+003
7.083389e+002, 2.571678e+003
7.088210e+002, 2.570499e+003
7.093032e+002, 2.569918e+003
7.097853e+002, 2.569927e+003
7.102674e+002, 2.570680e+003
7.107495e+002, 2.572065e+003
7.112316e+002, 2.573558e+003
7.117137e+002, 2.575060e+003
7.121959e+002, 2.576406e+003
7.126780e+002, 2.577307e+003
7.131601e+002, 2.577848e+003
7.136422e+002, 2.578654e+003
7.141243e+002, 2.579953e+003
7.146064e+002, 2.581511e+003
7.150886e+002, 2.583317e+003
7.155707e+002, 2.585398e+003
7.160528e+002, 2.587299e+003
7.165349e+002, 2.589240e+003
7.170170e+002, 2.590505e+003
7.174991e+002, 2.590168e+003
7.179813e+002, 2.588543e+003
7.184634e+002, 2.588229e+003
7.189455e+002, 2.589336e+003
7.194276e+002, 2.590727e+003
7.199097e+002, 2.591781e+003
7.203918e+002, 2.592375e+003
7.208740e+002, 2.591819e+003
7.213561e+002, 2.589584e+003
7.218382e+002, 2.588881e+003
7.223203e+002, 2.593060e+003
7.228024e+002, 2.598343e+003
7.232845e+002, 2.601340e+003
7.237667e+002, 2.599546e+003
7.242488e+002, 2.599297e+003
7.247309e+002, 2.601014e+003
7.252130e+002, 2.603796e+003
7.256951e+002, 2.607190e+003
7.261772e+002, 2.611374e+003
7.266594e+002, 2.613041e+003
7.271415e+002, 2.611120e+003
7.276236e+002, 2.608134e+003
7.281057e+002, 2.607809e+003
7.285878e+002, 2.609204e+003
7.290699e+002, 2.609745e+003
7.295521e+002, 2.607724e+003
7.300342e+002, 2.606022e+003
7.305163e+002, 2.607323e+003
7.309984e+002, 2.610169e+003
7.314805e+002, 2.611956e+003
7.319626e+002, 2.611570e+003
7.324448e+002, 2.610595e+003
7.329269e+002, 2.608778e+003
7.334090e+002, 2.606710e+003
7.338911e+002, 2.606201e+003
7.343732e+002, 2.607635e+003
7.348553e+002, 2.609088e+003
7.353375e+002, 2.609945e+003
7.358196e+002, 2.610439e+003
7.363017e+002, 2.611188e+003
7.367838e+002, 2.612146e+003
7.372659e+002, 2.613013e+003
7.377480e+002, 2.613463e+003
7.382302e+002, 2.613861e+003
7.387123e+002, 2.614924e+003
7.391944e+002, 2.616369e+003
7.396765e+002, 2.616849e+003
7.401586e+002, 2.614114e+003
7.406407e+002, 2.611952e+003
7.411229e+002, 2.612352e+003
7.416050e+002, 2.615184e+003
7.420871e+002, 2.617843e+003
7.425692e+002, 2.620626e+003
7.430513e+002, 2.622594e+003
7.435334e+002, 2.623041e+003
7.440156e+002, 2.622148e+003
7.444977e+002, 2.621374e+003
7.449798e+002, 2.620718e+003
7.454619e+002, 2.620009e+003
7.459440e+002, 2.618648e+003
7.464261e+002, 2.617404e+003
7.469083e+002, 2.617568e+003
7.473904e+002, 2.619270e+003
7.478725e+002, 2.620480e+003
7.483546e+002, 2.618859e+003
7.488367e+002, 2.617382e+003
7.493188e+002, 2.618316e+003
7.498010e+002, 2.622627e+003
7.502831e+002, 2.626199e+003
7.507652e+002, 2.629474e+003
7.512473e+002, 2.631258e+003
7.517294e+002, 2.629788e+003
7.522115e+002, 2.625140e+003
7.526937e+002, 2.622728e+003
7.531758e+002, 2.623091e+003
7.536579e+002, 2.624238e+003
7.541400e+002, 2.624520e+003
7.546221e+002, 2.624115e+003
7.551042e+002, 2.623065e+003
7.555864e+002, 2.621105e+003
7.560685e+002, 2.619836e+003
7.565506e+002, 2.621521e+003
7.570327e+002, 2.623664e+003
7.575148e+002, 2.623690e+003
7.579969e+002, 2.618777e+003
7.584791e+002, 2.615643e+003
7.589612e+002, 2.614619e+003
7.594433e+002, 2.614979e+003
7.599254e+002, 2.615844e+003
7.604075e+002, 2.617182e+003
7.608896e+002, 2.619775e+003
7.613718e+002, 2.624167e+003
7.618539e+002, 2.628362e+003
7.623360e+002, 2.629352e+003
7.628181e+002, 2.628207e+003
7.633002e+002, 2.627173e+003
7.637823e+002, 2.627015e+003
7.642645e+002, 2.626930e+003
7.647466e+002, 2.626659e+003
7.652287e+002, 2.626149e+003
7.657108e+002, 2.625284e+003
7.661929e+002, 2.622694e+003
7.666750e+002, 2.621876e+003
7.671572e+002, 2.624120e+003
7.676393e+002, 2.627569e+003
7.681214e+002, 2.628426e+003
7.686035e+002, 2.626468e+003
7.690856e+002, 2.625134e+003
7.695677e+002, 2.625201e+003
7.700499e+002, 2.626419e+003
7.705320e+002, 2.629254e+003
7.710141e+002, 2.632931e+003
7.714962e+002, 2.635483e+003
7.719783e+002, 2.635035e+003
7.724604e+002, 2.634300e+003
7.729426e+002, 2.634763e+003
7.734247e+002, 2.635958e+003
7.739068e+002, 2.636817e+003
7.743889e+002, 2.637163e+003
7.748710e+002, 2.637244e+003
7.753531e+002, 2.637188e+003
7.758353e+002, 2.636874e+003
7.763174e+002, 2.635502e+003
7.767995e+002, 2.632998e+003
7.772816e+002, 2.631780e+003
7.777637e+002, 2.633015e+003
7.782458e+002, 2.635786e+003
7.787280e+002, 2.639592e+003
7.792101e+002, 2.643802e+003
7.796922e+002, 2.646296e+003
7.801743e+002, 2.644307e+003
7.806564e+002, 2.642106e+003
7.811385e+002, 2.641706e+003
7.816207e+002, 2.642916e+003
7.821028e+002, 2.644788e+003
7.825849e+002, 2.647876e+003
7.830670e+002, 2.650517e+003
7.835491e+002, 2.652180e+003
7.840313e+002, 2.653050e+003
7.845134e+002, 2.654192e+003
7.849955e+002, 2.655608e+003
7.854776e+002, 2.655907e+003
7.859597e+002, 2.652985e+003
7.864418e+002, 2.649570e+003
7.869240e+002, 2.651294e+003
7.874061e+002, 2.656640e+003
7.878882e+002, 2.660028e+003
7.883703e+002, 2.655332e+003
7.888524e+002, 2.651122e+003
7.893345e+002, 2.653220e+003
7.898167e+002, 2.660535e+003
7.902988e+002, 2.663065e+003
7.907809e+002, 2.657398e+003
7.912630e+002, 2.653148e+003
7.917451e+002, 2.654307e+003
7.922272e+002, 2.659344e+003
7.927094e+002, 2.661121e+003
7.931915e+002, 2.659767e+003
7.936736e+002, 2.658728e+003
7.941557e+002, 2.660889e+003
7.946378e+002, 2.663899e+003
7.951199e+002, 2.664381e+003
7.956021e+002, 2.662862e+003
7.960842e+002, 2.661880e+003
7.965663e+002, 2.662488e+003
7.970484e+002, 2.663908e+003
7.975305e+002, 2.666863e+003
7.980126e+002, 2.670846e+003
7.984948e+002, 2.671142e+003
7.989769e+002, 2.665726e+003
7.994590e+002, 2.661659e+003
7.999411e+002, 2.662403e+003
8.004232e+002, 2.666708e+003
8.009053e+002, 2.669859e+003
8.013875e+002, 2.671957e+003
8.018696e+002, 2.673935e+003
8.023517e+002, 2.676640e+003
8.028338e+002, 2.679327e+003
8.033159e+002, 2.680751e+003
8.037980e+002, 2.681252e+003
8.042802e+002, 2.682865e+003
8.047623e+002, 2.688099e+003
8.052444e+002, 2.692564e+003
8.057265e+002, 2.694574e+003
8.062086e+002, 2.694320e+003
8.066907e+002, 2.693424e+003
8.071729e+002, 2.691571e+003
8.076550e+002, 2.690227e+003
8.081371e+002, 2.689817e+003
8.086192e+002, 2.690491e+003
8.091013e+002, 2.693867e+003
8.095834e+002, 2.699265e+003
8.100656e+002, 2.702779e+003
8.105477e+002, 2.700697e+003
8.110298e+002, 2.697172e+003
8.115119e+002, 2.694284e+003
8.119940e+002, 2.692309e+003
8.124761e+002, 2.692298e+003
8.129583e+002, 2.696526e+003
8.134404e+002, 2.700119e+003
8.139225e+002, 2.701576e+003
8.144046e+002, 2.701192e+003
8.148867e+002, 2.700359e+003
8.153688e+002, 2.699023e+003
8.158510e+002, 2.698504e+003
8.163331e+002, 2.699646e+003
8.168152e+002, 2.701905e+003
8.172973e+002, 2.704815e+003
8.177794e+002, 2.708112e+003
8.182615e+002, 2.710784e+003
8.187437e+002, 2.711581e+003
8.192258e+002, 2.712255e+003
8.197079e+002, 2.713791e+003
8.201900e+002, 2.716008e+003
8.206721e+002, 2.717627e+003
8.211542e+002, 2.718945e+003
8.216364e+002, 2.718867e+003
8.221185e+002, 2.716374e+003
8.226006e+002, 2.712565e+003
8.230827e+002, 2.711161e+003
8.235648e+002, 2.711947e+003
8.240469e+002, 2.712926e+003
8.245291e+002, 2.712598e+003
8.250112e+002, 2.712417e+003
8.254933e+002, 2.715052e+003
8.259754e+002, 2.719192e+003
8.264575e+002, 2.720655e+003
8.269396e+002, 2.714620e+003
8.274218e+002, 2.709824e+003
8.279039e+002, 2.708990e+003
8.283860e+002, 2.711035e+003
8.288681e+002, 2.712549e+003
8.293502e+002, 2.713573e+003
8.298323e+002, 2.713795e+003
8.303145e+002, 2.712850e+003
8.307966e+002, 2.711338e+003
8.312787e+002, 2.710003e+003
8.317608e+002, 2.709013e+003
8.322429e+002, 2.708961e+003
8.327250e+002, 2.711822e+003
8.332072e+002, 2.713946e+003
8.336893e+002, 2.712392e+003
8.341714e+002, 2.708655e+003
8.346535e+002, 2.706845e+003
8.351356e+002, 2.708864e+003
8.356177e+002, 2.709696e+003
8.360999e+002, 2.707745e+003
8.365820e+002, 2.704813e+003
8.370641e+002, 2.705259e+003
8.375462e+002, 2.708813e+003
8.380283e+002, 2.712599e+003
8.385104e+002, 2.716411e+003
8.389926e+002, 2.718734e+003
8.394747e+002, 2.716206e+003
8.399568e+002, 2.711337e+003
8.404389e+002, 2.708480e+003
8.409210e+002, 2.710763e+003
8.414031e+002, 2.713210e+003
8.418853e+002, 2.714838e+003
8.423674e+002, 2.715931e+003
8.428495e+002, 2.716885e+003
8.433316e+002, 2.717744e+003
8.438137e+002, 2.718050e+003
8.442958e+002, 2.717612e+003
8.447780e+002, 2.716860e+003
8.452601e+002, 2.716276e+003
8.457422e+002, 2.715890e+003
8.462243e+002, 2.715761e+003
8.467064e+002, 2.715873e+003
8.471885e+002, 2.716329e+003
8.476707e+002, 2.718534e+003
8.481528e+002, 2.720520e+003
8.486349e+002, 2.719753e+003
8.491170e+002, 2.712807e+003
8.495991e+002, 2.709569e+003
8.500812e+002, 2.712066e+003
8.505634e+002, 2.715441e+003
8.510455e+002, 2.713198e+003
8.515276e+002, 2.706327e+003
8.520097e+002, 2.702323e+003
8.524918e+002, 2.702289e+003
8.529739e+002, 2.704266e+003
8.534561e+002, 2.708419e+003
8.539382e+002, 2.712541e+003
8.544203e+002, 2.713756e+003
8.549024e+002, 2.710437e+003
8.553845e+002, 2.707970e+003
8.558666e+002, 2.707599e+003
8.563488e+002, 2.708144e+003
8.568309e+002, 2.709058e+003
8.573130e+002, 2.710460e+003
8.577951e+002, 2.710916e+003
8.582772e+002, 2.710292e+003
8.587593e+002, 2.709286e+003
8.592415e+002, 2.708684e+003
8.597236e+002, 2.708021e+003
8.602057e+002, 2.706164e+003
8.606878e+002, 2.703041e+003
8.611699e+002, 2.700576e+003
8.616520e+002, 2.700660e+003
8.621342e+002, 2.700897e+003
8.626163e+002, 2.699256e+003
8.630984e+002, 2.695598e+003
8.635805e+002, 2.694934e+003
8.640626e+002, 2.698669e+003
8.645447e+002, 2.701436e+003
8.650269e+002, 2.699344e+003
8.655090e+002, 2.694057e+003
8.659911e+002, 2.691344e+003
8.664732e+002, 2.690966e+003
8.669553e+002, 2.691025e+003
8.674374e+002, 2.691307e+003
8.679196e+002, 2.690808e+003
8.684017e+002, 2.687851e+003
8.688838e+002, 2.682978e+003
8.693659e+002, 2.680453e+003
8.698480e+002, 2.681842e+003
8.703301e+002, 2.683400e+003
8.708123e+002, 2.684225e+003
8.712944e+002, 2.684295e+003
8.717765e+002, 2.683290e+003
8.722586e+002, 2.681310e+003
8.727407e+002, 2.679657e+003
8.732228e+002, 2.679120e+003
8.737050e+002, 2.678915e+003
8.741871e+002, 2.678641e+003
8.746692e+002, 2.678074e+003
8.751513e+002, 2.676706e+003
8.756334e+002, 2.673454e+003
8.761155e+002, 2.670634e+003
8.765977e+002, 2.668789e+003
8.770798e+002, 2.667553e+003
8.775619e+002, 2.666422e+003
8.780440e+002, 2.665466e+003
8.785261e+002, 2.663695e+003
8.790082e+002, 2.660513e+003
8.794904e+002, 2.657524e+003
8.799725e+002, 2.657375e+003
8.804546e+002, 2.658703e+003
8.809367e+002, 2.658831e+003
8.814188e+002, 2.655500e+003
8.819009e+002, 2.654253e+003
8.823831e+002, 2.659653e+003
8.828652e+002, 2.666465e+003
8.833473e+002, 2.669150e+003
8.838294e+002, 2.666395e+003
8.843115e+002, 2.664926e+003
8.847936e+002, 2.665254e+003
8.852758e+002, 2.665909e+003
8.857579e+002, 2.664529e+003
8.862400e+002, 2.662536e+003
8.867221e+002, 2.664163e+003
8.872042e+002, 2.670196e+003
8.876863e+002, 2.674285e+003
8.881685e+002, 2.671398e+003
8.886506e+002, 2.666352e+003
8.891327e+002, 2.661736e+003
8.896148e+002, 2.657289e+003
8.900969e+002, 2.657323e+003
8.905790e+002, 2.663811e+003
8.910612e+002, 2.669507e+003
8.915433e+002, 2.668767e+003
8.920254e+002, 2.663756e+003
8.925075e+002, 2.663089e+003
8.929896e+002, 2.666237e+003
8.934717e+002, 2.669160e+003
8.939539e+002, 2.668551e+003
8.944360e+002, 2.667627e+003
8.949181e+002, 2.669485e+003
8.954002e+002, 2.673427e+003
8.958823e+002, 2.674211e+003
8.963644e+002, 2.669515e+003
8.968466e+002, 2.665797e+003
8.973287e+002, 2.664983e+003
8.978108e+002, 2.666175e+003
8.982929e+002, 2.666939e+003
8.987750e+002, 2.667441e+003
8.992571e+002, 2.668675e+003
8.997393e+002, 2.671927e+003
9.002214e+002, 2.674699e+003
9.007035e+002, 2.674700e+003
9.011856e+002, 2.672792e+003
9.016677e+002, 2.670430e+003
9.021498e+002, 2.666077e+003
9.026320e+002, 2.663848e+003
9.031141e+002, 2.664285e+003
9.035962e+002, 2.666440e+003
9.040783e+002, 2.669890e+003
9.045604e+002, 2.674393e+003
9.050425e+002, 2.676004e+003
9.055247e+002, 2.673685e+003
9.060068e+002, 2.671401e+003
9.064889e+002, 2.673706e+003
9.069710e+002, 2.677730e+003
9.074531e+002, 2.680341e+003
9.079352e+002, 2.680882e+003
9.084174e+002, 2.680735e+003
9.088995e+002, 2.680401e+003
9.093816e+002, 2.679187e+003
9.098637e+002, 2.675981e+003
9.103458e+002, 2.670762e+003
9.108279e+002, 2.669133e+003
9.113101e+002, 2.671147e+003
9.117922e+002, 2.673442e+003
9.122743e+002, 2.673034e+003
9.127564e+002, 2.671945e+003
9.132385e+002, 2.672537e+003
9.137206e+002, 2.674659e+003
9.142028e+002, 2.676609e+003
9.146849e+002, 2.678908e+003
9.151670e+002, 2.679677e+003
9.156491e+002, 2.678020e+003
9.161312e+002, 2.674539e+003
9.166133e+002, 2.671130e+003
9.170955e+002, 2.667792e+003
9.175776e+002, 2.665782e+003
9.180597e+002, 2.665788e+003
9.185418e+002, 2.667015e+003
9.190239e+002, 2.669196e+003
9.195060e+002, 2.671761e+003
9.199882e+002, 2.673560e+003
9.204703e+002, 2.674825e+003
9.209524e+002, 2.674336e+003
9.214345e+002, 2.670403e+003
9.219166e+002, 2.665823e+003
9.223987e+002, 2.664457e+003
9.228809e+002, 2.666539e+003
9.233630e+002, 2.667001e+003
9.238451e+002, 2.664904e+003
9.243272e+002, 2.663157e+003
9.248093e+002, 2.666758e+003
9.252914e+002, 2.671716e+003
9.257736e+002, 2.671875e+003
9.262557e+002, 2.665317e+003
9.267378e+002, 2.660840e+003
9.272199e+002, 2.663169e+003
9.277020e+002, 2.666328e+003
9.281841e+002, 2.667694e+003
9.286663e+002, 2.667276e+003
9.291484e+002, 2.664723e+003
9.296305e+002, 2.659896e+003
9.301126e+002, 2.655795e+003
9.305947e+002, 2.654412e+003
9.310768e+002, 2.654736e+003
9.315590e+002, 2.656087e+003
9.320411e+002, 2.658138e+003
9.325232e+002, 2.659633e+003
9.330053e+002, 2.659543e+003
9.334874e+002, 2.659571e+003
9.339695e+002, 2.660187e+003
9.344517e+002, 2.661187e+003
9.349338e+002, 2.662218e+003
9.354159e+002, 2.663290e+003
9.358980e+002, 2.663971e+003
9.363801e+002, 2.664060e+003
9.368622e+002, 2.663977e+003
9.373444e+002, 2.663737e+003
9.378265e+002, 2.663828e+003
9.383086e+002, 2.665063e+003
9.387907e+002, 2.668519e+003
9.392728e+002, 2.671362e+003
9.397549e+002, 2.672291e+003
9.402371e+002, 2.673233e+003
9.407192e+002, 2.675828e+003
9.412013e+002, 2.680092e+003
9.416834e+002, 2.684596e+003
9.421655e+002, 2.689238e+003
9.426476e+002, 2.694442e+003
9.431298e+002, 2.700765e+003
9.436119e+002, 2.707612e+003
9.440940e+002, 2.714820e+003
9.445761e+002, 2.722338e+003
9.450582e+002, 2.728544e+003
9.455403e+002, 2.731891e+003
9.460225e+002, 2.735292e+003
9.465046e+002, 2.739573e+003
9.469867e+002, 2.744621e+003
9.474688e+002, 2.750296e+003
9.479509e+002, 2.756491e+003
9.484330e+002, 2.762445e+003
9.489152e+002, 2.767116e+003
9.493973e+002, 2.772367e+003
9.498794e+002, 2.780093e+003
9.503615e+002, 2.789646e+003
9.508436e+002, 2.799922e+003
9.513257e+002, 2.811854e+003
9.518079e+002, 2.822501e+003
9.522900e+002, 2.831048e+003
9.527721e+002, 2.839155e+003
9.532542e+002, 2.848802e+003
9.537363e+002, 2.859861e+003
9.542184e+002, 2.871273e+003
9.547006e+002, 2.882957e+003
9.551827e+002, 2.895232e+003
9.556648e+002, 2.908981e+003
9.561469e+002, 2.923254e+003
9.566290e+002, 2.936722e+003
9.571111e+002, 2.949085e+003
9.575933e+002, 2.963422e+003
9.580754e+002, 2.979854e+003
9.585575e+002, 2.998242e+003
9.590396e+002, 3.018593e+003
9.595217e+002, 3.040613e+003
9.600038e+002, 3.064429e+003
9.604860e+002, 3.089614e+003
9.609681e+002, 3.114032e+003
9.614502e+002, 3.135364e+003
9.619323e+002, 3.156513e+003
9.624144e+002, 3.178202e+003
9.628965e+002, 3.200968e+003
9.633787e+002, 3.225504e+003
9.638608e+002, 3.252640e+003
9.643429e+002, 3.279817e+003
9.648250e+002, 3.307087e+003
9.653071e+002, 3.333933e+003
9.657892e+002, 3.358021e+003
9.662714e+002, 3.380989e+003
9.667535e+002, 3.408315e+003
9.672356e+002, 3.441429e+003
9.677177e+002, 3.473122e+003
9.681998e+002, 3.498585e+003
9.686819e+002, 3.521447e+003
9.691641e+002, 3.543636e+003
9.696462e+002, 3.565439e+003
9.701283e+002, 3.587325e+003
9.706104e+002, 3.609518e+003
9.710925e+002, 3.632053e+003
9.715746e+002, 3.656164e+003
9.720568e+002, 3.680232e+003
9.725389e+002, 3.701780e+003
9.730210e+002, 3.721011e+003
9.735031e+002, 3.737969e+003
9.739852e+002, 3.749434e+003
9.744673e+002, 3.762582e+003
9.749495e+002, 3.780261e+003
9.754316e+002, 3.800431e+003
9.759137e+002, 3.819626e+003
9.763958e+002, 3.837786e+003
9.768779e+002, 3.854613e+003
9.773600e+002, 3.869216e+003
9.778422e+002, 3.886262e+003
9.783243e+002, 3.912225e+003
9.788064e+002, 3.943216e+003
9.792885e+002, 3.974335e+003
9.797706e+002, 4.004857e+003
9.802527e+002, 4.035022e+003
9.807349e+002, 4.063139e+003
9.812170e+002, 4.093390e+003
9.816991e+002, 4.128204e+003
9.821812e+002, 4.166892e+003
9.826633e+002, 4.203475e+003
9.831454e+002, 4.238006e+003
9.836276e+002, 4.271555e+003
9.841097e+002, 4.304424e+003
9.845918e+002, 4.336872e+003
9.850739e+002, 4.370611e+003
9.855560e+002, 4.403772e+003
9.860381e+002, 4.430739e+003
9.865203e+002, 4.450563e+003
9.870024e+002, 4.466189e+003
9.874845e+002, 4.477973e+003
9.879666e+002, 4.485797e+003
9.884487e+002, 4.489998e+003
9.889308e+002, 4.490104e+003
9.894130e+002, 4.484215e+003
9.898951e+002, 4.471644e+003
9.903772e+002, 4.456350e+003
9.908593e+002, 4.440006e+003
9.913414e+002, 4.422330e+003
9.918235e+002, 4.402994e+003
9.923057e+002, 4.381892e+003
9.927878e+002, 4.358896e+003
9.932699e+002, 4.332892e+003
9.937520e+002, 4.310358e+003
9.942341e+002, 4.295149e+003
9.947162e+002, 4.285229e+003
9.951984e+002, 4.277903e+003
9.956805e+002, 4.273055e+003
9.961626e+002, 4.270600e+003
9.966447e+002, 4.270835e+003
9.971268e+002, 4.273061e+003
9.976089e+002, 4.276896e+003
9.980911e+002, 4.282654e+003
9.985732e+002, 4.290585e+003
9.990553e+002, 4.300710e+003
9.995374e+002, 4.314429e+003
1.000020e+003, 4.332057e+003
1.000502e+003, 4.349749e+003
1.000984e+003, 4.364136e+003
1.001466e+003, 4.376379e+003
1.001948e+003, 4.387010e+003
1.002430e+003, 4.395789e+003
1.002912e+003, 4.406245e+003
1.003394e+003, 4.421680e+003
1.003876e+003, 4.432549e+003
1.004359e+003, 4.433883e+003
1.004841e+003, 4.428505e+003
1.005323e+003, 4.424947e+003
1.005805e+003, 4.422393e+003
1.006287e+003, 4.417583e+003
1.006769e+003, 4.408827e+003
1.007251e+003, 4.397736e+003
1.007733e+003, 4.384886e+003
1.008216e+003, 4.370307e+003
1.008698e+003, 4.354131e+003
1.009180e+003, 4.335201e+003
1.009662e+003, 4.318104e+003
1.010144e+003, 4.302764e+003
1.010626e+003, 4.290802e+003
1.011108e+003, 4.283963e+003
1.011590e+003, 4.281779e+003
1.012072e+003, 4.281563e+003
1.012555e+003, 4.283688e+003
1.013037e+003, 4.297278e+003
1.013519e+003, 4.327276e+003
1.014001e+003, 4.367750e+003
1.014483e+003, 4.416309e+003
1.014965e+003, 4.474360e+003
1.015447e+003, 4.544429e+003
1.015929e+003, 4.627110e+003
1.016411e+003, 4.726261e+003
1.016894e+003, 4.841549e+003
1.017376e+003, 4.976753e+003
1.017858e+003, 5.133834e+003
1.018340e+003, 5.312659e+003
1.018822e+003, 5.510752e+003
1.019304e+003, 5.724555e+003
1.019786e+003, 5.968184e+003
1.020268e+003, 6.240173e+003
1.020751e+003, 6.546016e+003
1.021233e+003, 6.889267e+003
1.021715e+003, 7.271376e+003
1.022197e+003, 7.690432e+003
1.022679e+003, 8.147101e+003
1.023161e+003, 8.636847e+003
1.023643e+003, 9.168259e+003
1.024125e+003, 9.720907e+003
1.024607e+003, 1.030133e+004
1.025090e+003, 1.089219e+004
1.025572e+003, 1.146781e+004
1.026054e+003, 1.203482e+004
1.026536e+003, 1.254762e+004
1.027018e+003, 1.300998e+004
1.027500e+003, 1.339202e+004
1.027982e+003, 1.368116e+004
1.028464e+003, 1.386138e+004
1.028947e+003, 1.391126e+004
1.029429e+003, 1.381871e+004
1.029911e+003, 1.361725e+004
1.030393e+003, 1.330251e+004
1.030875e+003, 1.290629e+004
1.031357e+003, 1.243471e+004
1.031839e+003, 1.190182e+004
1.032321e+003, 1.134311e+004
1.032803e+003, 1.076993e+004
1.033286e+003, 1.020737e+004
1.033768e+003, 9.670129e+003
1.034250e+003, 9.153190e+003
1.034732e+003, 8.646634e+003
1.035214e+003, 8.157827e+003
1.035696e+003, 7.701252e+003
1.036178e+003, 7.273039e+003
1.036660e+003, 6.878958e+003
1.037143e+003, 6.515385e+003
1.037625e+003, 6.182231e+003
1.038107e+003, 5.869559e+003
1.038589e+003, 5.581189e+003
1.039071e+003, 5.328173e+003
1.039553e+003, 5.108104e+003
1.040035e+003, 4.907578e+003
1.040517e+003, 4.724407e+003
1.041000e+003, 4.558196e+003
1.041482e+003, 4.412604e+003
1.041964e+003, 4.284668e+003
1.042446e+003, 4.175534e+003
1.042928e+003, 4.082186e+003
1.043410e+003, 3.996153e+003
1.043892e+003, 3.914970e+003
1.044374e+003, 3.840683e+003
1.044856e+003, 3.778347e+003
1.045339e+003, 3.723250e+003
1.045821e+003, 3.670289e+003
1.046303e+003, 3.619111e+003
1.046785e+003, 3.573595e+003
1.047267e+003, 3.534118e+003
1.047749e+003, 3.498008e+003
1.048231e+003, 3.464524e+003
1.048713e+003, 3.433641e+003
1.049195e+003, 3.405841e+003
1.049677e+003, 3.380637e+003
1.050160e+003, 3.357419e+003
1.050642e+003, 3.336418e+003
1.051124e+003, 3.316964e+003
1.051606e+003, 3.299222e+003
1.052088e+003, 3.282538e+003
1.052570e+003, 3.266451e+003
1.053052e+003, 3.250748e+003
1.053534e+003, 3.234909e+003
1.054017e+003, 3.218789e+003
1.054499e+003, 3.205021e+003
1.054981e+003, 3.196351e+003
1.055463e+003, 3.189558e+003
1.055945e+003, 3.183060e+003
1.056427e+003, 3.176753e+003
1.056909e+003, 3.170700e+003
1.057391e+003, 3.164987e+003
1.057874e+003, 3.158649e+003
1.058356e+003, 3.150565e+003
1.058838e+003, 3.143499e+003
1.059320e+003, 3.142087e+003
1.059802e+003, 3.143415e+003
1.060284e+003, 3.143074e+003
1.060766e+003, 3.138582e+003
1.061248e+003, 3.136212e+003
1.061730e+003, 3.136342e+003
1.062213e+003, 3.138273e+003
1.062695e+003, 3.141844e+003
1.063177e+003, 3.146768e+003
1.063659e+003, 3.153019e+003
1.064141e+003, 3.160004e+003
1.064623e+003, 3.164903e+003
1.065105e+003, 3.162008e+003
1.065587e+003, 3.161577e+003
1.066070e+003, 3.168994e+003
1.066552e+003, 3.180559e+003
1.067034e+003, 3.191223e+003
1.067516e+003, 3.200890e+003
1.067998e+003, 3.210832e+003
1.068480e+003, 3.221107e+003
1.068962e+003, 3.231558e+003
1.069444e+003, 3.241683e+003
1.069927e+003, 3.252158e+003
1.070409e+003, 3.263475e+003
1.070891e+003, 3.275643e+003
1.071373e+003, 3.290160e+003
1.071855e+003, 3.307660e+003
1.072337e+003, 3.326043e+003
1.072819e+003, 3.345194e+003
1.073301e+003, 3.364360e+003
1.073783e+003, 3.382722e+003
1.074266e+003, 3.400311e+003
1.074748e+003, 3.417319e+003
1.075230e+003, 3.433743e+003
1.075712e+003, 3.449663e+003
1.076194e+003, 3.465165e+003
1.076676e+003, 3.480271e+003
1.077158e+003, 3.495286e+003
1.077640e+003, 3.510069e+003
1.078122e+003, 3.523655e+003
1.078604e+003, 3.536152e+003
1.079087e+003, 3.548559e+003
1.079569e+003, 3.561131e+003
1.080051e+003, 3.574079e+003
1.080533e+003, 3.588171e+003
1.081015e+003, 3.602263e+003
1.081497e+003, 3.614341e+003
1.081979e+003, 3.623354e+003
1.082461e+003, 3.634573e+003
1.082944e+003, 3.648540e+003
1.083426e+003, 3.663326e+003
1.083908e+003, 3.676931e+003
1.084390e+003, 3.690227e+003
1.084872e+003, 3.704755e+003
1.085354e+003, 3.720423e+003
1.085836e+003, 3.734134e+003
1.086318e+003, 3.743891e+003
1.086801e+003, 3.755296e+003
1.087283e+003, 3.770036e+003
1.087765e+003, 3.786581e+003
1.088247e+003, 3.802757e+003
1.088729e+003, 3.818449e+003
1.089211e+003, 3.833258e+003
1.089693e+003, 3.847394e+003
1.090175e+003, 3.859562e+003
1.090657e+003, 3.867747e+003
1.091140e+003, 3.875151e+003
1.091622e+003, 3.883775e+003
1.092104e+003, 3.893227e+003
1.092586e+003, 3.900966e+003
1.093068e+003, 3.906898e+003
1.093550e+003, 3.909543e+003
1.094032e+003, 3.905969e+003
1.094514e+003, 3.902367e+003
1.094997e+003, 3.904774e+003
1.095479e+003, 3.909119e+003
1.095961e+003, 3.909895e+003
1.096443e+003, 3.906285e+003
1.096925e+003, 3.901078e+003
1.097407e+003, 3.893981e+003
1.097889e+003, 3.887148e+003
1.098371e+003, 3.883081e+003
1.098854e+003, 3.879755e+003
1.099336e+003, 3.875142e+003
1.099818e+003, 3.869044e+003
1.100300e+003, 3.861116e+003
1.100782e+003, 3.850980e+003
1.101264e+003, 3.839157e+003
1.101746e+003, 3.824882e+003
1.102228e+003, 3.810837e+003
1.102710e+003, 3.802241e+003
1.103193e+003, 3.796494e+003
1.103675e+003, 3.785906e+003
1.104157e+003, 3.769662e+003
1.104639e+003, 3.755382e+003
1.105121e+003, 3.747976e+003
1.105603e+003, 3.741424e+003
1.106085e+003, 3.733727e+003
1.106567e+003, 3.724899e+003
1.107049e+003, 3.714970e+003
1.107531e+003, 3.703899e+003
1.108014e+003, 3.692333e+003
1.108496e+003, 3.679935e+003
1.108978e+003, 3.668048e+003
1.109460e+003, 3.656750e+003
1.109942e+003, 3.646961e+003
1.110424e+003, 3.640762e+003
1.110906e+003, 3.638358e+003
1.111388e+003, 3.629389e+003
1.111871e+003, 3.613357e+003
1.112353e+003, 3.597903e+003
1.112835e+003, 3.587619e+003
1.113317e+003, 3.578853e+003
1.113799e+003, 3.567377e+003
1.114281e+003, 3.554987e+003
1.114763e+003, 3.544573e+003
1.115245e+003, 3.538295e+003
1.115728e+003, 3.530615e+003
1.116210e+003, 3.520902e+003
1.116692e+003, 3.512104e+003
1.117174e+003, 3.509365e+003
1.117656e+003, 3.508021e+003
1.118138e+003, 3.497658e+003
1.118620e+003, 3.480453e+003
1.119102e+003, 3.466148e+003
1.119584e+003, 3.459595e+003
1.120067e+003, 3.454404e+003
1.120549e+003, 3.450447e+003
1.121031e+003, 3.445976e+003
1.121513e+003, 3.437842e+003
1.121995e+003, 3.427177e+003
1.122477e+003, 3.418472e+003
1.122959e+003, 3.411979e+003
1.123441e+003, 3.404825e+003
1.123924e+003, 3.393267e+003
1.124406e+003, 3.383321e+003
1.124888e+003, 3.378499e+003
1.125370e+003, 3.376578e+003
1.125852e+003, 3.371110e+003
1.126334e+003, 3.362448e+003
1.126816e+003, 3.354551e+003
1.127298e+003, 3.348484e+003
1.127781e+003, 3.342966e+003
1.128263e+003, 3.337791e+003
1.128745e+003, 3.332268e+003
1.129227e+003, 3.325144e+003
1.129709e+003, 3.316574e+003
1.130191e+003, 3.311483e+003
1.130673e+003, 3.310073e+003
1.131155e+003, 3.308099e+003
1.131637e+003, 3.302924e+003
1.132120e+003, 3.298010e+003
1.132602e+003, 3.297939e+003
1.133084e+003, 3.299988e+003
1.133566e+003, 3.300192e+003
1.134048e+003, 3.297085e+003
1.134530e+003, 3.295598e+003
1.135012e+003, 3.296164e+003
1.135494e+003, 3.296450e+003
1.135976e+003, 3.293938e+003
1.136458e+003, 3.290853e+003
1.136941e+003, 3.291208e+003
1.137423e+003, 3.293891e+003
1.137905e+003, 3.296158e+003
1.138387e+003, 3.296628e+003
1.138869e+003, 3.297677e+003
1.139351e+003, 3.299586e+003
1.139833e+003, 3.301685e+003
1.140315e+003, 3.303724e+003
1.140798e+003, 3.305295e+003
1.141280e+003, 3.304922e+003
1.141762e+003, 3.302902e+003
1.142244e+003, 3.301410e+003
1.142726e+003, 3.300914e+003
1.143208e+003, 3.301733e+003
1.143690e+003, 3.304466e+003
1.144172e+003, 3.307770e+003
1.144655e+003, 3.309323e+003
1.145137e+003, 3.309669e+003
1.145619e+003, 3.311184e+003
1.146101e+003, 3.314191e+003
1.146583e+003, 3.317422e+003
1.147065e+003, 3.319837e+003
1.147547e+003, 3.322890e+003
1.148029e+003, 3.327656e+003
1.148511e+003, 3.333358e+003
1.148994e+003, 3.337677e+003
1.149476e+003, 3.340753e+003
1.149958e+003, 3.343672e+003
1.150440e+003, 3.346699e+003
1.150922e+003, 3.349651e+003
1.151404e+003, 3.352039e+003
1.151886e+003, 3.354562e+003
1.152368e+003, 3.357676e+003
1.152851e+003, 3.361326e+003
1.153333e+003, 3.365565e+003
1.153815e+003, 3.370349e+003
1.154297e+003, 3.374950e+003
1.154779e+003, 3.378962e+003
1.155261e+003, 3.382857e+003
1.155743e+003, 3.386781e+003
1.156225e+003, 3.390847e+003
1.156708e+003, 3.395533e+003
1.157190e+003, 3.401269e+003
1.157672e+003, 3.404276e+003
1.158154e+003, 3.404293e+003
1.158636e+003, 3.404074e+003
1.159118e+003, 3.405601e+003
1.159600e+003, 3.407275e+003
1.160082e+003, 3.406746e+003
1.160564e+003, 3.405343e+003
1.161047e+003, 3.405329e+003
1.161529e+003, 3.406760e+003
1.162011e+003, 3.410622e+003
1.162493e+003, 3.417506e+003
1.162975e+003, 3.424623e+003
1.163457e+003, 3.429922e+003
1.163939e+003, 3.434091e+003
1.164421e+003, 3.437463e+003
1.164903e+003, 3.440458e+003
1.165385e+003, 3.444317e+003
1.165868e+003, 3.449336e+003
1.166350e+003, 3.455128e+003
1.166832e+003, 3.461832e+003
1.167314e+003, 3.468524e+003
1.167796e+003, 3.474390e+003
1.168278e+003, 3.479391e+003
1.168760e+003, 3.483331e+003
1.169242e+003, 3.486282e+003
1.169725e+003, 3.488638e+003
1.170207e+003, 3.489545e+003
1.170689e+003, 3.491553e+003
1.171171e+003, 3.495469e+003
1.171653e+003, 3.499898e+003
1.172135e+003, 3.502562e+003
1.172617e+003, 3.504280e+003
1.173099e+003, 3.507410e+003
1.173582e+003, 3.512135e+003
1.174064e+003, 3.515379e+003
1.174546e+003, 3.514906e+003
1.175028e+003, 3.514104e+003
1.175510e+003, 3.513823e+003
1.175992e+003, 3.513629e+003
1.176474e+003, 3.512691e+003
1.176956e+003, 3.511111e+003
1.177438e+003, 3.509164e+003
1.177921e+003, 3.506850e+003
1.178403e+003, 3.504601e+003
1.178885e+003, 3.503848e+003
1.179367e+003, 3.501623e+003
1.179849e+003, 3.496456e+003
1.180331e+003, 3.489236e+003
1.180813e+003, 3.483073e+003
1.181295e+003, 3.477421e+003
1.181778e+003, 3.470151e+003
1.182260e+003, 3.460554e+003
1.182742e+003, 3.449813e+003
1.183224e+003, 3.438786e+003
1.183706e+003, 3.426056e+003
1.184188e+003, 3.409962e+003
1.184670e+003, 3.391512e+003
1.185152e+003, 3.377846e+003
1.185635e+003, 3.368021e+003
1.186117e+003, 3.356730e+003
1.186599e+003, 3.342059e+003
1.187081e+003, 3.325398e+003
1.187563e+003, 3.306225e+003
1.188045e+003, 3.286417e+003
1.188527e+003, 3.266648e+003
1.189009e+003, 3.247336e+003
1.189491e+003, 3.233235e+003
1.189974e+003, 3.223542e+003
1.190456e+003, 3.212300e+003
1.190938e+003, 3.195024e+003
1.191420e+003, 3.177630e+003
1.191902e+003, 3.162762e+003
1.192384e+003, 3.149265e+003
1.192866e+003, 3.135791e+003
1.193348e+003, 3.122282e+003
1.193830e+003, 3.109485e+003
1.194313e+003, 3.097279e+003
1.194795e+003, 3.084839e+003
1.195277e+003, 3.068967e+003
1.195759e+003, 3.055687e+003
1.196241e+003, 3.051133e+003
1.196723e+003, 3.049559e+003
1.197205e+003, 3.043565e+003
1.197687e+003, 3.033028e+003
1.198169e+003, 3.023723e+003
1.198652e+003, 3.015931e+003
1.199134e+003, 3.007765e+003
1.199616e+003, 2.996228e+003
1.200098e+003, 2.985951e+003
1.200580e+003, 2.980742e+003
1.201062e+003, 2.978271e+003
1.201544e+003, 2.974409e+003
1.202026e+003, 2.969082e+003
1.202509e+003, 2.965711e+003
1.202991e+003, 2.964617e+003
1.203473e+003, 2.963776e+003
1.203955e+003, 2.962449e+003
1.204437e+003, 2.960087e+003
1.204919e+003, 2.954930e+003
1.205401e+003, 2.948797e+003
1.205883e+003, 2.945766e+003
1.206365e+003, 2.945833e+003
1.206848e+003, 2.947525e+003
1.207330e+003, 2.950829e+003
1.207812e+003, 2.952234e+003
1.208294e+003, 2.947841e+003
1.208776e+003, 2.941698e+003
1.209258e+003, 2.935284e+003
1.209740e+003, 2.929624e+003
1.210222e+003, 2.928484e+003
1.210705e+003, 2.931941e+003
1.211187e+003, 2.933400e+003
1.211669e+003, 2.931641e+003
1.212151e+003, 2.928665e+003
1.212633e+003, 2.924958e+003
1.213115e+003, 2.921711e+003
1.213597e+003, 2.920334e+003
1.214079e+003, 2.920206e+003
1.214562e+003, 2.919061e+003
1.215044e+003, 2.916931e+003
1.215526e+003, 2.914752e+003
1.216008e+003, 2.912602e+003
1.216490e+003, 2.911043e+003
1.216972e+003, 2.910592e+003
1.217454e+003, 2.910806e+003
1.217936e+003, 2.911730e+003
1.218418e+003, 2.912991e+003
1.218901e+003, 2.913093e+003
1.219383e+003, 2.911981e+003
1.219865e+003, 2.908918e+003
1.220347e+003, 2.903091e+003
1.220829e+003, 2.897609e+003
1.221311e+003, 2.894717e+003
1.221793e+003, 2.893221e+003
1.222275e+003, 2.892448e+003
1.222757e+003, 2.892206e+003
1.223240e+003, 2.890907e+003
1.223722e+003, 2.888719e+003
1.224204e+003, 2.887779e+003
1.224686e+003, 2.889659e+003
1.225168e+003, 2.890521e+003
1.225650e+003, 2.887221e+003
1.226132e+003, 2.882344e+003
1.226614e+003, 2.877391e+003
1.227096e+003, 2.872671e+003
1.227579e+003, 2.871324e+003
1.228061e+003, 2.872981e+003
1.228543e+003, 2.874327e+003
1.229025e+003, 2.873745e+003
1.229507e+003, 2.873336e+003
1.229989e+003, 2.875355e+003
1.230471e+003, 2.876989e+003
1.230953e+003, 2.875618e+003
1.231436e+003, 2.871724e+003
1.231918e+003, 2.870747e+003
1.232400e+003, 2.872111e+003
1.232882e+003, 2.871946e+003
1.233364e+003, 2.867433e+003
1.233846e+003, 2.863360e+003
1.234328e+003, 2.862327e+003
1.234810e+003, 2.862440e+003
1.235292e+003, 2.862704e+003
1.235775e+003, 2.862980e+003
1.236257e+003, 2.861428e+003
1.236739e+003, 2.858528e+003
1.237221e+003, 2.856758e+003
1.237703e+003, 2.857894e+003
1.238185e+003, 2.859236e+003
1.238667e+003, 2.860347e+003
1.239149e+003, 2.860672e+003
1.239632e+003, 2.859260e+003
1.240114e+003, 2.856606e+003
1.240596e+003, 2.855898e+003
1.241078e+003, 2.856649e+003
1.241560e+003, 2.856789e+003
1.242042e+003, 2.854957e+003
1.242524e+003, 2.852966e+003
1.243006e+003, 2.851129e+003
1.243489e+003, 2.849433e+003
1.243971e+003, 2.847939e+003
1.244453e+003, 2.846566e+003
1.244935e+003, 2.844968e+003
1.245417e+003, 2.843218e+003
1.245899e+003, 2.841657e+003
1.246381e+003, 2.841222e+003
1.246863e+003, 2.839636e+003
1.247345e+003, 2.836055e+003
1.247828e+003, 2.832444e+003
1.248310e+003, 2.831020e+003
1.248792e+003, 2.830761e+003
1.249274e+003, 2.827824e+003
1.249756e+003, 2.823472e+003
1.250238e+003, 2.822022e+003
1.250720e+003, 2.829966e+003
1.251202e+003, 2.832876e+003
1.251684e+003, 2.828251e+003
1.252167e+003, 2.822021e+003
1.252649e+003, 2.818841e+003
1.253131e+003, 2.817841e+003
1.253613e+003, 2.817644e+003
1.254095e+003, 2.818094e+003
1.254577e+003, 2.818941e+003
1.255059e+003, 2.821749e+003
1.255541e+003, 2.821405e+003
1.256023e+003, 2.816896e+003
1.256506e+003, 2.811727e+003
1.256988e+003, 2.808253e+003
1.257470e+003, 2.806501e+003
1.257952e+003, 2.808145e+003
1.258434e+003, 2.811545e+003
1.258916e+003, 2.811441e+003
1.259398e+003, 2.805426e+003
1.259880e+003, 2.801769e+003
1.260363e+003, 2.801181e+003
1.260845e+003, 2.801655e+003
1.261327e+003, 2.803190e+003
1.261809e+003, 2.803507e+003
1.262291e+003, 2.799277e+003
1.262773e+003, 2.792022e+003
1.263255e+003, 2.785730e+003
1.263737e+003, 2.780297e+003
1.264219e+003, 2.777068e+003
1.264702e+003, 2.776186e+003
1.265184e+003, 2.776779e+003
1.265666e+003, 2.779240e+003
1.266148e+003, 2.781865e+003
1.266630e+003, 2.783628e+003
1.267112e+003, 2.784462e+003
1.267594e+003, 2.784395e+003
1.268076e+003, 2.783411e+003
1.268559e+003, 2.781812e+003
1.269041e+003, 2.779643e+003
1.269523e+003, 2.777936e+003
1.270005e+003, 2.778204e+003
1.270487e+003, 2.778244e+003
1.270969e+003, 2.776097e+003
1.271451e+003, 2.773320e+003
1.271933e+003, 2.771734e+003
1.272416e+003, 2.771370e+003
1.272898e+003, 2.773482e+003
1.273380e+003, 2.777820e+003
1.273862e+003, 2.780801e+003
1.274344e+003, 2.778977e+003
1.274826e+003, 2.777097e+003
1.275308e+003, 2.776798e+003
1.275790e+003, 2.777291e+003
1.276272e+003, 2.777918e+003
1.276755e+003, 2.778491e+003
1.277237e+003, 2.778472e+003
1.277719e+003, 2.777754e+003
1.278201e+003, 2.775850e+003
1.278683e+003, 2.769772e+003
1.279165e+003, 2.766696e+003
1.279647e+003, 2.768394e+003
1.280129e+003, 2.772319e+003
1.280611e+003, 2.776806e+003
1.281094e+003, 2.780940e+003
1.281576e+003, 2.782835e+003
1.282058e+003, 2.782560e+003
1.282540e+003, 2.780778e+003
1.283022e+003, 2.775447e+003
1.283504e+003, 2.773064e+003
1.283986e+003, 2.774801e+003
1.284468e+003, 2.777654e+003
1.284950e+003, 2.779060e+003
1.285433e+003, 2.779481e+003
1.285915e+003, 2.778574e+003
1.286397e+003, 2.777146e+003
1.286879e+003, 2.778410e+003
1.287361e+003, 2.783523e+003
1.287843e+003, 2.787458e+003
1.288325e+003, 2.789835e+003
1.288807e+003, 2.790480e+003
1.289290e+003, 2.788140e+003
1.289772e+003, 2.785031e+003
1.290254e+003, 2.782776e+003
1.290736e+003, 2.781352e+003
1.291218e+003, 2.780182e+003
1.291700e+003, 2.779168e+003
1.292182e+003, 2.779893e+003
1.292664e+003, 2.782429e+003
1.293146e+003, 2.785115e+003
1.293629e+003, 2.787286e+003
1.294111e+003, 2.788702e+003
1.294593e+003, 2.789070e+003
1.295075e+003, 2.788623e+003
1.295557e+003, 2.787049e+003
1.296039e+003, 2.784655e+003
1.296521e+003, 2.784498e+003
1.297003e+003, 2.786362e+003
1.297486e+003, 2.787413e+003
1.297968e+003, 2.785596e+003
1.298450e+003, 2.784051e+003
1.298932e+003, 2.784010e+003
1.299414e+003, 2.784098e+003
1.299896e+003, 2.782211e+003
1.300378e+003, 2.779475e+003
1.300860e+003, 2.778758e+003
1.301343e+003, 2.780226e+003
1.301825e+003, 2.783629e+003
##END=



