##NAMES=Wurtzite
##RRUFFID=R130069
##IDEAL CHEMISTRY=Zn^2+^S^2+^
##LOCALITY=Merelani Hills (Mererani), Lelatema Mountains, Arusha Region, Tanzania
##OWNER=RRUFF
##SOURCE=William W. Pinch
##DESCRIPTION=Reddish brown blocky crystals, polytype wurtzite-4H
##STATUS=The identification of this mineral has been confirmed by single-crystal X-ray diffraction.
##URL=rruff.info/R130069
8.936163e+001, 0.000000e+000
8.984375e+001, 7.785499e+002
9.032587e+001, 7.615396e+002
9.080798e+001, 7.594698e+002
9.129010e+001, 7.819278e+002
9.177222e+001, 8.080676e+002
9.225433e+001, 8.058150e+002
9.273645e+001, 7.778748e+002
9.321857e+001, 7.536049e+002
9.370068e+001, 7.688534e+002
9.418280e+001, 8.105013e+002
9.466492e+001, 8.351998e+002
9.514703e+001, 8.200024e+002
9.562915e+001, 7.796259e+002
9.611127e+001, 7.558356e+002
9.659338e+001, 7.506473e+002
9.707550e+001, 7.528169e+002
9.755762e+001, 7.478692e+002
9.803973e+001, 7.355850e+002
9.852185e+001, 7.273497e+002
9.900397e+001, 7.303427e+002
9.948608e+001, 7.449400e+002
9.996820e+001, 7.530123e+002
1.004503e+002, 7.518924e+002
1.009324e+002, 7.473452e+002
1.014146e+002, 7.530294e+002
1.018967e+002, 7.730601e+002
1.023788e+002, 7.917166e+002
1.028609e+002, 8.009595e+002
1.033430e+002, 7.991243e+002
1.038251e+002, 7.924272e+002
1.043073e+002, 7.788327e+002
1.047894e+002, 7.603215e+002
1.052715e+002, 7.475927e+002
1.057536e+002, 7.437621e+002
1.062357e+002, 7.421541e+002
1.067178e+002, 7.375807e+002
1.072000e+002, 7.233130e+002
1.076821e+002, 7.161321e+002
1.081642e+002, 7.230314e+002
1.086463e+002, 7.459559e+002
1.091284e+002, 7.558235e+002
1.096105e+002, 7.368844e+002
1.100927e+002, 7.116997e+002
1.105748e+002, 7.014379e+002
1.110569e+002, 7.196152e+002
1.115390e+002, 7.403198e+002
1.120211e+002, 7.606824e+002
1.125032e+002, 7.837682e+002
1.129854e+002, 7.941008e+002
1.134675e+002, 7.753076e+002
1.139496e+002, 7.451625e+002
1.144317e+002, 7.291751e+002
1.149138e+002, 7.523548e+002
1.153959e+002, 7.769941e+002
1.158781e+002, 7.841159e+002
1.163602e+002, 7.610967e+002
1.168423e+002, 7.411644e+002
1.173244e+002, 7.366397e+002
1.178065e+002, 7.439989e+002
1.182886e+002, 7.542730e+002
1.187708e+002, 7.708065e+002
1.192529e+002, 7.851790e+002
1.197350e+002, 7.906627e+002
1.202171e+002, 7.847328e+002
1.206992e+002, 7.704349e+002
1.211813e+002, 7.390190e+002
1.216635e+002, 6.953896e+002
1.221456e+002, 6.677277e+002
1.226277e+002, 6.884526e+002
1.231098e+002, 7.322454e+002
1.235919e+002, 7.655638e+002
1.240740e+002, 7.676432e+002
1.245562e+002, 7.593763e+002
1.250383e+002, 7.667097e+002
1.255204e+002, 7.895497e+002
1.260025e+002, 8.061484e+002
1.264846e+002, 7.906180e+002
1.269667e+002, 7.532989e+002
1.274489e+002, 7.200431e+002
1.279310e+002, 6.982900e+002
1.284131e+002, 6.887374e+002
1.288952e+002, 6.974174e+002
1.293773e+002, 7.275964e+002
1.298594e+002, 7.611497e+002
1.303416e+002, 7.781964e+002
1.308237e+002, 7.793946e+002
1.313058e+002, 7.706796e+002
1.317879e+002, 7.441347e+002
1.322700e+002, 7.064998e+002
1.327521e+002, 6.947527e+002
1.332343e+002, 7.187198e+002
1.337164e+002, 7.571694e+002
1.341985e+002, 7.696651e+002
1.346806e+002, 7.545190e+002
1.351627e+002, 7.356694e+002
1.356448e+002, 7.268540e+002
1.361270e+002, 7.280399e+002
1.366091e+002, 7.374361e+002
1.370912e+002, 7.595004e+002
1.375733e+002, 7.873734e+002
1.380554e+002, 7.962876e+002
1.385375e+002, 7.807143e+002
1.390197e+002, 7.622922e+002
1.395018e+002, 7.598641e+002
1.399839e+002, 7.784894e+002
1.404660e+002, 7.905705e+002
1.409481e+002, 7.887399e+002
1.414302e+002, 7.745652e+002
1.419124e+002, 7.703243e+002
1.423945e+002, 7.823562e+002
1.428766e+002, 7.955965e+002
1.433587e+002, 7.929764e+002
1.438408e+002, 7.630999e+002
1.443229e+002, 7.407495e+002
1.448051e+002, 7.342587e+002
1.452872e+002, 7.454307e+002
1.457693e+002, 7.597673e+002
1.462514e+002, 7.839858e+002
1.467335e+002, 8.073992e+002
1.472156e+002, 8.159543e+002
1.476978e+002, 7.972954e+002
1.481799e+002, 7.788438e+002
1.486620e+002, 7.661722e+002
1.491441e+002, 7.580499e+002
1.496262e+002, 7.595718e+002
1.501083e+002, 7.798569e+002
1.505905e+002, 8.082755e+002
1.510726e+002, 8.262427e+002
1.515547e+002, 8.235073e+002
1.520368e+002, 8.190533e+002
1.525189e+002, 8.197454e+002
1.530010e+002, 8.358621e+002
1.534832e+002, 8.392964e+002
1.539653e+002, 8.125994e+002
1.544474e+002, 7.710867e+002
1.549295e+002, 7.515258e+002
1.554116e+002, 7.865537e+002
1.558937e+002, 8.241916e+002
1.563759e+002, 8.399923e+002
1.568580e+002, 8.111616e+002
1.573401e+002, 7.865587e+002
1.578222e+002, 7.770118e+002
1.583043e+002, 7.794578e+002
1.587864e+002, 7.825988e+002
1.592686e+002, 7.795170e+002
1.597507e+002, 7.784214e+002
1.602328e+002, 7.846147e+002
1.607149e+002, 8.066384e+002
1.611970e+002, 8.287719e+002
1.616791e+002, 8.469849e+002
1.621613e+002, 8.611624e+002
1.626434e+002, 8.722578e+002
1.631255e+002, 8.738856e+002
1.636076e+002, 8.753093e+002
1.640897e+002, 8.847811e+002
1.645718e+002, 9.087374e+002
1.650540e+002, 9.382361e+002
1.655361e+002, 9.696306e+002
1.660182e+002, 1.003009e+003
1.665003e+002, 1.037997e+003
1.669824e+002, 1.079197e+003
1.674645e+002, 1.121107e+003
1.679467e+002, 1.156408e+003
1.684288e+002, 1.166086e+003
1.689109e+002, 1.179646e+003
1.693930e+002, 1.217660e+003
1.698751e+002, 1.281425e+003
1.703572e+002, 1.361184e+003
1.708394e+002, 1.452113e+003
1.713215e+002, 1.555314e+003
1.718036e+002, 1.670997e+003
1.722857e+002, 1.805445e+003
1.727678e+002, 1.950235e+003
1.732499e+002, 2.094219e+003
1.737321e+002, 2.236413e+003
1.742142e+002, 2.389230e+003
1.746963e+002, 2.574374e+003
1.751784e+002, 2.781896e+003
1.756605e+002, 2.989101e+003
1.761426e+002, 3.176084e+003
1.766248e+002, 3.356863e+003
1.771069e+002, 3.554997e+003
1.775890e+002, 3.778709e+003
1.780711e+002, 3.996839e+003
1.785532e+002, 4.176610e+003
1.790353e+002, 4.324082e+003
1.795175e+002, 4.454039e+003
1.799996e+002, 4.573892e+003
1.804817e+002, 4.682939e+003
1.809638e+002, 4.778666e+003
1.814459e+002, 4.856538e+003
1.819280e+002, 4.933039e+003
1.824102e+002, 5.033578e+003
1.828923e+002, 5.154088e+003
1.833744e+002, 5.280961e+003
1.838565e+002, 5.399548e+003
1.843386e+002, 5.516744e+003
1.848207e+002, 5.649993e+003
1.853029e+002, 5.806232e+003
1.857850e+002, 5.973292e+003
1.862671e+002, 6.129069e+003
1.867492e+002, 6.274167e+003
1.872313e+002, 6.434036e+003
1.877134e+002, 6.627338e+003
1.881956e+002, 6.852070e+003
1.886777e+002, 7.091223e+003
1.891598e+002, 7.349245e+003
1.896419e+002, 7.615767e+003
1.901240e+002, 7.869231e+003
1.906061e+002, 8.112439e+003
1.910883e+002, 8.351823e+003
1.915704e+002, 8.595405e+003
1.920525e+002, 8.844521e+003
1.925346e+002, 9.092365e+003
1.930167e+002, 9.341553e+003
1.934988e+002, 9.579470e+003
1.939810e+002, 9.740952e+003
1.944631e+002, 9.810729e+003
1.949452e+002, 9.883849e+003
1.954273e+002, 1.001285e+004
1.959094e+002, 1.019563e+004
1.963915e+002, 1.034361e+004
1.968737e+002, 1.043775e+004
1.973558e+002, 1.048758e+004
1.978379e+002, 1.051891e+004
1.983200e+002, 1.052790e+004
1.988021e+002, 1.053702e+004
1.992842e+002, 1.056493e+004
1.997664e+002, 1.061193e+004
2.002485e+002, 1.067041e+004
2.007306e+002, 1.074449e+004
2.012127e+002, 1.082955e+004
2.016948e+002, 1.090096e+004
2.021769e+002, 1.095867e+004
2.026591e+002, 1.100544e+004
2.031412e+002, 1.103867e+004
2.036233e+002, 1.105569e+004
2.041054e+002, 1.108174e+004
2.045875e+002, 1.112380e+004
2.050696e+002, 1.118018e+004
2.055518e+002, 1.123697e+004
2.060339e+002, 1.129383e+004
2.065160e+002, 1.135147e+004
2.069981e+002, 1.140681e+004
2.074802e+002, 1.145460e+004
2.079623e+002, 1.152226e+004
2.084445e+002, 1.162621e+004
2.089266e+002, 1.176402e+004
2.094087e+002, 1.185987e+004
2.098908e+002, 1.189833e+004
2.103729e+002, 1.192447e+004
2.108550e+002, 1.199184e+004
2.113372e+002, 1.211296e+004
2.118193e+002, 1.222863e+004
2.123014e+002, 1.232846e+004
2.127835e+002, 1.241185e+004
2.132656e+002, 1.246600e+004
2.137477e+002, 1.247479e+004
2.142299e+002, 1.247724e+004
2.147120e+002, 1.252379e+004
2.151941e+002, 1.263307e+004
2.156762e+002, 1.273392e+004
2.161583e+002, 1.280469e+004
2.166404e+002, 1.284226e+004
2.171226e+002, 1.290175e+004
2.176047e+002, 1.300381e+004
2.180868e+002, 1.310334e+004
2.185689e+002, 1.313903e+004
2.190510e+002, 1.307801e+004
2.195331e+002, 1.303129e+004
2.200153e+002, 1.302849e+004
2.204974e+002, 1.307367e+004
2.209795e+002, 1.312063e+004
2.214616e+002, 1.317440e+004
2.219437e+002, 1.322574e+004
2.224258e+002, 1.326262e+004
2.229080e+002, 1.327821e+004
2.233901e+002, 1.329393e+004
2.238722e+002, 1.331448e+004
2.243543e+002, 1.334013e+004
2.248364e+002, 1.336802e+004
2.253185e+002, 1.339275e+004
2.258007e+002, 1.342384e+004
2.262828e+002, 1.348010e+004
2.267649e+002, 1.358794e+004
2.272470e+002, 1.366618e+004
2.277291e+002, 1.368085e+004
2.282112e+002, 1.361907e+004
2.286934e+002, 1.359543e+004
2.291755e+002, 1.362565e+004
2.296576e+002, 1.367971e+004
2.301397e+002, 1.371763e+004
2.306218e+002, 1.372887e+004
2.311039e+002, 1.374428e+004
2.315861e+002, 1.376956e+004
2.320682e+002, 1.380425e+004
2.325503e+002, 1.385994e+004
2.330324e+002, 1.396016e+004
2.335145e+002, 1.406220e+004
2.339966e+002, 1.410728e+004
2.344788e+002, 1.405560e+004
2.349609e+002, 1.401838e+004
2.354430e+002, 1.402797e+004
2.359251e+002, 1.409209e+004
2.364072e+002, 1.414874e+004
2.368893e+002, 1.419458e+004
2.373715e+002, 1.423558e+004
2.378536e+002, 1.427978e+004
2.383357e+002, 1.433307e+004
2.388178e+002, 1.437915e+004
2.392999e+002, 1.441050e+004
2.397820e+002, 1.442304e+004
2.402642e+002, 1.444915e+004
2.407463e+002, 1.449824e+004
2.412284e+002, 1.455239e+004
2.417105e+002, 1.458774e+004
2.421926e+002, 1.458904e+004
2.426747e+002, 1.459881e+004
2.431569e+002, 1.463071e+004
2.436390e+002, 1.468890e+004
2.441211e+002, 1.473527e+004
2.446032e+002, 1.477017e+004
2.450853e+002, 1.479346e+004
2.455674e+002, 1.480213e+004
2.460496e+002, 1.478222e+004
2.465317e+002, 1.477433e+004
2.470138e+002, 1.479205e+004
2.474959e+002, 1.483892e+004
2.479780e+002, 1.487267e+004
2.484601e+002, 1.488624e+004
2.489423e+002, 1.489463e+004
2.494244e+002, 1.491501e+004
2.499065e+002, 1.495407e+004
2.503886e+002, 1.499287e+004
2.508707e+002, 1.502865e+004
2.513528e+002, 1.506138e+004
2.518350e+002, 1.508704e+004
2.523171e+002, 1.509701e+004
2.527992e+002, 1.510886e+004
2.532813e+002, 1.514345e+004
2.537634e+002, 1.521468e+004
2.542455e+002, 1.527717e+004
2.547277e+002, 1.532075e+004
2.552098e+002, 1.534511e+004
2.556919e+002, 1.536424e+004
2.561740e+002, 1.537225e+004
2.566561e+002, 1.538171e+004
2.571382e+002, 1.540688e+004
2.576204e+002, 1.545824e+004
2.581025e+002, 1.549928e+004
2.585846e+002, 1.551835e+004
2.590667e+002, 1.551709e+004
2.595488e+002, 1.552841e+004
2.600309e+002, 1.555149e+004
2.605131e+002, 1.558812e+004
2.609952e+002, 1.564570e+004
2.614773e+002, 1.574119e+004
2.619594e+002, 1.581101e+004
2.624415e+002, 1.583794e+004
2.629236e+002, 1.582694e+004
2.634058e+002, 1.582472e+004
2.638879e+002, 1.583322e+004
2.643700e+002, 1.584754e+004
2.648521e+002, 1.586076e+004
2.653342e+002, 1.586576e+004
2.658163e+002, 1.589605e+004
2.662985e+002, 1.596817e+004
2.667806e+002, 1.607046e+004
2.672627e+002, 1.613495e+004
2.677448e+002, 1.614956e+004
2.682269e+002, 1.615043e+004
2.687090e+002, 1.616414e+004
2.691912e+002, 1.619485e+004
2.696733e+002, 1.621973e+004
2.701554e+002, 1.623321e+004
2.706375e+002, 1.623929e+004
2.711196e+002, 1.625238e+004
2.716017e+002, 1.627105e+004
2.720839e+002, 1.630003e+004
2.725660e+002, 1.634245e+004
2.730481e+002, 1.639922e+004
2.735302e+002, 1.646789e+004
2.740123e+002, 1.655930e+004
2.744944e+002, 1.665635e+004
2.749766e+002, 1.670165e+004
2.754587e+002, 1.668246e+004
2.759408e+002, 1.666182e+004
2.764229e+002, 1.668662e+004
2.769050e+002, 1.676282e+004
2.773871e+002, 1.680637e+004
2.778693e+002, 1.679836e+004
2.783514e+002, 1.676974e+004
2.788335e+002, 1.679432e+004
2.793156e+002, 1.688001e+004
2.797977e+002, 1.697359e+004
2.802798e+002, 1.705474e+004
2.807620e+002, 1.712295e+004
2.812441e+002, 1.715208e+004
2.817262e+002, 1.712762e+004
2.822083e+002, 1.708721e+004
2.826904e+002, 1.710256e+004
2.831725e+002, 1.717690e+004
2.836547e+002, 1.725847e+004
2.841368e+002, 1.732395e+004
2.846189e+002, 1.737384e+004
2.851010e+002, 1.741924e+004
2.855831e+002, 1.745820e+004
2.860652e+002, 1.749871e+004
2.865474e+002, 1.755929e+004
2.870295e+002, 1.763930e+004
2.875116e+002, 1.770696e+004
2.879937e+002, 1.773521e+004
2.884758e+002, 1.773480e+004
2.889579e+002, 1.777312e+004
2.894401e+002, 1.785682e+004
2.899222e+002, 1.794687e+004
2.904043e+002, 1.798456e+004
2.908864e+002, 1.797783e+004
2.913685e+002, 1.799161e+004
2.918506e+002, 1.807224e+004
2.923328e+002, 1.818921e+004
2.928149e+002, 1.824121e+004
2.932970e+002, 1.822443e+004
2.937791e+002, 1.819379e+004
2.942612e+002, 1.820402e+004
2.947433e+002, 1.824804e+004
2.952255e+002, 1.829904e+004
2.957076e+002, 1.835295e+004
2.961897e+002, 1.840540e+004
2.966718e+002, 1.844846e+004
2.971539e+002, 1.848196e+004
2.976360e+002, 1.850359e+004
2.981182e+002, 1.850070e+004
2.986003e+002, 1.848374e+004
2.990824e+002, 1.847959e+004
2.995645e+002, 1.849987e+004
3.000466e+002, 1.853166e+004
3.005287e+002, 1.856023e+004
3.010109e+002, 1.858521e+004
3.014930e+002, 1.860455e+004
3.019751e+002, 1.860113e+004
3.024572e+002, 1.859382e+004
3.029393e+002, 1.861958e+004
3.034214e+002, 1.870174e+004
3.039036e+002, 1.879163e+004
3.043857e+002, 1.883270e+004
3.048678e+002, 1.883532e+004
3.053499e+002, 1.883804e+004
3.058320e+002, 1.886207e+004
3.063141e+002, 1.890032e+004
3.067963e+002, 1.894702e+004
3.072784e+002, 1.900631e+004
3.077605e+002, 1.906029e+004
3.082426e+002, 1.909134e+004
3.087247e+002, 1.910523e+004
3.092068e+002, 1.911599e+004
3.096890e+002, 1.912531e+004
3.101711e+002, 1.913721e+004
3.106532e+002, 1.915306e+004
3.111353e+002, 1.917132e+004
3.116174e+002, 1.920043e+004
3.120995e+002, 1.925305e+004
3.125817e+002, 1.931845e+004
3.130638e+002, 1.938007e+004
3.135459e+002, 1.943040e+004
3.140280e+002, 1.947601e+004
3.145101e+002, 1.952425e+004
3.149922e+002, 1.957642e+004
3.154744e+002, 1.961697e+004
3.159565e+002, 1.962645e+004
3.164386e+002, 1.962448e+004
3.169207e+002, 1.963325e+004
3.174028e+002, 1.966594e+004
3.178849e+002, 1.970580e+004
3.183671e+002, 1.974573e+004
3.188492e+002, 1.978635e+004
3.193313e+002, 1.983366e+004
3.198134e+002, 1.989340e+004
3.202955e+002, 1.995904e+004
3.207776e+002, 2.002454e+004
3.212598e+002, 2.011559e+004
3.217419e+002, 2.017808e+004
3.222240e+002, 2.017218e+004
3.227061e+002, 2.011541e+004
3.231882e+002, 2.010006e+004
3.236703e+002, 2.018968e+004
3.241525e+002, 2.029367e+004
3.246346e+002, 2.036029e+004
3.251167e+002, 2.033500e+004
3.255988e+002, 2.034010e+004
3.260809e+002, 2.041515e+004
3.265630e+002, 2.053108e+004
3.270452e+002, 2.060821e+004
3.275273e+002, 2.059860e+004
3.280094e+002, 2.058639e+004
3.284915e+002, 2.060078e+004
3.289736e+002, 2.065110e+004
3.294557e+002, 2.070740e+004
3.299379e+002, 2.077596e+004
3.304200e+002, 2.084874e+004
3.309021e+002, 2.091243e+004
3.313842e+002, 2.097069e+004
3.318663e+002, 2.101470e+004
3.323484e+002, 2.103379e+004
3.328306e+002, 2.101854e+004
3.333127e+002, 2.103829e+004
3.337948e+002, 2.111263e+004
3.342769e+002, 2.120435e+004
3.347590e+002, 2.127087e+004
3.352411e+002, 2.130204e+004
3.357233e+002, 2.133268e+004
3.362054e+002, 2.137253e+004
3.366875e+002, 2.142065e+004
3.371696e+002, 2.144956e+004
3.376517e+002, 2.144958e+004
3.381339e+002, 2.144977e+004
3.386160e+002, 2.147394e+004
3.390981e+002, 2.152519e+004
3.395802e+002, 2.158677e+004
3.400623e+002, 2.165765e+004
3.405444e+002, 2.173657e+004
3.410266e+002, 2.181736e+004
3.415087e+002, 2.190242e+004
3.419908e+002, 2.198153e+004
3.424729e+002, 2.204855e+004
3.429550e+002, 2.210265e+004
3.434371e+002, 2.215039e+004
3.439193e+002, 2.219023e+004
3.444014e+002, 2.222615e+004
3.448835e+002, 2.226036e+004
3.453656e+002, 2.229298e+004
3.458477e+002, 2.233714e+004
3.463298e+002, 2.240853e+004
3.468120e+002, 2.249966e+004
3.472941e+002, 2.257058e+004
3.477762e+002, 2.261826e+004
3.482583e+002, 2.266276e+004
3.487404e+002, 2.274664e+004
3.492225e+002, 2.285481e+004
3.497047e+002, 2.292121e+004
3.501868e+002, 2.289354e+004
3.506689e+002, 2.282060e+004
3.511510e+002, 2.277940e+004
3.516331e+002, 2.277016e+004
3.521152e+002, 2.279321e+004
3.525974e+002, 2.288663e+004
3.530795e+002, 2.300784e+004
3.535616e+002, 2.307088e+004
3.540437e+002, 2.301084e+004
3.545258e+002, 2.293633e+004
3.550079e+002, 2.298939e+004
3.554901e+002, 2.313833e+004
3.559722e+002, 2.324211e+004
3.564543e+002, 2.315308e+004
3.569364e+002, 2.300374e+004
3.574185e+002, 2.293505e+004
3.579006e+002, 2.299450e+004
3.583828e+002, 2.307664e+004
3.588649e+002, 2.312399e+004
3.593470e+002, 2.314642e+004
3.598291e+002, 2.316440e+004
3.603112e+002, 2.318694e+004
3.607933e+002, 2.320752e+004
3.612755e+002, 2.321827e+004
3.617576e+002, 2.321552e+004
3.622397e+002, 2.322401e+004
3.627218e+002, 2.325921e+004
3.632039e+002, 2.330816e+004
3.636860e+002, 2.335640e+004
3.641682e+002, 2.338773e+004
3.646503e+002, 2.343020e+004
3.651324e+002, 2.349924e+004
3.656145e+002, 2.359396e+004
3.660966e+002, 2.367720e+004
3.665787e+002, 2.375060e+004
3.670609e+002, 2.380591e+004
3.675430e+002, 2.383789e+004
3.680251e+002, 2.379358e+004
3.685072e+002, 2.378879e+004
3.689893e+002, 2.385788e+004
3.694714e+002, 2.397613e+004
3.699536e+002, 2.406095e+004
3.704357e+002, 2.409197e+004
3.709178e+002, 2.411129e+004
3.713999e+002, 2.413423e+004
3.718820e+002, 2.416156e+004
3.723641e+002, 2.419076e+004
3.728463e+002, 2.422005e+004
3.733284e+002, 2.425188e+004
3.738105e+002, 2.429084e+004
3.742926e+002, 2.433930e+004
3.747747e+002, 2.438924e+004
3.752568e+002, 2.443669e+004
3.757390e+002, 2.448159e+004
3.762211e+002, 2.454165e+004
3.767032e+002, 2.462572e+004
3.771853e+002, 2.470708e+004
3.776674e+002, 2.475371e+004
3.781495e+002, 2.475955e+004
3.786317e+002, 2.478927e+004
3.791138e+002, 2.486834e+004
3.795959e+002, 2.497176e+004
3.800780e+002, 2.501185e+004
3.805601e+002, 2.498225e+004
3.810422e+002, 2.495962e+004
3.815244e+002, 2.502062e+004
3.820065e+002, 2.514432e+004
3.824886e+002, 2.519733e+004
3.829707e+002, 2.514901e+004
3.834528e+002, 2.508024e+004
3.839349e+002, 2.512195e+004
3.844171e+002, 2.525505e+004
3.848992e+002, 2.537319e+004
3.853813e+002, 2.540792e+004
3.858634e+002, 2.540064e+004
3.863455e+002, 2.542483e+004
3.868276e+002, 2.548340e+004
3.873098e+002, 2.554795e+004
3.877919e+002, 2.559616e+004
3.882740e+002, 2.563329e+004
3.887561e+002, 2.566875e+004
3.892382e+002, 2.570772e+004
3.897203e+002, 2.574400e+004
3.902025e+002, 2.577115e+004
3.906846e+002, 2.578992e+004
3.911667e+002, 2.580537e+004
3.916488e+002, 2.579528e+004
3.921309e+002, 2.579646e+004
3.926130e+002, 2.584846e+004
3.930952e+002, 2.598870e+004
3.935773e+002, 2.611213e+004
3.940594e+002, 2.616339e+004
3.945415e+002, 2.616777e+004
3.950236e+002, 2.617206e+004
3.955057e+002, 2.618713e+004
3.959879e+002, 2.620834e+004
3.964700e+002, 2.623221e+004
3.969521e+002, 2.625710e+004
3.974342e+002, 2.629563e+004
3.979163e+002, 2.636266e+004
3.983984e+002, 2.643829e+004
3.988806e+002, 2.650437e+004
3.993627e+002, 2.654519e+004
3.998448e+002, 2.659317e+004
4.003269e+002, 2.665694e+004
4.008090e+002, 2.673354e+004
4.012911e+002, 2.679964e+004
4.017733e+002, 2.685964e+004
4.022554e+002, 2.690458e+004
4.027375e+002, 2.692535e+004
4.032196e+002, 2.690227e+004
4.037017e+002, 2.690586e+004
4.041838e+002, 2.694462e+004
4.046660e+002, 2.700466e+004
4.051481e+002, 2.705781e+004
4.056302e+002, 2.710070e+004
4.061123e+002, 2.715128e+004
4.065944e+002, 2.722453e+004
4.070765e+002, 2.731813e+004
4.075587e+002, 2.736729e+004
4.080408e+002, 2.736161e+004
4.085229e+002, 2.735160e+004
4.090050e+002, 2.739538e+004
4.094871e+002, 2.748886e+004
4.099692e+002, 2.757688e+004
4.104514e+002, 2.764643e+004
4.109335e+002, 2.770486e+004
4.114156e+002, 2.777307e+004
4.118977e+002, 2.784840e+004
4.123798e+002, 2.790846e+004
4.128619e+002, 2.791465e+004
4.133441e+002, 2.789877e+004
4.138262e+002, 2.793283e+004
4.143083e+002, 2.803480e+004
4.147904e+002, 2.813858e+004
4.152725e+002, 2.816901e+004
4.157546e+002, 2.815446e+004
4.162368e+002, 2.815430e+004
4.167189e+002, 2.822406e+004
4.172010e+002, 2.829828e+004
4.176831e+002, 2.830788e+004
4.181652e+002, 2.825738e+004
4.186473e+002, 2.823500e+004
4.191295e+002, 2.831678e+004
4.196116e+002, 2.843422e+004
4.200937e+002, 2.852555e+004
4.205758e+002, 2.856694e+004
4.210579e+002, 2.859475e+004
4.215400e+002, 2.860502e+004
4.220222e+002, 2.861036e+004
4.225043e+002, 2.864221e+004
4.229864e+002, 2.873595e+004
4.234685e+002, 2.883299e+004
4.239506e+002, 2.891601e+004
4.244327e+002, 2.898725e+004
4.249149e+002, 2.903088e+004
4.253970e+002, 2.901398e+004
4.258791e+002, 2.898749e+004
4.263612e+002, 2.900272e+004
4.268433e+002, 2.908288e+004
4.273254e+002, 2.916868e+004
4.278076e+002, 2.926044e+004
4.282897e+002, 2.935358e+004
4.287718e+002, 2.940564e+004
4.292539e+002, 2.939523e+004
4.297360e+002, 2.938461e+004
4.302181e+002, 2.941440e+004
4.307003e+002, 2.949156e+004
4.311824e+002, 2.956012e+004
4.316645e+002, 2.961454e+004
4.321466e+002, 2.966487e+004
4.326287e+002, 2.973437e+004
4.331108e+002, 2.982343e+004
4.335930e+002, 2.989439e+004
4.340751e+002, 2.992647e+004
4.345572e+002, 2.993087e+004
4.350393e+002, 2.993347e+004
4.355214e+002, 2.993373e+004
4.360035e+002, 2.996001e+004
4.364857e+002, 3.006411e+004
4.369678e+002, 3.021282e+004
4.374499e+002, 3.032560e+004
4.379320e+002, 3.037624e+004
4.384141e+002, 3.040189e+004
4.388962e+002, 3.043399e+004
4.393784e+002, 3.047272e+004
4.398605e+002, 3.051903e+004
4.403426e+002, 3.057724e+004
4.408247e+002, 3.064020e+004
4.413068e+002, 3.070532e+004
4.417889e+002, 3.077230e+004
4.422711e+002, 3.083210e+004
4.427532e+002, 3.087786e+004
4.432353e+002, 3.091465e+004
4.437174e+002, 3.094776e+004
4.441995e+002, 3.095822e+004
4.446816e+002, 3.098649e+004
4.451638e+002, 3.106255e+004
4.456459e+002, 3.117183e+004
4.461280e+002, 3.125073e+004
4.466101e+002, 3.124707e+004
4.470922e+002, 3.124664e+004
4.475743e+002, 3.129189e+004
4.480565e+002, 3.141299e+004
4.485386e+002, 3.150332e+004
4.490207e+002, 3.155543e+004
4.495028e+002, 3.158099e+004
4.499849e+002, 3.158811e+004
4.504670e+002, 3.155492e+004
4.509492e+002, 3.155504e+004
4.514313e+002, 3.161680e+004
4.519134e+002, 3.172910e+004
4.523955e+002, 3.180803e+004
4.528776e+002, 3.184838e+004
4.533597e+002, 3.187044e+004
4.538419e+002, 3.188038e+004
4.543240e+002, 3.187886e+004
4.548061e+002, 3.189139e+004
4.552882e+002, 3.191984e+004
4.557703e+002, 3.196322e+004
4.562524e+002, 3.202972e+004
4.567346e+002, 3.211514e+004
4.572167e+002, 3.218535e+004
4.576988e+002, 3.220623e+004
4.581809e+002, 3.221213e+004
4.586630e+002, 3.227164e+004
4.591451e+002, 3.238093e+004
4.596273e+002, 3.249196e+004
4.601094e+002, 3.256531e+004
4.605915e+002, 3.261826e+004
4.610736e+002, 3.267585e+004
4.615557e+002, 3.275398e+004
4.620378e+002, 3.281618e+004
4.625200e+002, 3.282132e+004
4.630021e+002, 3.279534e+004
4.634842e+002, 3.278848e+004
4.639663e+002, 3.282193e+004
4.644484e+002, 3.287818e+004
4.649305e+002, 3.296138e+004
4.654127e+002, 3.307419e+004
4.658948e+002, 3.316075e+004
4.663769e+002, 3.318547e+004
4.668590e+002, 3.319402e+004
4.673411e+002, 3.321923e+004
4.678232e+002, 3.328219e+004
4.683054e+002, 3.333665e+004
4.687875e+002, 3.336714e+004
4.692696e+002, 3.338987e+004
4.697517e+002, 3.345121e+004
4.702338e+002, 3.358114e+004
4.707159e+002, 3.369190e+004
4.711981e+002, 3.374400e+004
4.716802e+002, 3.373407e+004
4.721623e+002, 3.374818e+004
4.726444e+002, 3.378511e+004
4.731265e+002, 3.384800e+004
4.736086e+002, 3.395579e+004
4.740908e+002, 3.410712e+004
4.745729e+002, 3.422282e+004
4.750550e+002, 3.428079e+004
4.755371e+002, 3.430780e+004
4.760192e+002, 3.434816e+004
4.765013e+002, 3.440138e+004
4.769835e+002, 3.446349e+004
4.774656e+002, 3.454292e+004
4.779477e+002, 3.462636e+004
4.784298e+002, 3.469178e+004
4.789119e+002, 3.473787e+004
4.793940e+002, 3.477416e+004
4.798762e+002, 3.479872e+004
4.803583e+002, 3.482105e+004
4.808404e+002, 3.485413e+004
4.813225e+002, 3.490764e+004
4.818046e+002, 3.496578e+004
4.822867e+002, 3.501781e+004
4.827689e+002, 3.506874e+004
4.832510e+002, 3.513073e+004
4.837331e+002, 3.525673e+004
4.842152e+002, 3.535421e+004
4.846973e+002, 3.535996e+004
4.851794e+002, 3.523882e+004
4.856616e+002, 3.519032e+004
4.861437e+002, 3.530021e+004
4.866258e+002, 3.544777e+004
4.871079e+002, 3.553947e+004
4.875900e+002, 3.552720e+004
4.880721e+002, 3.554494e+004
4.885543e+002, 3.561761e+004
4.890364e+002, 3.572293e+004
4.895185e+002, 3.579263e+004
4.900006e+002, 3.581248e+004
4.904827e+002, 3.583823e+004
4.909648e+002, 3.590577e+004
4.914470e+002, 3.601095e+004
4.919291e+002, 3.605447e+004
4.924112e+002, 3.602478e+004
4.928933e+002, 3.598804e+004
4.933754e+002, 3.600617e+004
4.938575e+002, 3.607429e+004
4.943397e+002, 3.617870e+004
4.948218e+002, 3.633286e+004
4.953039e+002, 3.649021e+004
4.957860e+002, 3.657571e+004
4.962681e+002, 3.660607e+004
4.967502e+002, 3.663730e+004
4.972324e+002, 3.671328e+004
4.977145e+002, 3.679595e+004
4.981966e+002, 3.684048e+004
4.986787e+002, 3.684469e+004
4.991608e+002, 3.686341e+004
4.996429e+002, 3.694947e+004
5.001251e+002, 3.704986e+004
5.006072e+002, 3.711705e+004
5.010893e+002, 3.708586e+004
5.015714e+002, 3.709389e+004
5.020535e+002, 3.720602e+004
5.025356e+002, 3.737645e+004
5.030178e+002, 3.750151e+004
5.034999e+002, 3.756188e+004
5.039820e+002, 3.758907e+004
5.044641e+002, 3.756933e+004
5.049462e+002, 3.749800e+004
5.054283e+002, 3.751513e+004
5.059105e+002, 3.767474e+004
5.063926e+002, 3.784050e+004
5.068747e+002, 3.788860e+004
5.073568e+002, 3.779091e+004
5.078389e+002, 3.777805e+004
5.083210e+002, 3.789022e+004
5.088032e+002, 3.806201e+004
5.092853e+002, 3.818872e+004
5.097674e+002, 3.827126e+004
5.102495e+002, 3.832571e+004
5.107316e+002, 3.833653e+004
5.112137e+002, 3.833293e+004
5.116959e+002, 3.839674e+004
5.121780e+002, 3.852073e+004
5.126601e+002, 3.862366e+004
5.131422e+002, 3.861125e+004
5.136243e+002, 3.855584e+004
5.141064e+002, 3.855811e+004
5.145886e+002, 3.865205e+004
5.150707e+002, 3.874415e+004
5.155528e+002, 3.875123e+004
5.160349e+002, 3.872680e+004
5.165170e+002, 3.874814e+004
5.169991e+002, 3.889345e+004
5.174813e+002, 3.903515e+004
5.179634e+002, 3.913563e+004
5.184455e+002, 3.919687e+004
5.189276e+002, 3.924022e+004
5.194097e+002, 3.922708e+004
5.198918e+002, 3.923288e+004
5.203740e+002, 3.929170e+004
5.208561e+002, 3.942310e+004
5.213382e+002, 3.954660e+004
5.218203e+002, 3.967361e+004
5.223024e+002, 3.977811e+004
5.227845e+002, 3.981126e+004
5.232667e+002, 3.974877e+004
5.237488e+002, 3.975587e+004
5.242309e+002, 3.989052e+004
5.247130e+002, 4.008977e+004
5.251951e+002, 4.018520e+004
5.256772e+002, 4.017936e+004
5.261594e+002, 4.017692e+004
5.266415e+002, 4.025048e+004
5.271236e+002, 4.036846e+004
5.276057e+002, 4.046108e+004
5.280878e+002, 4.052615e+004
5.285699e+002, 4.057775e+004
5.290521e+002, 4.061226e+004
5.295342e+002, 4.064527e+004
5.300163e+002, 4.070017e+004
5.304984e+002, 4.079775e+004
5.309805e+002, 4.089083e+004
5.314626e+002, 4.094683e+004
5.319448e+002, 4.097974e+004
5.324269e+002, 4.101641e+004
5.329090e+002, 4.106125e+004
5.333911e+002, 4.111385e+004
5.338732e+002, 4.116801e+004
5.343553e+002, 4.122213e+004
5.348375e+002, 4.130936e+004
5.353196e+002, 4.146447e+004
5.358017e+002, 4.161614e+004
5.362838e+002, 4.172267e+004
5.367659e+002, 4.176760e+004
5.372480e+002, 4.181239e+004
5.377302e+002, 4.185446e+004
5.382123e+002, 4.189981e+004
5.386944e+002, 4.196305e+004
5.391765e+002, 4.204739e+004
5.396586e+002, 4.211082e+004
5.401407e+002, 4.212888e+004
5.406229e+002, 4.213079e+004
5.411050e+002, 4.220024e+004
5.415871e+002, 4.233018e+004
5.420692e+002, 4.244366e+004
5.425513e+002, 4.247935e+004
5.430334e+002, 4.247543e+004
5.435156e+002, 4.248714e+004
5.439977e+002, 4.251897e+004
5.444798e+002, 4.256057e+004
5.449619e+002, 4.259975e+004
5.454440e+002, 4.264658e+004
5.459261e+002, 4.271346e+004
5.464083e+002, 4.282351e+004
5.468904e+002, 4.292388e+004
5.473725e+002, 4.297962e+004
5.478546e+002, 4.301214e+004
5.483367e+002, 4.306916e+004
5.488188e+002, 4.316616e+004
5.493010e+002, 4.327857e+004
5.497831e+002, 4.341126e+004
5.502652e+002, 4.356317e+004
5.507473e+002, 4.367732e+004
5.512294e+002, 4.374737e+004
5.517115e+002, 4.379063e+004
5.521937e+002, 4.380682e+004
5.526758e+002, 4.378951e+004
5.531579e+002, 4.381794e+004
5.536400e+002, 4.390518e+004
5.541221e+002, 4.401412e+004
5.546042e+002, 4.409854e+004
5.550864e+002, 4.416109e+004
5.555685e+002, 4.421555e+004
5.560506e+002, 4.426148e+004
5.565327e+002, 4.430602e+004
5.570148e+002, 4.436120e+004
5.574969e+002, 4.442369e+004
5.579791e+002, 4.448236e+004
5.584612e+002, 4.451757e+004
5.589433e+002, 4.455402e+004
5.594254e+002, 4.461629e+004
5.599075e+002, 4.470646e+004
5.603896e+002, 4.479017e+004
5.608718e+002, 4.484862e+004
5.613539e+002, 4.489730e+004
5.618360e+002, 4.494752e+004
5.623181e+002, 4.500375e+004
5.628002e+002, 4.505895e+004
5.632823e+002, 4.512081e+004
5.637645e+002, 4.517947e+004
5.642466e+002, 4.521466e+004
5.647287e+002, 4.520472e+004
5.652108e+002, 4.522211e+004
5.656929e+002, 4.528858e+004
5.661750e+002, 4.539448e+004
5.666572e+002, 4.550209e+004
5.671393e+002, 4.561129e+004
5.676214e+002, 4.571699e+004
5.681035e+002, 4.581542e+004
5.685856e+002, 4.590720e+004
5.690677e+002, 4.600719e+004
5.695499e+002, 4.611643e+004
5.700320e+002, 4.620425e+004
5.705141e+002, 4.621123e+004
5.709962e+002, 4.618349e+004
5.714783e+002, 4.619917e+004
5.719604e+002, 4.629270e+004
5.724426e+002, 4.640159e+004
5.729247e+002, 4.650029e+004
5.734068e+002, 4.658501e+004
5.738889e+002, 4.665113e+004
5.743710e+002, 4.666570e+004
5.748531e+002, 4.669309e+004
5.753353e+002, 4.676454e+004
5.758174e+002, 4.687672e+004
5.762995e+002, 4.697283e+004
5.767816e+002, 4.703805e+004
5.772637e+002, 4.710218e+004
5.777458e+002, 4.717821e+004
5.782280e+002, 4.726671e+004
5.787101e+002, 4.736710e+004
5.791922e+002, 4.748915e+004
5.796743e+002, 4.760136e+004
5.801564e+002, 4.766031e+004
5.806385e+002, 4.766919e+004
5.811207e+002, 4.769229e+004
5.816028e+002, 4.774143e+004
5.820849e+002, 4.780697e+004
5.825670e+002, 4.788176e+004
5.830491e+002, 4.796132e+004
5.835313e+002, 4.803522e+004
5.840134e+002, 4.807841e+004
5.844955e+002, 4.812701e+004
5.849776e+002, 4.821600e+004
5.854597e+002, 4.834143e+004
5.859418e+002, 4.847998e+004
5.864240e+002, 4.865102e+004
5.869061e+002, 4.880768e+004
5.873882e+002, 4.892146e+004
5.878703e+002, 4.897804e+004
5.883524e+002, 4.903111e+004
5.888345e+002, 4.908615e+004
5.893167e+002, 4.914043e+004
5.897988e+002, 4.919167e+004
5.902809e+002, 4.923875e+004
5.907630e+002, 4.928455e+004
5.912451e+002, 4.932608e+004
5.917272e+002, 4.937023e+004
5.922094e+002, 4.943044e+004
5.926915e+002, 4.950670e+004
5.931736e+002, 4.959480e+004
5.936557e+002, 4.970408e+004
5.941378e+002, 4.981730e+004
5.946199e+002, 4.987387e+004
5.951021e+002, 4.988292e+004
5.955842e+002, 4.992231e+004
5.960663e+002, 5.009895e+004
5.965484e+002, 5.030391e+004
5.970305e+002, 5.038649e+004
5.975126e+002, 5.032972e+004
5.979948e+002, 5.030696e+004
5.984769e+002, 5.046606e+004
5.989590e+002, 5.067299e+004
5.994411e+002, 5.081225e+004
5.999232e+002, 5.081883e+004
6.004053e+002, 5.082841e+004
6.008875e+002, 5.084467e+004
6.013696e+002, 5.088063e+004
6.018517e+002, 5.096116e+004
6.023338e+002, 5.112524e+004
6.028159e+002, 5.125468e+004
6.032980e+002, 5.131929e+004
6.037802e+002, 5.133701e+004
6.042623e+002, 5.137316e+004
6.047444e+002, 5.142833e+004
6.052265e+002, 5.149210e+004
6.057086e+002, 5.155811e+004
6.061907e+002, 5.162777e+004
6.066729e+002, 5.170894e+004
6.071550e+002, 5.180063e+004
6.076371e+002, 5.189711e+004
6.081192e+002, 5.200070e+004
6.086013e+002, 5.210217e+004
6.090834e+002, 5.218297e+004
6.095656e+002, 5.223409e+004
6.100477e+002, 5.229470e+004
6.105298e+002, 5.240259e+004
6.110119e+002, 5.252561e+004
6.114940e+002, 5.262907e+004
6.119761e+002, 5.270788e+004
6.124583e+002, 5.276382e+004
6.129404e+002, 5.276993e+004
6.134225e+002, 5.275913e+004
6.139046e+002, 5.281008e+004
6.143867e+002, 5.295795e+004
6.148688e+002, 5.309247e+004
6.153510e+002, 5.317433e+004
6.158331e+002, 5.321520e+004
6.163152e+002, 5.329664e+004
6.167973e+002, 5.342088e+004
6.172794e+002, 5.355040e+004
6.177615e+002, 5.365915e+004
6.182437e+002, 5.375045e+004
6.187258e+002, 5.383725e+004
6.192079e+002, 5.391985e+004
6.196900e+002, 5.399728e+004
6.201721e+002, 5.407098e+004
6.206542e+002, 5.413764e+004
6.211364e+002, 5.418915e+004
6.216185e+002, 5.420964e+004
6.221006e+002, 5.424890e+004
6.225827e+002, 5.436399e+004
6.230648e+002, 5.450202e+004
6.235469e+002, 5.458889e+004
6.240291e+002, 5.453776e+004
6.245112e+002, 5.452827e+004
6.249933e+002, 5.460488e+004
6.254754e+002, 5.474194e+004
6.259575e+002, 5.484742e+004
6.264396e+002, 5.491280e+004
6.269218e+002, 5.497676e+004
6.274039e+002, 5.505532e+004
6.278860e+002, 5.514552e+004
6.283681e+002, 5.522818e+004
6.288502e+002, 5.530293e+004
6.293323e+002, 5.537558e+004
6.298145e+002, 5.544780e+004
6.302966e+002, 5.552084e+004
6.307787e+002, 5.560315e+004
6.312608e+002, 5.569650e+004
6.317429e+002, 5.577887e+004
6.322250e+002, 5.581180e+004
6.327072e+002, 5.583420e+004
6.331893e+002, 5.589055e+004
6.336714e+002, 5.601082e+004
6.341535e+002, 5.613066e+004
6.346356e+002, 5.623930e+004
6.351177e+002, 5.633475e+004
6.355999e+002, 5.641630e+004
6.360820e+002, 5.648064e+004
6.365641e+002, 5.653733e+004
6.370462e+002, 5.659109e+004
6.375283e+002, 5.663752e+004
6.380104e+002, 5.665070e+004
6.384926e+002, 5.662090e+004
6.389747e+002, 5.662347e+004
6.394568e+002, 5.670826e+004
6.399389e+002, 5.685017e+004
6.404210e+002, 5.696611e+004
6.409031e+002, 5.705816e+004
6.413853e+002, 5.713549e+004
6.418674e+002, 5.720518e+004
6.423495e+002, 5.726493e+004
6.428316e+002, 5.729575e+004
6.433137e+002, 5.728957e+004
6.437958e+002, 5.732511e+004
6.442780e+002, 5.747317e+004
6.447601e+002, 5.766344e+004
6.452422e+002, 5.783420e+004
6.457243e+002, 5.797599e+004
6.462064e+002, 5.809384e+004
6.466885e+002, 5.817909e+004
6.471707e+002, 5.824616e+004
6.476528e+002, 5.831349e+004
6.481349e+002, 5.838517e+004
6.486170e+002, 5.843803e+004
6.490991e+002, 5.845229e+004
6.495812e+002, 5.846120e+004
6.500634e+002, 5.856340e+004
6.505455e+002, 5.875234e+004
6.510276e+002, 5.891977e+004
6.515097e+002, 5.899942e+004
6.519918e+002, 5.903959e+004
6.524739e+002, 5.911316e+004
6.529561e+002, 5.921536e+004
6.534382e+002, 5.932614e+004
6.539203e+002, 5.945999e+004
6.544024e+002, 5.957677e+004
6.548845e+002, 5.963126e+004
6.553666e+002, 5.961013e+004
6.558488e+002, 5.963641e+004
6.563309e+002, 5.980259e+004
6.568130e+002, 5.997493e+004
6.572951e+002, 6.006519e+004
6.577772e+002, 6.001715e+004
6.582593e+002, 6.004444e+004
6.587415e+002, 6.017241e+004
6.592236e+002, 6.033504e+004
6.597057e+002, 6.045810e+004
6.601878e+002, 6.054192e+004
6.606699e+002, 6.062110e+004
6.611520e+002, 6.070056e+004
6.616342e+002, 6.077703e+004
6.621163e+002, 6.084764e+004
6.625984e+002, 6.091115e+004
6.630805e+002, 6.096316e+004
6.635626e+002, 6.096974e+004
6.640447e+002, 6.099680e+004
6.645269e+002, 6.111740e+004
6.650090e+002, 6.129800e+004
6.654911e+002, 6.144388e+004
6.659732e+002, 6.149152e+004
6.664553e+002, 6.153357e+004
6.669374e+002, 6.161570e+004
6.674196e+002, 6.173402e+004
6.679017e+002, 6.180163e+004
6.683838e+002, 6.178959e+004
6.688659e+002, 6.178431e+004
6.693480e+002, 6.183302e+004
6.698301e+002, 6.193535e+004
6.703123e+002, 6.204249e+004
6.707944e+002, 6.215798e+004
6.712765e+002, 6.225423e+004
6.717586e+002, 6.228335e+004
6.722407e+002, 6.227940e+004
6.727228e+002, 6.231836e+004
6.732050e+002, 6.241254e+004
6.736871e+002, 6.253403e+004
6.741692e+002, 6.268791e+004
6.746513e+002, 6.284641e+004
6.751334e+002, 6.297474e+004
6.756155e+002, 6.304776e+004
6.760977e+002, 6.311538e+004
6.765798e+002, 6.318377e+004
6.770619e+002, 6.325313e+004
6.775440e+002, 6.332234e+004
6.780261e+002, 6.338513e+004
6.785082e+002, 6.346052e+004
6.789904e+002, 6.355134e+004
6.794725e+002, 6.365847e+004
6.799546e+002, 6.380501e+004
6.804367e+002, 6.399013e+004
6.809188e+002, 6.413143e+004
6.814009e+002, 6.417152e+004
6.818831e+002, 6.416025e+004
6.823652e+002, 6.417396e+004
6.828473e+002, 6.421429e+004
6.833294e+002, 6.428677e+004
6.838115e+002, 6.441119e+004
6.842936e+002, 6.455687e+004
6.847758e+002, 6.471910e+004
6.852579e+002, 6.489498e+004
6.857400e+002, 6.503234e+004
6.862221e+002, 6.506823e+004
6.867042e+002, 6.510096e+004
6.871863e+002, 6.517860e+004
6.876685e+002, 6.530474e+004
6.881506e+002, 6.546833e+004
6.886327e+002, 6.569522e+004
6.891148e+002, 6.591065e+004
6.895969e+002, 6.604439e+004
6.900790e+002, 6.610038e+004
6.905612e+002, 6.611623e+004
6.910433e+002, 6.608146e+004
6.915254e+002, 6.607360e+004
6.920075e+002, 6.622992e+004
6.924896e+002, 6.646761e+004
6.929717e+002, 6.662898e+004
6.934539e+002, 6.664035e+004
6.939360e+002, 6.662598e+004
6.944181e+002, 6.664526e+004
6.949002e+002, 6.668766e+004
6.953823e+002, 6.673712e+004
6.958644e+002, 6.680098e+004
6.963466e+002, 6.685928e+004
6.968287e+002, 6.689647e+004
6.973108e+002, 6.693192e+004
6.977929e+002, 6.702167e+004
6.982750e+002, 6.718541e+004
6.987571e+002, 6.733845e+004
6.992393e+002, 6.745995e+004
6.997214e+002, 6.755015e+004
7.002035e+002, 6.759045e+004
7.006856e+002, 6.758752e+004
7.011677e+002, 6.759635e+004
7.016498e+002, 6.765220e+004
7.021320e+002, 6.773423e+004
7.026141e+002, 6.781857e+004
7.030962e+002, 6.790541e+004
7.035783e+002, 6.800445e+004
7.040604e+002, 6.811216e+004
7.045425e+002, 6.823870e+004
7.050247e+002, 6.840587e+004
7.055068e+002, 6.863495e+004
7.059889e+002, 6.877356e+004
7.064710e+002, 6.875491e+004
7.069531e+002, 6.873009e+004
7.074352e+002, 6.881442e+004
7.079174e+002, 6.902406e+004
7.083995e+002, 6.913613e+004
7.088816e+002, 6.912742e+004
7.093637e+002, 6.911795e+004
7.098458e+002, 6.926416e+004
7.103279e+002, 6.950514e+004
7.108101e+002, 6.969669e+004
7.112922e+002, 6.981425e+004
7.117743e+002, 6.987502e+004
7.122564e+002, 6.984909e+004
7.127385e+002, 6.979372e+004
7.132206e+002, 6.977716e+004
7.137028e+002, 6.983360e+004
7.141849e+002, 6.990943e+004
7.146670e+002, 6.999899e+004
7.151491e+002, 7.010128e+004
7.156312e+002, 7.022277e+004
7.161133e+002, 7.038208e+004
7.165955e+002, 7.049695e+004
7.170776e+002, 7.052780e+004
7.175597e+002, 7.053465e+004
7.180418e+002, 7.066159e+004
7.185239e+002, 7.089687e+004
7.190060e+002, 7.112045e+004
7.194882e+002, 7.128432e+004
7.199703e+002, 7.141151e+004
7.204524e+002, 7.152710e+004
7.209345e+002, 7.162905e+004
7.214166e+002, 7.171684e+004
7.218987e+002, 7.176837e+004
7.223809e+002, 7.182450e+004
7.228630e+002, 7.192113e+004
7.233451e+002, 7.204877e+004
7.238272e+002, 7.211988e+004
7.243093e+002, 7.206789e+004
7.247914e+002, 7.205538e+004
7.252736e+002, 7.215464e+004
7.257557e+002, 7.235563e+004
7.262378e+002, 7.252985e+004
7.267199e+002, 7.268016e+004
7.272020e+002, 7.280452e+004
7.276841e+002, 7.289781e+004
7.281663e+002, 7.296869e+004
7.286484e+002, 7.302781e+004
7.291305e+002, 7.307674e+004
7.296126e+002, 7.313018e+004
7.300947e+002, 7.318539e+004
7.305768e+002, 7.325741e+004
7.310590e+002, 7.337296e+004
7.315411e+002, 7.355265e+004
7.320232e+002, 7.367819e+004
7.325053e+002, 7.364527e+004
7.329874e+002, 7.361727e+004
7.334695e+002, 7.370550e+004
7.339517e+002, 7.396222e+004
7.344338e+002, 7.414216e+004
7.349159e+002, 7.423195e+004
7.353980e+002, 7.428382e+004
7.358801e+002, 7.434757e+004
7.363622e+002, 7.442078e+004
7.368444e+002, 7.448741e+004
7.373265e+002, 7.454032e+004
7.378086e+002, 7.461520e+004
7.382907e+002, 7.478709e+004
7.387728e+002, 7.498640e+004
7.392549e+002, 7.511730e+004
7.397371e+002, 7.511041e+004
7.402192e+002, 7.511152e+004
7.407013e+002, 7.515895e+004
7.411834e+002, 7.523889e+004
7.416655e+002, 7.533219e+004
7.421476e+002, 7.543851e+004
7.426298e+002, 7.555627e+004
7.431119e+002, 7.568681e+004
7.435940e+002, 7.582402e+004
7.440761e+002, 7.594473e+004
7.445582e+002, 7.605221e+004
7.450403e+002, 7.621108e+004
7.455225e+002, 7.647140e+004
7.460046e+002, 7.673530e+004
7.464867e+002, 7.687203e+004
7.469688e+002, 7.692117e+004
7.474509e+002, 7.696739e+004
7.479330e+002, 7.704509e+004
7.484152e+002, 7.712703e+004
7.488973e+002, 7.721553e+004
7.493794e+002, 7.730245e+004
7.498615e+002, 7.735770e+004
7.503436e+002, 7.735938e+004
7.508257e+002, 7.737495e+004
7.513079e+002, 7.742944e+004
7.517900e+002, 7.750869e+004
7.522721e+002, 7.754325e+004
7.527542e+002, 7.753412e+004
7.532363e+002, 7.756428e+004
7.537184e+002, 7.770716e+004
7.542006e+002, 7.789288e+004
7.546827e+002, 7.802143e+004
7.551648e+002, 7.809789e+004
7.556469e+002, 7.813708e+004
7.561290e+002, 7.807022e+004
7.566111e+002, 7.803831e+004
7.570933e+002, 7.814274e+004
7.575754e+002, 7.837620e+004
7.580575e+002, 7.856835e+004
7.585396e+002, 7.868484e+004
7.590217e+002, 7.879388e+004
7.595038e+002, 7.893028e+004
7.599860e+002, 7.908633e+004
7.604681e+002, 7.916522e+004
7.609502e+002, 7.915602e+004
7.614323e+002, 7.919259e+004
7.619144e+002, 7.940923e+004
7.623965e+002, 7.971497e+004
7.628787e+002, 7.996347e+004
7.633608e+002, 8.014713e+004
7.638429e+002, 8.025735e+004
7.643250e+002, 8.020372e+004
7.648071e+002, 8.013791e+004
7.652892e+002, 8.017523e+004
7.657714e+002, 8.034216e+004
7.662535e+002, 8.047641e+004
7.667356e+002, 8.054434e+004
7.672177e+002, 8.061055e+004
7.676998e+002, 8.071824e+004
7.681819e+002, 8.087331e+004
7.686641e+002, 8.098402e+004
7.691462e+002, 8.104570e+004
7.696283e+002, 8.109373e+004
7.701104e+002, 8.111403e+004
7.705925e+002, 8.115358e+004
7.710746e+002, 8.134549e+004
7.715568e+002, 8.170896e+004
7.720389e+002, 8.201239e+004
7.725210e+002, 8.203259e+004
7.730031e+002, 8.198622e+004
7.734852e+002, 8.205513e+004
7.739673e+002, 8.232068e+004
7.744495e+002, 8.250906e+004
7.749316e+002, 8.258873e+004
7.754137e+002, 8.261466e+004
7.758958e+002, 8.260864e+004
7.763779e+002, 8.256346e+004
7.768600e+002, 8.258880e+004
7.773422e+002, 8.269502e+004
7.778243e+002, 8.283323e+004
7.783064e+002, 8.296167e+004
7.787885e+002, 8.308623e+004
7.792706e+002, 8.323088e+004
7.797527e+002, 8.340920e+004
7.802349e+002, 8.354169e+004
7.807170e+002, 8.353523e+004
7.811991e+002, 8.348866e+004
7.816812e+002, 8.348877e+004
7.821633e+002, 8.356780e+004
7.826454e+002, 8.366120e+004
7.831276e+002, 8.377448e+004
7.836097e+002, 8.389676e+004
7.840918e+002, 8.401273e+004
7.845739e+002, 8.412129e+004
7.850560e+002, 8.425873e+004
7.855381e+002, 8.443457e+004
7.860203e+002, 8.459881e+004
7.865024e+002, 8.468752e+004
7.869845e+002, 8.472747e+004
7.874666e+002, 8.476055e+004
7.879487e+002, 8.478630e+004
7.884308e+002, 8.483724e+004
7.889130e+002, 8.492578e+004
7.893951e+002, 8.504880e+004
7.898772e+002, 8.520748e+004
7.903593e+002, 8.543021e+004
7.908414e+002, 8.563305e+004
7.913235e+002, 8.581901e+004
7.918057e+002, 8.597554e+004
7.922878e+002, 8.606008e+004
7.927699e+002, 8.608048e+004
7.932520e+002, 8.616508e+004
7.937341e+002, 8.634495e+004
7.942162e+002, 8.653348e+004
7.946984e+002, 8.662470e+004
7.951805e+002, 8.666783e+004
7.956626e+002, 8.674227e+004
7.961447e+002, 8.688609e+004
7.966268e+002, 8.702385e+004
7.971089e+002, 8.714837e+004
7.975911e+002, 8.724460e+004
7.980732e+002, 8.729453e+004
7.985553e+002, 8.726965e+004
7.990374e+002, 8.726963e+004
7.995195e+002, 8.729996e+004
8.000016e+002, 8.735822e+004
8.004838e+002, 8.745614e+004
8.009659e+002, 8.758551e+004
8.014480e+002, 8.769666e+004
8.019301e+002, 8.777835e+004
8.024122e+002, 8.785127e+004
8.028943e+002, 8.792206e+004
8.033765e+002, 8.800038e+004
8.038586e+002, 8.810004e+004
8.043407e+002, 8.823054e+004
8.048228e+002, 8.837000e+004
8.053049e+002, 8.852852e+004
8.057870e+002, 8.868503e+004
8.062692e+002, 8.881277e+004
8.067513e+002, 8.889525e+004
8.072334e+002, 8.901898e+004
8.077155e+002, 8.920403e+004
8.081976e+002, 8.938815e+004
8.086797e+002, 8.946952e+004
8.091619e+002, 8.948251e+004
8.096440e+002, 8.953221e+004
8.101261e+002, 8.964784e+004
8.106082e+002, 8.977430e+004
8.110903e+002, 8.985492e+004
8.115724e+002, 8.993139e+004
8.120546e+002, 9.005197e+004
8.125367e+002, 9.028924e+004
8.130188e+002, 9.046680e+004
8.135009e+002, 9.054548e+004
8.139830e+002, 9.059784e+004
8.144651e+002, 9.070668e+004
8.149473e+002, 9.087848e+004
8.154294e+002, 9.103344e+004
8.159115e+002, 9.116590e+004
8.163936e+002, 9.127827e+004
8.168757e+002, 9.135636e+004
8.173578e+002, 9.142061e+004
8.178400e+002, 9.151219e+004
8.183221e+002, 9.164989e+004
8.188042e+002, 9.177760e+004
8.192863e+002, 9.181181e+004
8.197684e+002, 9.185273e+004
8.202505e+002, 9.200993e+004
8.207327e+002, 9.238677e+004
8.212148e+002, 9.263390e+004
8.216969e+002, 9.270852e+004
8.221790e+002, 9.272625e+004
8.226611e+002, 9.281161e+004
8.231432e+002, 9.295100e+004
8.236254e+002, 9.304466e+004
8.241075e+002, 9.307486e+004
8.245896e+002, 9.312153e+004
8.250717e+002, 9.328845e+004
8.255538e+002, 9.349717e+004
8.260359e+002, 9.366008e+004
8.265181e+002, 9.376016e+004
8.270002e+002, 9.382455e+004
8.274823e+002, 9.384242e+004
8.279644e+002, 9.384467e+004
8.284465e+002, 9.384195e+004
8.289286e+002, 9.382145e+004
8.294108e+002, 9.388405e+004
8.298929e+002, 9.404702e+004
8.303750e+002, 9.422712e+004
8.308571e+002, 9.435797e+004
8.313392e+002, 9.444696e+004
8.318214e+002, 9.449848e+004
8.323035e+002, 9.451116e+004
8.327856e+002, 9.453339e+004
8.332677e+002, 9.455837e+004
8.337498e+002, 9.462892e+004
8.342319e+002, 9.479893e+004
8.347141e+002, 9.511813e+004
8.351962e+002, 9.532880e+004
8.356783e+002, 9.537155e+004
8.361604e+002, 9.540023e+004
8.366425e+002, 9.552082e+004
8.371246e+002, 9.572530e+004
8.376068e+002, 9.590490e+004
8.380889e+002, 9.605869e+004
8.385710e+002, 9.619943e+004
8.390531e+002, 9.634473e+004
8.395352e+002, 9.647810e+004
8.400173e+002, 9.656103e+004
8.404995e+002, 9.659483e+004
8.409816e+002, 9.668023e+004
8.414637e+002, 9.693816e+004
8.419458e+002, 9.716919e+004
8.424279e+002, 9.726909e+004
8.429100e+002, 9.724096e+004
8.433922e+002, 9.727814e+004
8.438743e+002, 9.738589e+004
8.443564e+002, 9.752514e+004
8.448385e+002, 9.769726e+004
8.453206e+002, 9.787653e+004
8.458027e+002, 9.799112e+004
8.462849e+002, 9.805096e+004
8.467670e+002, 9.811092e+004
8.472491e+002, 9.821237e+004
8.477312e+002, 9.831399e+004
8.482133e+002, 9.838825e+004
8.486954e+002, 9.843964e+004
8.491776e+002, 9.851060e+004
8.496597e+002, 9.862942e+004
8.501418e+002, 9.871445e+004
8.506239e+002, 9.870730e+004
8.511060e+002, 9.866443e+004
8.515881e+002, 9.881288e+004
8.520703e+002, 9.912859e+004
8.525524e+002, 9.940422e+004
8.530345e+002, 9.949752e+004
8.535166e+002, 9.953747e+004
8.539987e+002, 9.960751e+004
8.544808e+002, 9.971688e+004
8.549630e+002, 9.989116e+004
8.554451e+002, 1.002844e+005
8.559272e+002, 1.005497e+005
8.564093e+002, 1.005497e+005
8.568914e+002, 1.004119e+005
8.573735e+002, 1.004414e+005
8.578557e+002, 1.006527e+005
8.583378e+002, 1.008545e+005
8.588199e+002, 1.010005e+005
8.593020e+002, 1.011083e+005
8.597841e+002, 1.012036e+005
8.602662e+002, 1.012801e+005
8.607484e+002, 1.013176e+005
8.612305e+002, 1.012478e+005
8.617126e+002, 1.012329e+005
8.621947e+002, 1.013673e+005
8.626768e+002, 1.015810e+005
8.631589e+002, 1.017740e+005
8.636411e+002, 1.019575e+005
8.641232e+002, 1.020867e+005
8.646053e+002, 1.021422e+005
8.650874e+002, 1.021787e+005
8.655695e+002, 1.022661e+005
8.660516e+002, 1.023945e+005
8.665338e+002, 1.025445e+005
8.670159e+002, 1.027237e+005
8.674980e+002, 1.028712e+005
8.679801e+002, 1.028677e+005
8.684622e+002, 1.028571e+005
8.689443e+002, 1.029987e+005
8.694265e+002, 1.034508e+005
8.699086e+002, 1.037234e+005
8.703907e+002, 1.037521e+005
8.708728e+002, 1.037010e+005
8.713549e+002, 1.036934e+005
8.718370e+002, 1.037262e+005
8.723192e+002, 1.037433e+005
8.728013e+002, 1.037414e+005
8.732834e+002, 1.037890e+005
8.737655e+002, 1.039878e+005
8.742476e+002, 1.042335e+005
8.747297e+002, 1.044270e+005
8.752119e+002, 1.045591e+005
8.756940e+002, 1.046586e+005
8.761761e+002, 1.046729e+005
8.766582e+002, 1.047180e+005
8.771403e+002, 1.048603e+005
8.776224e+002, 1.050873e+005
8.781046e+002, 1.052184e+005
8.785867e+002, 1.052500e+005
8.790688e+002, 1.052718e+005
8.795509e+002, 1.053219e+005
8.800330e+002, 1.054040e+005
8.805151e+002, 1.055358e+005
8.809973e+002, 1.057083e+005
8.814794e+002, 1.058834e+005
8.819615e+002, 1.060844e+005
8.824436e+002, 1.062454e+005
8.829257e+002, 1.063158e+005
8.834078e+002, 1.063311e+005
8.838900e+002, 1.063996e+005
8.843721e+002, 1.065353e+005
8.848542e+002, 1.066434e+005
8.853363e+002, 1.066773e+005
8.858184e+002, 1.066996e+005
8.863005e+002, 1.068266e+005
8.867827e+002, 1.070307e+005
8.872648e+002, 1.072425e+005
8.877469e+002, 1.074541e+005
8.882290e+002, 1.076392e+005
8.887111e+002, 1.077955e+005
8.891932e+002, 1.079119e+005
8.896754e+002, 1.079662e+005
8.901575e+002, 1.079056e+005
8.906396e+002, 1.079271e+005
8.911217e+002, 1.080601e+005
8.916038e+002, 1.082447e+005
8.920859e+002, 1.084125e+005
8.925681e+002, 1.085719e+005
8.930502e+002, 1.087551e+005
8.935323e+002, 1.089711e+005
8.940144e+002, 1.091737e+005
8.944965e+002, 1.093272e+005
8.949786e+002, 1.094523e+005
8.954608e+002, 1.095657e+005
8.959429e+002, 1.096661e+005
8.964250e+002, 1.097614e+005
8.969071e+002, 1.098538e+005
8.973892e+002, 1.099334e+005
8.978713e+002, 1.099605e+005
8.983535e+002, 1.099596e+005
8.988356e+002, 1.101087e+005
8.993177e+002, 1.103976e+005
8.997998e+002, 1.106589e+005
9.002819e+002, 1.107443e+005
9.007640e+002, 1.107904e+005
9.012462e+002, 1.109187e+005
9.017283e+002, 1.111204e+005
9.022104e+002, 1.112579e+005
9.026925e+002, 1.112658e+005
9.031746e+002, 1.112941e+005
9.036567e+002, 1.113867e+005
9.041389e+002, 1.115320e+005
9.046210e+002, 1.117251e+005
9.051031e+002, 1.119543e+005
9.055852e+002, 1.121141e+005
9.060673e+002, 1.121115e+005
9.065494e+002, 1.120911e+005
9.070316e+002, 1.121789e+005
9.075137e+002, 1.123413e+005
9.079958e+002, 1.125210e+005
9.084779e+002, 1.127328e+005
9.089600e+002, 1.129185e+005
9.094421e+002, 1.130752e+005
9.099243e+002, 1.132008e+005
9.104064e+002, 1.132814e+005
9.108885e+002, 1.133208e+005
9.113706e+002, 1.133970e+005
9.118527e+002, 1.135272e+005
9.123348e+002, 1.136624e+005
9.128170e+002, 1.137505e+005
9.132991e+002, 1.138209e+005
9.137812e+002, 1.139047e+005
9.142633e+002, 1.140062e+005
9.147454e+002, 1.141299e+005
9.152275e+002, 1.143113e+005
9.157097e+002, 1.144742e+005
9.161918e+002, 1.145569e+005
9.166739e+002, 1.145618e+005
9.171560e+002, 1.146476e+005
9.176381e+002, 1.148139e+005
9.181202e+002, 1.150045e+005
9.186024e+002, 1.152042e+005
9.190845e+002, 1.153901e+005
9.195666e+002, 1.155248e+005
9.200487e+002, 1.156161e+005
9.205308e+002, 1.157205e+005
9.210129e+002, 1.158687e+005
9.214951e+002, 1.160114e+005
9.219772e+002, 1.161255e+005
9.224593e+002, 1.162289e+005
9.229414e+002, 1.163976e+005
9.234235e+002, 1.166269e+005
9.239056e+002, 1.167944e+005
9.243878e+002, 1.168336e+005
9.248699e+002, 1.168441e+005
9.253520e+002, 1.169511e+005
9.258341e+002, 1.171038e+005
9.263162e+002, 1.172229e+005
9.267983e+002, 1.172589e+005
9.272805e+002, 1.173026e+005
9.277626e+002, 1.173663e+005
9.282447e+002, 1.174444e+005
9.287268e+002, 1.175220e+005
9.292089e+002, 1.176000e+005
9.296910e+002, 1.177631e+005
9.301732e+002, 1.180267e+005
9.306553e+002, 1.182744e+005
9.311374e+002, 1.183976e+005
9.316195e+002, 1.184484e+005
9.321016e+002, 1.184389e+005
9.325837e+002, 1.183635e+005
9.330659e+002, 1.184502e+005
9.335480e+002, 1.189505e+005
9.340301e+002, 1.193793e+005
9.345122e+002, 1.195035e+005
9.349943e+002, 1.193815e+005
9.354764e+002, 1.194337e+005
9.359586e+002, 1.196538e+005
9.364407e+002, 1.198596e+005
9.369228e+002, 1.199336e+005
9.374049e+002, 1.199744e+005
9.378870e+002, 1.200903e+005
9.383691e+002, 1.202533e+005
9.388513e+002, 1.203960e+005
9.393334e+002, 1.204747e+005
9.398155e+002, 1.205743e+005
9.402976e+002, 1.207175e+005
9.407797e+002, 1.208792e+005
9.412618e+002, 1.210259e+005
9.417440e+002, 1.211579e+005
9.422261e+002, 1.212493e+005
9.427082e+002, 1.212913e+005
9.431903e+002, 1.213297e+005
9.436724e+002, 1.213787e+005
9.441545e+002, 1.214626e+005
9.446367e+002, 1.216106e+005
9.451188e+002, 1.218345e+005
9.456009e+002, 1.220880e+005
9.460830e+002, 1.224096e+005
9.465651e+002, 1.226817e+005
9.470472e+002, 1.228227e+005
9.475294e+002, 1.228455e+005
9.480115e+002, 1.228477e+005
9.484936e+002, 1.228303e+005
9.489757e+002, 1.228150e+005
9.494578e+002, 1.228082e+005
9.499399e+002, 1.228175e+005
9.504221e+002, 1.228503e+005
9.509042e+002, 1.229081e+005
9.513863e+002, 1.229906e+005
9.518684e+002, 1.231036e+005
9.523505e+002, 1.232501e+005
9.528326e+002, 1.234658e+005
9.533148e+002, 1.236785e+005
9.537969e+002, 1.237148e+005
9.542790e+002, 1.236199e+005
9.547611e+002, 1.235804e+005
9.552432e+002, 1.236465e+005
9.557253e+002, 1.237624e+005
9.562075e+002, 1.239191e+005
9.566896e+002, 1.240846e+005
9.571717e+002, 1.242247e+005
9.576538e+002, 1.243208e+005
9.581359e+002, 1.244235e+005
9.586180e+002, 1.245151e+005
9.591002e+002, 1.246488e+005
9.595823e+002, 1.248955e+005
9.600644e+002, 1.252087e+005
9.605465e+002, 1.254378e+005
9.610286e+002, 1.255900e+005
9.615107e+002, 1.257409e+005
9.619929e+002, 1.259614e+005
9.624750e+002, 1.261668e+005
9.629571e+002, 1.263174e+005
9.634392e+002, 1.264164e+005
9.639213e+002, 1.264691e+005
9.644034e+002, 1.264440e+005
9.648856e+002, 1.265119e+005
9.653677e+002, 1.267458e+005
9.658498e+002, 1.270286e+005
9.663319e+002, 1.271381e+005
9.668140e+002, 1.271632e+005
9.672961e+002, 1.273037e+005
9.677783e+002, 1.276815e+005
9.682604e+002, 1.279950e+005
9.687425e+002, 1.280686e+005
9.692246e+002, 1.280807e+005
9.697067e+002, 1.281802e+005
9.701888e+002, 1.283851e+005
9.706710e+002, 1.285205e+005
9.711531e+002, 1.285762e+005
9.716352e+002, 1.286433e+005
9.721173e+002, 1.288337e+005
9.725994e+002, 1.290472e+005
9.730815e+002, 1.291124e+005
9.735637e+002, 1.290596e+005
9.740458e+002, 1.290948e+005
9.745279e+002, 1.294028e+005
9.750100e+002, 1.296619e+005
9.754921e+002, 1.297738e+005
9.759742e+002, 1.298006e+005
9.764564e+002, 1.299069e+005
9.769385e+002, 1.300890e+005
9.774206e+002, 1.302241e+005
9.779027e+002, 1.302629e+005
9.783848e+002, 1.303060e+005
9.788669e+002, 1.304896e+005
9.793491e+002, 1.307175e+005
9.798312e+002, 1.308764e+005
9.803133e+002, 1.309385e+005
9.807954e+002, 1.309319e+005
9.812775e+002, 1.307865e+005
9.817596e+002, 1.306983e+005
9.822418e+002, 1.308525e+005
9.827239e+002, 1.311901e+005
9.832060e+002, 1.313907e+005
9.836881e+002, 1.314644e+005
9.841702e+002, 1.315359e+005
9.846523e+002, 1.316809e+005
9.851345e+002, 1.318427e+005
9.856166e+002, 1.319776e+005
9.860987e+002, 1.321001e+005
9.865808e+002, 1.322797e+005
9.870629e+002, 1.325660e+005
9.875450e+002, 1.327361e+005
9.880272e+002, 1.327162e+005
9.885093e+002, 1.326398e+005
9.889914e+002, 1.327054e+005
9.894735e+002, 1.328689e+005
9.899556e+002, 1.330472e+005
9.904377e+002, 1.332315e+005
9.909199e+002, 1.333963e+005
9.914020e+002, 1.335217e+005
9.918841e+002, 1.336330e+005
9.923662e+002, 1.337373e+005
9.928483e+002, 1.338313e+005
9.933304e+002, 1.340216e+005
9.938126e+002, 1.343176e+005
9.942947e+002, 1.345437e+005
9.947768e+002, 1.345100e+005
9.952589e+002, 1.344021e+005
9.957410e+002, 1.344412e+005
9.962231e+002, 1.345915e+005
9.967053e+002, 1.347489e+005
9.971874e+002, 1.348968e+005
9.976695e+002, 1.350234e+005
9.981516e+002, 1.351096e+005
9.986337e+002, 1.351918e+005
9.991158e+002, 1.353263e+005
9.995980e+002, 1.355109e+005
1.000080e+003, 1.357369e+005
1.000562e+003, 1.360158e+005
1.001044e+003, 1.362476e+005
1.001526e+003, 1.363537e+005
1.002009e+003, 1.363872e+005
1.002491e+003, 1.363564e+005
1.002973e+003, 1.362500e+005
1.003455e+003, 1.363007e+005
1.003937e+003, 1.365614e+005
1.004419e+003, 1.368150e+005
1.004901e+003, 1.369475e+005
1.005383e+003, 1.370251e+005
1.005865e+003, 1.372282e+005
1.006348e+003, 1.375013e+005
1.006830e+003, 1.376915e+005
1.007312e+003, 1.376330e+005
1.007794e+003, 1.375998e+005
1.008276e+003, 1.376761e+005
1.008758e+003, 1.378185e+005
1.009240e+003, 1.379883e+005
1.009722e+003, 1.381829e+005
1.010205e+003, 1.384247e+005
1.010687e+003, 1.387243e+005
1.011169e+003, 1.390028e+005
1.011651e+003, 1.391918e+005
1.012133e+003, 1.393259e+005
1.012615e+003, 1.394251e+005
1.013097e+003, 1.394955e+005
1.013579e+003, 1.396033e+005
1.014061e+003, 1.398147e+005
1.014544e+003, 1.399693e+005
1.015026e+003, 1.399967e+005
1.015508e+003, 1.399608e+005
1.015990e+003, 1.400261e+005
1.016472e+003, 1.401708e+005
1.016954e+003, 1.403010e+005
1.017436e+003, 1.403741e+005
1.017918e+003, 1.404657e+005
1.018401e+003, 1.406643e+005
1.018883e+003, 1.408783e+005
1.019365e+003, 1.410079e+005
1.019847e+003, 1.410211e+005
1.020329e+003, 1.411198e+005
1.020811e+003, 1.413254e+005
1.021293e+003, 1.415038e+005
1.021775e+003, 1.414941e+005
1.022257e+003, 1.414328e+005
1.022740e+003, 1.415699e+005
1.023222e+003, 1.418547e+005
1.023704e+003, 1.420831e+005
1.024186e+003, 1.421064e+005
1.024668e+003, 1.421607e+005
1.025150e+003, 1.422963e+005
1.025632e+003, 1.424827e+005
1.026114e+003, 1.426839e+005
1.026596e+003, 1.428922e+005
1.027079e+003, 1.430748e+005
1.027561e+003, 1.432255e+005
1.028043e+003, 1.433516e+005
1.028525e+003, 1.434455e+005
1.029007e+003, 1.435280e+005
1.029489e+003, 1.436224e+005
1.029971e+003, 1.437331e+005
1.030453e+003, 1.437993e+005
1.030936e+003, 1.438017e+005
1.031418e+003, 1.438306e+005
1.031900e+003, 1.439351e+005
1.032382e+003, 1.440796e+005
1.032864e+003, 1.441768e+005
1.033346e+003, 1.442573e+005
1.033828e+003, 1.443952e+005
1.034310e+003, 1.446983e+005
1.034792e+003, 1.449344e+005
1.035275e+003, 1.450136e+005
1.035757e+003, 1.450344e+005
1.036239e+003, 1.450733e+005
1.036721e+003, 1.451307e+005
1.037203e+003, 1.452251e+005
1.037685e+003, 1.453564e+005
1.038167e+003, 1.454510e+005
1.038649e+003, 1.453656e+005
1.039132e+003, 1.452993e+005
1.039614e+003, 1.454512e+005
1.040096e+003, 1.457797e+005
1.040578e+003, 1.460340e+005
1.041060e+003, 1.461764e+005
1.041542e+003, 1.463060e+005
1.042024e+003, 1.464284e+005
1.042506e+003, 1.465760e+005
1.042989e+003, 1.468446e+005
1.043471e+003, 1.471646e+005
1.043953e+003, 1.473734e+005
1.044435e+003, 1.474151e+005
1.044917e+003, 1.475006e+005
1.045399e+003, 1.478342e+005
1.045881e+003, 1.480999e+005
1.046363e+003, 1.480882e+005
1.046845e+003, 1.478547e+005
1.047328e+003, 1.478775e+005
1.047810e+003, 1.481426e+005
1.048292e+003, 1.483810e+005
1.048774e+003, 1.484532e+005
1.049256e+003, 1.484791e+005
1.049738e+003, 1.485309e+005
1.050220e+003, 1.486111e+005
1.050702e+003, 1.487271e+005
1.051184e+003, 1.489018e+005
1.051667e+003, 1.490532e+005
1.052149e+003, 1.491756e+005
1.052631e+003, 1.492850e+005
1.053113e+003, 1.493965e+005
1.053595e+003, 1.495050e+005
1.054077e+003, 1.495950e+005
1.054559e+003, 1.496700e+005
1.055041e+003, 1.497611e+005
1.055523e+003, 1.499081e+005
1.056006e+003, 1.500387e+005
1.056488e+003, 1.501240e+005
1.056970e+003, 1.501928e+005
1.057452e+003, 1.503206e+005
1.057934e+003, 1.504972e+005
1.058416e+003, 1.506058e+005
1.058898e+003, 1.506140e+005
1.059380e+003, 1.506278e+005
1.059863e+003, 1.507394e+005
1.060345e+003, 1.508876e+005
1.060827e+003, 1.510181e+005
1.061309e+003, 1.511259e+005
1.061791e+003, 1.512607e+005
1.062273e+003, 1.514158e+005
1.062755e+003, 1.516303e+005
1.063237e+003, 1.519634e+005
1.063719e+003, 1.523018e+005
1.064202e+003, 1.524638e+005
1.064684e+003, 1.525033e+005
1.065166e+003, 1.525190e+005
1.065648e+003, 1.524723e+005
1.066130e+003, 1.525339e+005
1.066612e+003, 1.527790e+005
1.067094e+003, 1.530427e+005
1.067576e+003, 1.531717e+005
1.068059e+003, 1.531974e+005
1.068541e+003, 1.532940e+005
1.069023e+003, 1.534587e+005
1.069505e+003, 1.536452e+005
1.069987e+003, 1.538874e+005
1.070469e+003, 1.540776e+005
1.070951e+003, 1.540849e+005
1.071433e+003, 1.540225e+005
1.071916e+003, 1.541107e+005
1.072398e+003, 1.543674e+005
1.072880e+003, 1.546113e+005
1.073362e+003, 1.548195e+005
1.073844e+003, 1.549928e+005
1.074326e+003, 1.551310e+005
1.074808e+003, 1.552338e+005
1.075290e+003, 1.552845e+005
1.075772e+003, 1.552833e+005
1.076255e+003, 1.553253e+005
1.076737e+003, 1.554337e+005
1.077219e+003, 1.555429e+005
1.077701e+003, 1.556213e+005
1.078183e+003, 1.557039e+005
1.078665e+003, 1.558797e+005
1.079147e+003, 1.561111e+005
1.079629e+003, 1.563027e+005
1.080111e+003, 1.564009e+005
1.080594e+003, 1.565441e+005
1.081076e+003, 1.568161e+005
1.081558e+003, 1.571125e+005
1.082040e+003, 1.573768e+005
1.082522e+003, 1.576089e+005
1.083004e+003, 1.578086e+005
1.083486e+003, 1.579768e+005
1.083968e+003, 1.581140e+005
1.084450e+003, 1.581714e+005
1.084933e+003, 1.582512e+005
1.085415e+003, 1.584868e+005
1.085897e+003, 1.587562e+005
1.086379e+003, 1.588551e+005
1.086861e+003, 1.587083e+005
1.087343e+003, 1.586946e+005
1.087825e+003, 1.588445e+005
1.088307e+003, 1.590452e+005
1.088790e+003, 1.592410e+005
1.089272e+003, 1.594049e+005
1.089754e+003, 1.594813e+005
1.090236e+003, 1.594896e+005
1.090718e+003, 1.595418e+005
1.091200e+003, 1.597051e+005
1.091682e+003, 1.598235e+005
1.092164e+003, 1.598520e+005
1.092646e+003, 1.598578e+005
1.093129e+003, 1.599534e+005
1.093611e+003, 1.601047e+005
1.094093e+003, 1.602298e+005
1.094575e+003, 1.603138e+005
1.095057e+003, 1.603944e+005
1.095539e+003, 1.604454e+005
1.096021e+003, 1.605466e+005
1.096503e+003, 1.607694e+005
1.096986e+003, 1.610538e+005
1.097468e+003, 1.611259e+005
1.097950e+003, 1.610206e+005
1.098432e+003, 1.610333e+005
1.098914e+003, 1.612849e+005
1.099396e+003, 1.616080e+005
1.099878e+003, 1.620026e+005
1.100360e+003, 1.623271e+005
1.100843e+003, 1.624068e+005
1.101325e+003, 1.622078e+005
1.101807e+003, 1.621530e+005
1.102289e+003, 1.622521e+005
1.102771e+003, 1.623879e+005
1.103253e+003, 1.625086e+005
1.103735e+003, 1.626166e+005
1.104217e+003, 1.626808e+005
1.104699e+003, 1.627408e+005
1.105182e+003, 1.628789e+005
1.105664e+003, 1.632182e+005
1.106146e+003, 1.634241e+005
1.106628e+003, 1.634599e+005
1.107110e+003, 1.634405e+005
1.107592e+003, 1.634351e+005
1.108074e+003, 1.634630e+005
1.108556e+003, 1.635906e+005
1.109038e+003, 1.637989e+005
1.109521e+003, 1.639812e+005
1.110003e+003, 1.640192e+005
1.110485e+003, 1.641400e+005
1.110967e+003, 1.644457e+005
1.111449e+003, 1.647868e+005
1.111931e+003, 1.648955e+005
1.112413e+003, 1.648347e+005
1.112895e+003, 1.649228e+005
1.113377e+003, 1.652012e+005
1.113860e+003, 1.654262e+005
1.114342e+003, 1.653724e+005
1.114824e+003, 1.653043e+005
1.115306e+003, 1.653685e+005
1.115788e+003, 1.655331e+005
1.116270e+003, 1.656931e+005
1.116752e+003, 1.658509e+005
1.117234e+003, 1.660447e+005
1.117717e+003, 1.662920e+005
1.118199e+003, 1.665459e+005
1.118681e+003, 1.667764e+005
1.119163e+003, 1.669836e+005
1.119645e+003, 1.671660e+005
1.120127e+003, 1.673229e+005
1.120609e+003, 1.674420e+005
1.121091e+003, 1.675123e+005
1.121573e+003, 1.676131e+005
1.122056e+003, 1.678260e+005
1.122538e+003, 1.680053e+005
1.123020e+003, 1.678630e+005
1.123502e+003, 1.675993e+005
1.123984e+003, 1.675353e+005
1.124466e+003, 1.678532e+005
1.124948e+003, 1.681221e+005
1.125430e+003, 1.683315e+005
1.125913e+003, 1.685112e+005
1.126395e+003, 1.687047e+005
1.126877e+003, 1.688743e+005
1.127359e+003, 1.688960e+005
1.127841e+003, 1.688227e+005
1.128323e+003, 1.687971e+005
1.128805e+003, 1.688820e+005
1.129287e+003, 1.690172e+005
1.129770e+003, 1.692360e+005
1.130252e+003, 1.694339e+005
1.130734e+003, 1.694455e+005
1.131216e+003, 1.693465e+005
1.131698e+003, 1.694846e+005
1.132180e+003, 1.698413e+005
1.132662e+003, 1.701896e+005
1.133144e+003, 1.703991e+005
1.133626e+003, 1.705839e+005
1.134109e+003, 1.708041e+005
1.134591e+003, 1.710114e+005
1.135073e+003, 1.711187e+005
1.135555e+003, 1.711330e+005
1.136037e+003, 1.711604e+005
1.136519e+003, 1.712140e+005
1.137001e+003, 1.712601e+005
1.137483e+003, 1.712288e+005
1.137965e+003, 1.712303e+005
1.138448e+003, 1.713891e+005
1.138930e+003, 1.716393e+005
1.139412e+003, 1.717494e+005
1.139894e+003, 1.717121e+005
1.140376e+003, 1.717732e+005
1.140858e+003, 1.720033e+005
1.141340e+003, 1.722510e+005
1.141822e+003, 1.723801e+005
1.142304e+003, 1.724598e+005
1.142787e+003, 1.725501e+005
1.143269e+003, 1.726543e+005
1.143751e+003, 1.727548e+005
1.144233e+003, 1.728456e+005
1.144715e+003, 1.729422e+005
1.145197e+003, 1.730375e+005
1.145679e+003, 1.731553e+005
1.146161e+003, 1.733742e+005
1.146644e+003, 1.736055e+005
1.147126e+003, 1.737069e+005
1.147608e+003, 1.735760e+005
1.148090e+003, 1.736617e+005
1.148572e+003, 1.740581e+005
1.149054e+003, 1.743846e+005
1.149536e+003, 1.743930e+005
1.150018e+003, 1.742937e+005
1.150500e+003, 1.745003e+005
1.150983e+003, 1.748724e+005
1.151465e+003, 1.751271e+005
1.151947e+003, 1.751318e+005
1.152429e+003, 1.751289e+005
1.152911e+003, 1.751292e+005
1.153393e+003, 1.751469e+005
1.153875e+003, 1.752032e+005
1.154357e+003, 1.752809e+005
1.154840e+003, 1.753237e+005
1.155322e+003, 1.753461e+005
1.155804e+003, 1.753915e+005
1.156286e+003, 1.754953e+005
1.156768e+003, 1.755964e+005
1.157250e+003, 1.756680e+005
1.157732e+003, 1.757578e+005
1.158214e+003, 1.759230e+005
1.158697e+003, 1.761451e+005
1.159179e+003, 1.763541e+005
1.159661e+003, 1.765459e+005
1.160143e+003, 1.767075e+005
1.160625e+003, 1.768248e+005
1.161107e+003, 1.769138e+005
1.161589e+003, 1.769328e+005
1.162071e+003, 1.769704e+005
1.162553e+003, 1.771883e+005
1.163036e+003, 1.775454e+005
1.163518e+003, 1.777459e+005
1.164000e+003, 1.777762e+005
1.164482e+003, 1.777674e+005
1.164964e+003, 1.777339e+005
1.165446e+003, 1.777568e+005
1.165928e+003, 1.778963e+005
1.166410e+003, 1.781072e+005
1.166892e+003, 1.783315e+005
1.167375e+003, 1.785661e+005
1.167857e+003, 1.787066e+005
1.168339e+003, 1.787370e+005
1.168821e+003, 1.787616e+005
1.169303e+003, 1.787748e+005
1.169785e+003, 1.788833e+005
1.170267e+003, 1.792539e+005
1.170749e+003, 1.797569e+005
1.171231e+003, 1.800185e+005
1.171714e+003, 1.800398e+005
1.172196e+003, 1.800530e+005
1.172678e+003, 1.800969e+005
1.173160e+003, 1.801848e+005
1.173642e+003, 1.803519e+005
1.174124e+003, 1.805473e+005
1.174606e+003, 1.807384e+005
1.175088e+003, 1.809237e+005
1.175571e+003, 1.810912e+005
1.176053e+003, 1.812440e+005
1.176535e+003, 1.813583e+005
1.177017e+003, 1.814151e+005
1.177499e+003, 1.814820e+005
1.177981e+003, 1.816628e+005
1.178463e+003, 1.818581e+005
1.178945e+003, 1.819471e+005
1.179427e+003, 1.819251e+005
1.179910e+003, 1.820151e+005
1.180392e+003, 1.822332e+005
1.180874e+003, 1.823891e+005
1.181356e+003, 1.823808e+005
1.181838e+003, 1.823519e+005
1.182320e+003, 1.824728e+005
1.182802e+003, 1.826497e+005
1.183284e+003, 1.827630e+005
1.183767e+003, 1.827865e+005
1.184249e+003, 1.828990e+005
1.184731e+003, 1.831263e+005
1.185213e+003, 1.832703e+005
1.185695e+003, 1.831704e+005
1.186177e+003, 1.830482e+005
1.186659e+003, 1.832437e+005
1.187141e+003, 1.835500e+005
1.187624e+003, 1.836444e+005
1.188106e+003, 1.834079e+005
1.188588e+003, 1.832809e+005
1.189070e+003, 1.832702e+005
1.189552e+003, 1.833501e+005
1.190034e+003, 1.835350e+005
1.190516e+003, 1.837738e+005
1.190998e+003, 1.840512e+005
1.191480e+003, 1.843203e+005
1.191963e+003, 1.844942e+005
1.192445e+003, 1.844964e+005
1.192927e+003, 1.845589e+005
1.193409e+003, 1.846856e+005
1.193891e+003, 1.848436e+005
1.194373e+003, 1.850118e+005
1.194855e+003, 1.851933e+005
1.195337e+003, 1.853817e+005
1.195819e+003, 1.855871e+005
1.196302e+003, 1.858395e+005
1.196784e+003, 1.862194e+005
1.197266e+003, 1.864406e+005
1.197748e+003, 1.864561e+005
1.198230e+003, 1.864876e+005
1.198712e+003, 1.867693e+005
1.199194e+003, 1.871323e+005
1.199676e+003, 1.873582e+005
1.200158e+003, 1.874740e+005
1.200641e+003, 1.875568e+005
1.201123e+003, 1.876329e+005
1.201605e+003, 1.876437e+005
1.202087e+003, 1.875700e+005
1.202569e+003, 1.875065e+005
1.203051e+003, 1.875241e+005
1.203533e+003, 1.876141e+005
1.204015e+003, 1.878017e+005
1.204498e+003, 1.880535e+005
1.204980e+003, 1.882568e+005
1.205462e+003, 1.883560e+005
1.205944e+003, 1.885172e+005
1.206426e+003, 1.887782e+005
1.206908e+003, 1.890101e+005
1.207390e+003, 1.890200e+005
1.207872e+003, 1.889694e+005
1.208354e+003, 1.890815e+005
1.208837e+003, 1.893304e+005
1.209319e+003, 1.895508e+005
1.209801e+003, 1.897021e+005
1.210283e+003, 1.898831e+005
1.210765e+003, 1.901185e+005
1.211247e+003, 1.903387e+005
1.211729e+003, 1.904317e+005
1.212211e+003, 1.904976e+005
1.212694e+003, 1.907354e+005
1.213176e+003, 1.910928e+005
1.213658e+003, 1.911768e+005
1.214140e+003, 1.908339e+005
1.214622e+003, 1.906302e+005
1.215104e+003, 1.906700e+005
1.215586e+003, 1.907803e+005
1.216068e+003, 1.907696e+005
1.216551e+003, 1.907292e+005
1.217033e+003, 1.907523e+005
1.217515e+003, 1.908520e+005
1.217997e+003, 1.910581e+005
1.218479e+003, 1.914478e+005
1.218961e+003, 1.916433e+005
1.219443e+003, 1.915374e+005
1.219925e+003, 1.914105e+005
1.220407e+003, 1.915954e+005
1.220890e+003, 1.919173e+005
1.221372e+003, 1.922026e+005
1.221854e+003, 1.924288e+005
1.222336e+003, 1.926121e+005
1.222818e+003, 1.927444e+005
1.223300e+003, 1.928455e+005
1.223782e+003, 1.929039e+005
1.224264e+003, 1.929964e+005
1.224746e+003, 1.932938e+005
1.225229e+003, 1.936086e+005
1.225711e+003, 1.937200e+005
1.226193e+003, 1.936318e+005
1.226675e+003, 1.936146e+005
1.227157e+003, 1.936815e+005
1.227639e+003, 1.937778e+005
1.228121e+003, 1.939035e+005
1.228603e+003, 1.940034e+005
1.229085e+003, 1.939254e+005
1.229568e+003, 1.938632e+005
1.230050e+003, 1.940577e+005
1.230532e+003, 1.944826e+005
1.231014e+003, 1.947470e+005
1.231496e+003, 1.948319e+005
1.231978e+003, 1.949336e+005
1.232460e+003, 1.951069e+005
1.232942e+003, 1.952561e+005
1.233425e+003, 1.952565e+005
1.233907e+003, 1.952200e+005
1.234389e+003, 1.952653e+005
1.234871e+003, 1.953736e+005
1.235353e+003, 1.953617e+005
1.235835e+003, 1.952184e+005
1.236317e+003, 1.952792e+005
1.236799e+003, 1.956729e+005
1.237281e+003, 1.960230e+005
1.237764e+003, 1.959107e+005
1.238246e+003, 1.957146e+005
1.238728e+003, 1.957560e+005
1.239210e+003, 1.959812e+005
1.239692e+003, 1.961428e+005
1.240174e+003, 1.962433e+005
1.240656e+003, 1.964460e+005
1.241138e+003, 1.968135e+005
1.241621e+003, 1.971276e+005
1.242103e+003, 1.971242e+005
1.242585e+003, 1.971033e+005
1.243067e+003, 1.972606e+005
1.243549e+003, 1.975598e+005
1.244031e+003, 1.979318e+005
1.244513e+003, 1.983498e+005
1.244995e+003, 1.985544e+005
1.245478e+003, 1.984490e+005
1.245960e+003, 1.983620e+005
1.246442e+003, 1.985556e+005
1.246924e+003, 1.987542e+005
1.247406e+003, 1.987760e+005
1.247888e+003, 1.987091e+005
1.248370e+003, 1.988631e+005
1.248852e+003, 1.991762e+005
1.249334e+003, 1.993702e+005
1.249817e+003, 1.993627e+005
1.250299e+003, 1.993755e+005
1.250781e+003, 1.996069e+005
1.251263e+003, 1.997670e+005
1.251745e+003, 1.997005e+005
1.252227e+003, 1.995313e+005
1.252709e+003, 1.995824e+005
1.253191e+003, 1.997844e+005
1.253673e+003, 1.999219e+005
1.254156e+003, 1.999367e+005
1.254638e+003, 2.000147e+005
1.255120e+003, 2.002539e+005
1.255602e+003, 2.005072e+005
1.256084e+003, 2.007252e+005
1.256566e+003, 2.009275e+005
1.257048e+003, 2.011482e+005
1.257530e+003, 2.013842e+005
1.258012e+003, 2.016438e+005
1.258495e+003, 2.019378e+005
1.258977e+003, 2.021298e+005
1.259459e+003, 2.021200e+005
1.259941e+003, 2.022047e+005
1.260423e+003, 2.025128e+005
1.260905e+003, 2.028835e+005
1.261387e+003, 2.030856e+005
1.261869e+003, 2.031703e+005
1.262352e+003, 2.032008e+005
1.262834e+003, 2.031826e+005
1.263316e+003, 2.031830e+005
1.263798e+003, 2.032107e+005
1.264280e+003, 2.032420e+005
1.264762e+003, 2.032667e+005
1.265244e+003, 2.033065e+005
1.265726e+003, 2.034120e+005
1.266208e+003, 2.035324e+005
1.266691e+003, 2.035816e+005
1.267173e+003, 2.035617e+005
1.267655e+003, 2.037018e+005
1.268137e+003, 2.040305e+005
1.268619e+003, 2.042811e+005
1.269101e+003, 2.043711e+005
1.269583e+003, 2.044115e+005
1.270065e+003, 2.045111e+005
1.270548e+003, 2.046052e+005
1.271030e+003, 2.045985e+005
1.271512e+003, 2.045303e+005
1.271994e+003, 2.046089e+005
1.272476e+003, 2.048298e+005
1.272958e+003, 2.049406e+005
1.273440e+003, 2.048641e+005
1.273922e+003, 2.048453e+005
1.274405e+003, 2.052107e+005
1.274887e+003, 2.055311e+005
1.275369e+003, 2.054879e+005
1.275851e+003, 2.052531e+005
1.276333e+003, 2.053332e+005
1.276815e+003, 2.056684e+005
1.277297e+003, 2.059757e+005
1.277779e+003, 2.062037e+005
1.278261e+003, 2.063417e+005
1.278744e+003, 2.062722e+005
1.279226e+003, 2.062377e+005
1.279708e+003, 2.063216e+005
1.280190e+003, 2.064863e+005
1.280672e+003, 2.066983e+005
1.281154e+003, 2.069272e+005
1.281636e+003, 2.070965e+005
1.282118e+003, 2.071954e+005
1.282600e+003, 2.072753e+005
1.283083e+003, 2.073458e+005
1.283565e+003, 2.074033e+005
1.284047e+003, 2.074378e+005
1.284529e+003, 2.074851e+005
1.285011e+003, 2.076236e+005
1.285493e+003, 2.077973e+005
1.285975e+003, 2.079300e+005
1.286457e+003, 2.080138e+005
1.286939e+003, 2.080215e+005
1.287422e+003, 2.078939e+005
1.287904e+003, 2.079459e+005
1.288386e+003, 2.082818e+005
1.288868e+003, 2.086102e+005
1.289350e+003, 2.084936e+005
1.289832e+003, 2.083074e+005
1.290314e+003, 2.085218e+005
1.290796e+003, 2.090301e+005
1.291279e+003, 2.091762e+005
1.291761e+003, 2.089049e+005
1.292243e+003, 2.088153e+005
1.292725e+003, 2.089953e+005
1.293207e+003, 2.092419e+005
1.293689e+003, 2.094059e+005
1.294171e+003, 2.095619e+005
1.294653e+003, 2.097932e+005
1.295135e+003, 2.100282e+005
1.295618e+003, 2.101210e+005
1.296100e+003, 2.100881e+005
1.296582e+003, 2.101014e+005
1.297064e+003, 2.101952e+005
1.297546e+003, 2.103053e+005
1.298028e+003, 2.103205e+005
1.298510e+003, 2.103555e+005
1.298992e+003, 2.104701e+005
1.299475e+003, 2.106257e+005
1.299957e+003, 2.107371e+005
1.300439e+003, 2.108613e+005
1.300921e+003, 2.111731e+005
1.301403e+003, 2.116552e+005
1.301885e+003, 2.121134e+005
##END=



