##NAMES=Wurtzite
##RRUFFID=R130069
##IDEAL CHEMISTRY=Zn^2+^S^2+^
##LOCALITY=Merelani Hills (Mererani), Lelatema Mountains, Arusha Region, Tanzania
##OWNER=RRUFF
##SOURCE=William W. Pinch
##DESCRIPTION=Reddish brown blocky crystals, polytype wurtzite-4H
##STATUS=The identification of this mineral has been confirmed by single-crystal X-ray diffraction.
##URL=rruff.info/R130069
8.975323e+001, 0.000000e+000
9.023535e+001, 1.271046e+006
9.071747e+001, 1.249481e+006
9.119958e+001, 1.236932e+006
9.168170e+001, 1.264672e+006
9.216382e+001, 1.290478e+006
9.264594e+001, 1.304571e+006
9.312805e+001, 1.309681e+006
9.361017e+001, 1.311260e+006
9.409229e+001, 1.310320e+006
9.457440e+001, 1.305932e+006
9.505651e+001, 1.300383e+006
9.553863e+001, 1.294463e+006
9.602074e+001, 1.288492e+006
9.650286e+001, 1.282629e+006
9.698498e+001, 1.276095e+006
9.746709e+001, 1.266790e+006
9.794921e+001, 1.258834e+006
9.843133e+001, 1.252373e+006
9.891344e+001, 1.246980e+006
9.939556e+001, 1.242180e+006
9.987768e+001, 1.237932e+006
1.003598e+002, 1.234572e+006
1.008419e+002, 1.232216e+006
1.013240e+002, 1.230968e+006
1.018061e+002, 1.230506e+006
1.022883e+002, 1.231203e+006
1.027704e+002, 1.232250e+006
1.032525e+002, 1.232768e+006
1.037346e+002, 1.232556e+006
1.042167e+002, 1.232534e+006
1.046988e+002, 1.232945e+006
1.051810e+002, 1.233630e+006
1.056631e+002, 1.234510e+006
1.061452e+002, 1.235624e+006
1.066273e+002, 1.236876e+006
1.071094e+002, 1.237938e+006
1.075915e+002, 1.238527e+006
1.080737e+002, 1.239177e+006
1.085558e+002, 1.240131e+006
1.090379e+002, 1.241311e+006
1.095200e+002, 1.242512e+006
1.100021e+002, 1.243534e+006
1.104842e+002, 1.244310e+006
1.109664e+002, 1.245227e+006
1.114485e+002, 1.246403e+006
1.119306e+002, 1.247619e+006
1.124127e+002, 1.248770e+006
1.128948e+002, 1.249836e+006
1.133769e+002, 1.250867e+006
1.138591e+002, 1.251909e+006
1.143412e+002, 1.252808e+006
1.148233e+002, 1.254047e+006
1.153054e+002, 1.255980e+006
1.157875e+002, 1.258063e+006
1.162696e+002, 1.259691e+006
1.167517e+002, 1.260625e+006
1.172339e+002, 1.261203e+006
1.177160e+002, 1.262245e+006
1.181981e+002, 1.263893e+006
1.186802e+002, 1.265523e+006
1.191623e+002, 1.266866e+006
1.196444e+002, 1.268017e+006
1.201266e+002, 1.269285e+006
1.206087e+002, 1.270839e+006
1.210908e+002, 1.272541e+006
1.215729e+002, 1.274098e+006
1.220550e+002, 1.275429e+006
1.225371e+002, 1.276734e+006
1.230193e+002, 1.278218e+006
1.235014e+002, 1.279914e+006
1.239835e+002, 1.281511e+006
1.244656e+002, 1.282622e+006
1.249477e+002, 1.283635e+006
1.254298e+002, 1.284985e+006
1.259120e+002, 1.286963e+006
1.263941e+002, 1.289180e+006
1.268762e+002, 1.290667e+006
1.273583e+002, 1.290898e+006
1.278404e+002, 1.291289e+006
1.283225e+002, 1.292335e+006
1.288047e+002, 1.293773e+006
1.292868e+002, 1.295252e+006
1.297689e+002, 1.296550e+006
1.302510e+002, 1.297688e+006
1.307331e+002, 1.298923e+006
1.312152e+002, 1.300419e+006
1.316974e+002, 1.301878e+006
1.321795e+002, 1.303195e+006
1.326616e+002, 1.304408e+006
1.331437e+002, 1.305610e+006
1.336258e+002, 1.306881e+006
1.341079e+002, 1.308237e+006
1.345901e+002, 1.309624e+006
1.350722e+002, 1.311090e+006
1.355543e+002, 1.312548e+006
1.360364e+002, 1.313986e+006
1.365185e+002, 1.315388e+006
1.370006e+002, 1.316691e+006
1.374828e+002, 1.317777e+006
1.379649e+002, 1.318597e+006
1.384470e+002, 1.319484e+006
1.389291e+002, 1.320501e+006
1.394112e+002, 1.321583e+006
1.398933e+002, 1.322619e+006
1.403755e+002, 1.323549e+006
1.408576e+002, 1.324559e+006
1.413397e+002, 1.325971e+006
1.418218e+002, 1.327741e+006
1.423039e+002, 1.329459e+006
1.427860e+002, 1.330899e+006
1.432681e+002, 1.332133e+006
1.437503e+002, 1.333445e+006
1.442324e+002, 1.334903e+006
1.447145e+002, 1.336442e+006
1.451966e+002, 1.337988e+006
1.456787e+002, 1.339534e+006
1.461608e+002, 1.341125e+006
1.466430e+002, 1.342876e+006
1.471251e+002, 1.344823e+006
1.476072e+002, 1.346546e+006
1.480893e+002, 1.347839e+006
1.485714e+002, 1.348962e+006
1.490535e+002, 1.350029e+006
1.495357e+002, 1.351062e+006
1.500178e+002, 1.352053e+006
1.504999e+002, 1.352942e+006
1.509820e+002, 1.353602e+006
1.514641e+002, 1.354479e+006
1.519462e+002, 1.355773e+006
1.524284e+002, 1.357172e+006
1.529105e+002, 1.358445e+006
1.533926e+002, 1.359497e+006
1.538747e+002, 1.360408e+006
1.543568e+002, 1.361359e+006
1.548389e+002, 1.362105e+006
1.553211e+002, 1.363219e+006
1.558032e+002, 1.365041e+006
1.562853e+002, 1.367146e+006
1.567674e+002, 1.369007e+006
1.572495e+002, 1.370351e+006
1.577316e+002, 1.371306e+006
1.582138e+002, 1.372415e+006
1.586959e+002, 1.373740e+006
1.591780e+002, 1.375115e+006
1.596601e+002, 1.376588e+006
1.601422e+002, 1.378086e+006
1.606243e+002, 1.379428e+006
1.611065e+002, 1.380460e+006
1.615886e+002, 1.381278e+006
1.620707e+002, 1.382311e+006
1.625528e+002, 1.383755e+006
1.630349e+002, 1.385208e+006
1.635170e+002, 1.386387e+006
1.639991e+002, 1.387322e+006
1.644813e+002, 1.388284e+006
1.649634e+002, 1.389409e+006
1.654455e+002, 1.390698e+006
1.659276e+002, 1.392133e+006
1.664097e+002, 1.393894e+006
1.668918e+002, 1.395667e+006
1.673740e+002, 1.397094e+006
1.678561e+002, 1.398143e+006
1.683382e+002, 1.398986e+006
1.688203e+002, 1.399513e+006
1.693024e+002, 1.399935e+006
1.697845e+002, 1.400536e+006
1.702667e+002, 1.401489e+006
1.707488e+002, 1.402642e+006
1.712309e+002, 1.403634e+006
1.717130e+002, 1.404366e+006
1.721951e+002, 1.405121e+006
1.726772e+002, 1.405931e+006
1.731594e+002, 1.406852e+006
1.736415e+002, 1.408004e+006
1.741236e+002, 1.409534e+006
1.746057e+002, 1.411348e+006
1.750878e+002, 1.412817e+006
1.755699e+002, 1.413710e+006
1.760521e+002, 1.414494e+006
1.765342e+002, 1.415191e+006
1.770163e+002, 1.415882e+006
1.774984e+002, 1.416672e+006
1.779805e+002, 1.417647e+006
1.784626e+002, 1.418812e+006
1.789448e+002, 1.420018e+006
1.794269e+002, 1.421342e+006
1.799090e+002, 1.422632e+006
1.803911e+002, 1.423793e+006
1.808732e+002, 1.424868e+006
1.813553e+002, 1.425963e+006
1.818375e+002, 1.427169e+006
1.823196e+002, 1.428493e+006
1.828017e+002, 1.429792e+006
1.832838e+002, 1.430943e+006
1.837659e+002, 1.432160e+006
1.842480e+002, 1.433587e+006
1.847301e+002, 1.435194e+006
1.852123e+002, 1.436808e+006
1.856944e+002, 1.438267e+006
1.861765e+002, 1.439546e+006
1.866586e+002, 1.440781e+006
1.871407e+002, 1.441883e+006
1.876228e+002, 1.442996e+006
1.881050e+002, 1.444279e+006
1.885871e+002, 1.445734e+006
1.890692e+002, 1.447153e+006
1.895513e+002, 1.448296e+006
1.900334e+002, 1.449168e+006
1.905155e+002, 1.450133e+006
1.909977e+002, 1.451312e+006
1.914798e+002, 1.452568e+006
1.919619e+002, 1.453825e+006
1.924440e+002, 1.455117e+006
1.929261e+002, 1.456215e+006
1.934082e+002, 1.456573e+006
1.938904e+002, 1.456462e+006
1.943725e+002, 1.456800e+006
1.948546e+002, 1.458227e+006
1.953367e+002, 1.460237e+006
1.958188e+002, 1.461816e+006
1.963009e+002, 1.462764e+006
1.967831e+002, 1.463536e+006
1.972652e+002, 1.464409e+006
1.977473e+002, 1.465379e+006
1.982294e+002, 1.466437e+006
1.987115e+002, 1.467605e+006
1.991936e+002, 1.468869e+006
1.996758e+002, 1.470156e+006
2.001579e+002, 1.471420e+006
2.006400e+002, 1.472782e+006
2.011221e+002, 1.474362e+006
2.016042e+002, 1.476076e+006
2.020863e+002, 1.477707e+006
2.025685e+002, 1.479108e+006
2.030506e+002, 1.480286e+006
2.035327e+002, 1.481339e+006
2.040148e+002, 1.481905e+006
2.044969e+002, 1.482730e+006
2.049790e+002, 1.484344e+006
2.054612e+002, 1.486461e+006
2.059433e+002, 1.488407e+006
2.064254e+002, 1.489531e+006
2.069075e+002, 1.489767e+006
2.073896e+002, 1.490375e+006
2.078717e+002, 1.491760e+006
2.083539e+002, 1.493165e+006
2.088360e+002, 1.494398e+006
2.093181e+002, 1.495452e+006
2.098002e+002, 1.496386e+006
2.102823e+002, 1.497244e+006
2.107644e+002, 1.498015e+006
2.112466e+002, 1.498806e+006
2.117287e+002, 1.499468e+006
2.122108e+002, 1.500290e+006
2.126929e+002, 1.501482e+006
2.131750e+002, 1.502970e+006
2.136571e+002, 1.504537e+006
2.141393e+002, 1.506000e+006
2.146214e+002, 1.507371e+006
2.151035e+002, 1.508535e+006
2.155856e+002, 1.509422e+006
2.160677e+002, 1.510226e+006
2.165498e+002, 1.510982e+006
2.170320e+002, 1.511728e+006
2.175141e+002, 1.512561e+006
2.179962e+002, 1.513562e+006
2.184783e+002, 1.514748e+006
2.189604e+002, 1.516055e+006
2.194425e+002, 1.517675e+006
2.199247e+002, 1.519244e+006
2.204068e+002, 1.520490e+006
2.208889e+002, 1.521427e+006
2.213710e+002, 1.522292e+006
2.218531e+002, 1.523239e+006
2.223352e+002, 1.524286e+006
2.228174e+002, 1.525614e+006
2.232995e+002, 1.527626e+006
2.237816e+002, 1.529620e+006
2.242637e+002, 1.531005e+006
2.247458e+002, 1.531772e+006
2.252279e+002, 1.532365e+006
2.257100e+002, 1.533061e+006
2.261922e+002, 1.533884e+006
2.266743e+002, 1.534919e+006
2.271564e+002, 1.536321e+006
2.276385e+002, 1.537843e+006
2.281206e+002, 1.539261e+006
2.286027e+002, 1.540562e+006
2.290849e+002, 1.541828e+006
2.295670e+002, 1.543199e+006
2.300491e+002, 1.544570e+006
2.305312e+002, 1.545647e+006
2.310133e+002, 1.546074e+006
2.314954e+002, 1.546356e+006
2.319776e+002, 1.547102e+006
2.324597e+002, 1.548369e+006
2.329418e+002, 1.549711e+006
2.334239e+002, 1.550934e+006
2.339060e+002, 1.552037e+006
2.343881e+002, 1.552993e+006
2.348703e+002, 1.553715e+006
2.353524e+002, 1.554348e+006
2.358345e+002, 1.555010e+006
2.363166e+002, 1.555638e+006
2.367987e+002, 1.556574e+006
2.372808e+002, 1.558343e+006
2.377630e+002, 1.560415e+006
2.382451e+002, 1.562243e+006
2.387272e+002, 1.563659e+006
2.392093e+002, 1.564753e+006
2.396914e+002, 1.565577e+006
2.401735e+002, 1.566023e+006
2.406557e+002, 1.566566e+006
2.411378e+002, 1.567433e+006
2.416199e+002, 1.568467e+006
2.421020e+002, 1.569537e+006
2.425841e+002, 1.570599e+006
2.430662e+002, 1.571686e+006
2.435484e+002, 1.572866e+006
2.440305e+002, 1.574181e+006
2.445126e+002, 1.575487e+006
2.449947e+002, 1.576818e+006
2.454768e+002, 1.578088e+006
2.459589e+002, 1.579170e+006
2.464410e+002, 1.580006e+006
2.469232e+002, 1.580785e+006
2.474053e+002, 1.581896e+006
2.478874e+002, 1.583554e+006
2.483695e+002, 1.585007e+006
2.488516e+002, 1.585867e+006
2.493337e+002, 1.586632e+006
2.498159e+002, 1.587753e+006
2.502980e+002, 1.589355e+006
2.507801e+002, 1.591087e+006
2.512622e+002, 1.592342e+006
2.517443e+002, 1.592842e+006
2.522264e+002, 1.593453e+006
2.527086e+002, 1.594148e+006
2.531907e+002, 1.595022e+006
2.536728e+002, 1.596265e+006
2.541549e+002, 1.597879e+006
2.546370e+002, 1.599553e+006
2.551191e+002, 1.600782e+006
2.556013e+002, 1.601249e+006
2.560834e+002, 1.601949e+006
2.565655e+002, 1.603007e+006
2.570476e+002, 1.604187e+006
2.575297e+002, 1.605315e+006
2.580118e+002, 1.606373e+006
2.584940e+002, 1.607495e+006
2.589761e+002, 1.608890e+006
2.594582e+002, 1.610740e+006
2.599403e+002, 1.612412e+006
2.604224e+002, 1.614072e+006
2.609045e+002, 1.615494e+006
2.613867e+002, 1.616340e+006
2.618688e+002, 1.616692e+006
2.623509e+002, 1.617063e+006
2.628330e+002, 1.618088e+006
2.633151e+002, 1.620053e+006
2.637972e+002, 1.621640e+006
2.642794e+002, 1.622557e+006
2.647615e+002, 1.623418e+006
2.652436e+002, 1.624592e+006
2.657257e+002, 1.626060e+006
2.662078e+002, 1.627539e+006
2.666899e+002, 1.628728e+006
2.671721e+002, 1.629537e+006
2.676542e+002, 1.630630e+006
2.681363e+002, 1.632291e+006
2.686184e+002, 1.633913e+006
2.691005e+002, 1.635201e+006
2.695826e+002, 1.636167e+006
2.700648e+002, 1.636962e+006
2.705469e+002, 1.637678e+006
2.710290e+002, 1.638302e+006
2.715111e+002, 1.639078e+006
2.719932e+002, 1.640088e+006
2.724753e+002, 1.641124e+006
2.729575e+002, 1.641941e+006
2.734396e+002, 1.642684e+006
2.739217e+002, 1.643826e+006
2.744038e+002, 1.645788e+006
2.748859e+002, 1.648445e+006
2.753680e+002, 1.650187e+006
2.758501e+002, 1.650459e+006
2.763322e+002, 1.650665e+006
2.768144e+002, 1.651228e+006
2.772965e+002, 1.652085e+006
2.777786e+002, 1.653068e+006
2.782607e+002, 1.654115e+006
2.787428e+002, 1.655184e+006
2.792249e+002, 1.656097e+006
2.797071e+002, 1.656451e+006
2.801892e+002, 1.657150e+006
2.806713e+002, 1.658927e+006
2.811534e+002, 1.661148e+006
2.816355e+002, 1.662563e+006
2.821176e+002, 1.662540e+006
2.825998e+002, 1.661719e+006
2.830819e+002, 1.661781e+006
2.835640e+002, 1.663226e+006
2.840461e+002, 1.664468e+006
2.845282e+002, 1.664979e+006
2.850103e+002, 1.665158e+006
2.854925e+002, 1.665577e+006
2.859746e+002, 1.666431e+006
2.864567e+002, 1.667566e+006
2.869388e+002, 1.668772e+006
2.874209e+002, 1.670082e+006
2.879030e+002, 1.671338e+006
2.883852e+002, 1.672511e+006
2.888673e+002, 1.673609e+006
2.893494e+002, 1.674573e+006
2.898315e+002, 1.675377e+006
2.903136e+002, 1.676219e+006
2.907957e+002, 1.677394e+006
2.912779e+002, 1.678948e+006
2.917600e+002, 1.680393e+006
2.922421e+002, 1.681718e+006
2.927242e+002, 1.682883e+006
2.932063e+002, 1.683743e+006
2.936884e+002, 1.684291e+006
2.941706e+002, 1.684871e+006
2.946527e+002, 1.685823e+006
2.951348e+002, 1.687162e+006
2.956169e+002, 1.688444e+006
2.960990e+002, 1.689673e+006
2.965811e+002, 1.690833e+006
2.970633e+002, 1.691950e+006
2.975454e+002, 1.693011e+006
2.980275e+002, 1.693905e+006
2.985096e+002, 1.694462e+006
2.989917e+002, 1.694778e+006
2.994738e+002, 1.695431e+006
2.999560e+002, 1.696562e+006
3.004381e+002, 1.697887e+006
3.009202e+002, 1.699345e+006
3.014023e+002, 1.700891e+006
3.018844e+002, 1.702382e+006
3.023665e+002, 1.703788e+006
3.028487e+002, 1.705041e+006
3.033308e+002, 1.705962e+006
3.038129e+002, 1.706254e+006
3.042950e+002, 1.706715e+006
3.047771e+002, 1.707793e+006
3.052592e+002, 1.709317e+006
3.057414e+002, 1.710881e+006
3.062235e+002, 1.712369e+006
3.067056e+002, 1.713757e+006
3.071877e+002, 1.714947e+006
3.076698e+002, 1.715879e+006
3.081519e+002, 1.716897e+006
3.086341e+002, 1.718232e+006
3.091162e+002, 1.719704e+006
3.095983e+002, 1.721009e+006
3.100804e+002, 1.722069e+006
3.105625e+002, 1.722929e+006
3.110446e+002, 1.723484e+006
3.115268e+002, 1.723699e+006
3.120089e+002, 1.724306e+006
3.124910e+002, 1.725789e+006
3.129731e+002, 1.727579e+006
3.134552e+002, 1.728965e+006
3.139373e+002, 1.729825e+006
3.144195e+002, 1.730623e+006
3.149016e+002, 1.731875e+006
3.153837e+002, 1.733526e+006
3.158658e+002, 1.734778e+006
3.163479e+002, 1.735162e+006
3.168300e+002, 1.735405e+006
3.173121e+002, 1.736161e+006
3.177943e+002, 1.737421e+006
3.182764e+002, 1.738681e+006
3.187585e+002, 1.739586e+006
3.192406e+002, 1.740220e+006
3.197227e+002, 1.741030e+006
3.202048e+002, 1.742186e+006
3.206870e+002, 1.743361e+006
3.211691e+002, 1.744448e+006
3.216512e+002, 1.745428e+006
3.221333e+002, 1.746203e+006
3.226154e+002, 1.746671e+006
3.230975e+002, 1.746974e+006
3.235797e+002, 1.747436e+006
3.240618e+002, 1.748049e+006
3.245439e+002, 1.748811e+006
3.250260e+002, 1.749811e+006
3.255081e+002, 1.750951e+006
3.259902e+002, 1.752029e+006
3.264724e+002, 1.752966e+006
3.269545e+002, 1.753895e+006
3.274366e+002, 1.755017e+006
3.279187e+002, 1.756310e+006
3.284008e+002, 1.757797e+006
3.288829e+002, 1.759737e+006
3.293651e+002, 1.761743e+006
3.298472e+002, 1.763266e+006
3.303293e+002, 1.764208e+006
3.308114e+002, 1.765078e+006
3.312935e+002, 1.766409e+006
3.317756e+002, 1.768238e+006
3.322578e+002, 1.769945e+006
3.327399e+002, 1.771523e+006
3.332220e+002, 1.772940e+006
3.337041e+002, 1.774134e+006
3.341862e+002, 1.775117e+006
3.346683e+002, 1.776003e+006
3.351505e+002, 1.776839e+006
3.356326e+002, 1.777646e+006
3.361147e+002, 1.778539e+006
3.365968e+002, 1.779781e+006
3.370789e+002, 1.780846e+006
3.375610e+002, 1.781303e+006
3.380432e+002, 1.781417e+006
3.385253e+002, 1.781865e+006
3.390074e+002, 1.783021e+006
3.394895e+002, 1.784574e+006
3.399716e+002, 1.785661e+006
3.404537e+002, 1.786052e+006
3.409359e+002, 1.786491e+006
3.414180e+002, 1.787050e+006
3.419001e+002, 1.787762e+006
3.423822e+002, 1.788757e+006
3.428643e+002, 1.790068e+006
3.433464e+002, 1.791412e+006
3.438286e+002, 1.792391e+006
3.443107e+002, 1.792865e+006
3.447928e+002, 1.793303e+006
3.452749e+002, 1.793431e+006
3.457570e+002, 1.793706e+006
3.462391e+002, 1.794607e+006
3.467213e+002, 1.796095e+006
3.472034e+002, 1.797667e+006
3.476855e+002, 1.798857e+006
3.481676e+002, 1.799648e+006
3.486497e+002, 1.800544e+006
3.491318e+002, 1.801751e+006
3.496140e+002, 1.802855e+006
3.500961e+002, 1.803519e+006
3.505782e+002, 1.803935e+006
3.510603e+002, 1.804579e+006
3.515424e+002, 1.805753e+006
3.520245e+002, 1.807306e+006
3.525067e+002, 1.808595e+006
3.529888e+002, 1.809112e+006
3.534709e+002, 1.809990e+006
3.539530e+002, 1.811482e+006
3.544351e+002, 1.813351e+006
3.549172e+002, 1.815477e+006
3.553994e+002, 1.817789e+006
3.558815e+002, 1.819956e+006
3.563636e+002, 1.821401e+006
3.568457e+002, 1.821561e+006
3.573278e+002, 1.822085e+006
3.578099e+002, 1.823022e+006
3.582920e+002, 1.824231e+006
3.587741e+002, 1.825788e+006
3.592563e+002, 1.827590e+006
3.597384e+002, 1.829240e+006
3.602205e+002, 1.830311e+006
3.607026e+002, 1.830707e+006
3.611847e+002, 1.831448e+006
3.616668e+002, 1.832898e+006
3.621490e+002, 1.834293e+006
3.626311e+002, 1.835349e+006
3.631132e+002, 1.836171e+006
3.635953e+002, 1.836960e+006
3.640774e+002, 1.837834e+006
3.645595e+002, 1.838787e+006
3.650417e+002, 1.839803e+006
3.655238e+002, 1.840909e+006
3.660059e+002, 1.842043e+006
3.664880e+002, 1.843020e+006
3.669701e+002, 1.844102e+006
3.674522e+002, 1.845785e+006
3.679344e+002, 1.848152e+006
3.684165e+002, 1.850459e+006
3.688986e+002, 1.851348e+006
3.693807e+002, 1.849974e+006
3.698628e+002, 1.849510e+006
3.703449e+002, 1.850971e+006
3.708271e+002, 1.852556e+006
3.713092e+002, 1.853290e+006
3.717913e+002, 1.853211e+006
3.722734e+002, 1.852975e+006
3.727555e+002, 1.853106e+006
3.732376e+002, 1.853605e+006
3.737198e+002, 1.854324e+006
3.742019e+002, 1.855434e+006
3.746840e+002, 1.856594e+006
3.751661e+002, 1.857834e+006
3.756482e+002, 1.859025e+006
3.761303e+002, 1.859920e+006
3.766125e+002, 1.860348e+006
3.770946e+002, 1.860549e+006
3.775767e+002, 1.860989e+006
3.780588e+002, 1.861573e+006
3.785409e+002, 1.862667e+006
3.790230e+002, 1.865008e+006
3.795052e+002, 1.867498e+006
3.799873e+002, 1.869154e+006
3.804694e+002, 1.869789e+006
3.809515e+002, 1.870267e+006
3.814336e+002, 1.871582e+006
3.819157e+002, 1.873707e+006
3.823979e+002, 1.875385e+006
3.828800e+002, 1.876074e+006
3.833621e+002, 1.876711e+006
3.838442e+002, 1.878055e+006
3.843263e+002, 1.879905e+006
3.848084e+002, 1.881587e+006
3.852906e+002, 1.882615e+006
3.857727e+002, 1.883225e+006
3.862548e+002, 1.883952e+006
3.867369e+002, 1.884824e+006
3.872190e+002, 1.885703e+006
3.877011e+002, 1.886436e+006
3.881833e+002, 1.887155e+006
3.886654e+002, 1.888088e+006
3.891475e+002, 1.889404e+006
3.896296e+002, 1.890726e+006
3.901117e+002, 1.891755e+006
3.905938e+002, 1.892512e+006
3.910760e+002, 1.893057e+006
3.915581e+002, 1.893285e+006
3.920402e+002, 1.893490e+006
3.925223e+002, 1.894107e+006
3.930044e+002, 1.895167e+006
3.934865e+002, 1.896254e+006
3.939687e+002, 1.897010e+006
3.944508e+002, 1.897762e+006
3.949329e+002, 1.899118e+006
3.954150e+002, 1.901224e+006
3.958971e+002, 1.903431e+006
3.963792e+002, 1.905164e+006
3.968614e+002, 1.906453e+006
3.973435e+002, 1.907852e+006
3.978256e+002, 1.909664e+006
3.983077e+002, 1.911343e+006
3.987898e+002, 1.912442e+006
3.992719e+002, 1.913072e+006
3.997540e+002, 1.913596e+006
4.002361e+002, 1.914107e+006
4.007183e+002, 1.914759e+006
4.012004e+002, 1.916099e+006
4.016825e+002, 1.918754e+006
4.021646e+002, 1.920883e+006
4.026467e+002, 1.921903e+006
4.031288e+002, 1.922358e+006
4.036110e+002, 1.922708e+006
4.040931e+002, 1.923103e+006
4.045752e+002, 1.923779e+006
4.050573e+002, 1.925092e+006
4.055394e+002, 1.927273e+006
4.060215e+002, 1.928919e+006
4.065037e+002, 1.929640e+006
4.069858e+002, 1.930279e+006
4.074679e+002, 1.931203e+006
4.079500e+002, 1.932393e+006
4.084321e+002, 1.933693e+006
4.089142e+002, 1.935016e+006
4.093964e+002, 1.936376e+006
4.098785e+002, 1.937873e+006
4.103606e+002, 1.939699e+006
4.108427e+002, 1.941393e+006
4.113248e+002, 1.942877e+006
4.118069e+002, 1.944223e+006
4.122891e+002, 1.945486e+006
4.127712e+002, 1.946683e+006
4.132533e+002, 1.947827e+006
4.137354e+002, 1.948947e+006
4.142175e+002, 1.950067e+006
4.146996e+002, 1.951069e+006
4.151818e+002, 1.951755e+006
4.156639e+002, 1.952504e+006
4.161460e+002, 1.953457e+006
4.166281e+002, 1.954600e+006
4.171102e+002, 1.955837e+006
4.175923e+002, 1.957102e+006
4.180745e+002, 1.958433e+006
4.185566e+002, 1.960018e+006
4.190387e+002, 1.962027e+006
4.195208e+002, 1.963903e+006
4.200029e+002, 1.965507e+006
4.204850e+002, 1.966889e+006
4.209672e+002, 1.968025e+006
4.214493e+002, 1.968902e+006
4.219314e+002, 1.969705e+006
4.224135e+002, 1.970689e+006
4.228956e+002, 1.971834e+006
4.233777e+002, 1.972712e+006
4.238599e+002, 1.973188e+006
4.243420e+002, 1.973478e+006
4.248241e+002, 1.973592e+006
4.253062e+002, 1.973639e+006
4.257883e+002, 1.974030e+006
4.262704e+002, 1.975082e+006
4.267526e+002, 1.976522e+006
4.272347e+002, 1.977880e+006
4.277168e+002, 1.979143e+006
4.281989e+002, 1.980796e+006
4.286810e+002, 1.983499e+006
4.291631e+002, 1.986549e+006
4.296453e+002, 1.988377e+006
4.301274e+002, 1.988464e+006
4.306095e+002, 1.988495e+006
4.310916e+002, 1.989246e+006
4.315737e+002, 1.990524e+006
4.320558e+002, 1.991963e+006
4.325380e+002, 1.993466e+006
4.330201e+002, 1.995090e+006
4.335022e+002, 1.996994e+006
4.339843e+002, 1.999235e+006
4.344664e+002, 2.001023e+006
4.349485e+002, 2.001905e+006
4.354307e+002, 2.002667e+006
4.359128e+002, 2.003866e+006
4.363949e+002, 2.005406e+006
4.368770e+002, 2.006874e+006
4.373591e+002, 2.008028e+006
4.378412e+002, 2.008933e+006
4.383234e+002, 2.009820e+006
4.388055e+002, 2.010550e+006
4.392876e+002, 2.011468e+006
4.397697e+002, 2.012423e+006
4.402518e+002, 2.013690e+006
4.407339e+002, 2.015924e+006
4.412160e+002, 2.019047e+006
4.416982e+002, 2.021882e+006
4.421803e+002, 2.022938e+006
4.426624e+002, 2.021904e+006
4.431445e+002, 2.021441e+006
4.436266e+002, 2.021811e+006
4.441087e+002, 2.022508e+006
4.445909e+002, 2.023588e+006
4.450730e+002, 2.024854e+006
4.455551e+002, 2.026042e+006
4.460372e+002, 2.027004e+006
4.465193e+002, 2.027819e+006
4.470014e+002, 2.028611e+006
4.474836e+002, 2.029282e+006
4.479657e+002, 2.030217e+006
4.484478e+002, 2.031820e+006
4.489299e+002, 2.033475e+006
4.494120e+002, 2.034675e+006
4.498941e+002, 2.035457e+006
4.503763e+002, 2.036401e+006
4.508584e+002, 2.038176e+006
4.513405e+002, 2.040522e+006
4.518226e+002, 2.042221e+006
4.523047e+002, 2.043009e+006
4.527868e+002, 2.043716e+006
4.532690e+002, 2.044744e+006
4.537511e+002, 2.046006e+006
4.542332e+002, 2.047450e+006
4.547153e+002, 2.049164e+006
4.551974e+002, 2.050839e+006
4.556795e+002, 2.052145e+006
4.561617e+002, 2.053170e+006
4.566438e+002, 2.054359e+006
4.571259e+002, 2.055907e+006
4.576080e+002, 2.057518e+006
4.580901e+002, 2.058827e+006
4.585722e+002, 2.059861e+006
4.590544e+002, 2.060708e+006
4.595365e+002, 2.061114e+006
4.600186e+002, 2.061554e+006
4.605007e+002, 2.062537e+006
4.609828e+002, 2.064005e+006
4.614649e+002, 2.065525e+006
4.619471e+002, 2.066913e+006
4.624292e+002, 2.068085e+006
4.629113e+002, 2.068680e+006
4.633934e+002, 2.067851e+006
4.638755e+002, 2.067594e+006
4.643576e+002, 2.068263e+006
4.648398e+002, 2.069528e+006
4.653219e+002, 2.071197e+006
4.658040e+002, 2.073155e+006
4.662861e+002, 2.075119e+006
4.667682e+002, 2.076770e+006
4.672503e+002, 2.078081e+006
4.677325e+002, 2.079348e+006
4.682146e+002, 2.080595e+006
4.686967e+002, 2.081744e+006
4.691788e+002, 2.082655e+006
4.696609e+002, 2.083475e+006
4.701430e+002, 2.084452e+006
4.706252e+002, 2.085708e+006
4.711073e+002, 2.087018e+006
4.715894e+002, 2.087982e+006
4.720715e+002, 2.088559e+006
4.725536e+002, 2.089001e+006
4.730357e+002, 2.089029e+006
4.735179e+002, 2.089229e+006
4.740000e+002, 2.090011e+006
4.744821e+002, 2.091298e+006
4.749642e+002, 2.092706e+006
4.754463e+002, 2.094088e+006
4.759284e+002, 2.095410e+006
4.764106e+002, 2.096636e+006
4.768927e+002, 2.097783e+006
4.773748e+002, 2.098677e+006
4.778569e+002, 2.098943e+006
4.783390e+002, 2.099064e+006
4.788211e+002, 2.099795e+006
4.793033e+002, 2.101254e+006
4.797854e+002, 2.102951e+006
4.802675e+002, 2.104848e+006
4.807496e+002, 2.106753e+006
4.812317e+002, 2.108283e+006
4.817138e+002, 2.109355e+006
4.821959e+002, 2.110256e+006
4.826780e+002, 2.111192e+006
4.831602e+002, 2.112170e+006
4.836423e+002, 2.113341e+006
4.841244e+002, 2.114918e+006
4.846065e+002, 2.116435e+006
4.850886e+002, 2.117835e+006
4.855707e+002, 2.119024e+006
4.860529e+002, 2.119704e+006
4.865350e+002, 2.119779e+006
4.870171e+002, 2.119760e+006
4.874992e+002, 2.120552e+006
4.879813e+002, 2.122698e+006
4.884634e+002, 2.124182e+006
4.889456e+002, 2.124600e+006
4.894277e+002, 2.124866e+006
4.899098e+002, 2.125409e+006
4.903919e+002, 2.126165e+006
4.908740e+002, 2.126885e+006
4.913561e+002, 2.127420e+006
4.918383e+002, 2.127832e+006
4.923204e+002, 2.128281e+006
4.928025e+002, 2.128756e+006
4.932846e+002, 2.129313e+006
4.937667e+002, 2.129819e+006
4.942488e+002, 2.130524e+006
4.947310e+002, 2.131762e+006
4.952131e+002, 2.133474e+006
4.956952e+002, 2.135097e+006
4.961773e+002, 2.136185e+006
4.966594e+002, 2.136879e+006
4.971415e+002, 2.137493e+006
4.976237e+002, 2.137980e+006
4.981058e+002, 2.138631e+006
4.985879e+002, 2.139782e+006
4.990700e+002, 2.141134e+006
4.995521e+002, 2.142078e+006
5.000342e+002, 2.142384e+006
5.005164e+002, 2.142770e+006
5.009985e+002, 2.143630e+006
5.014806e+002, 2.144804e+006
5.019627e+002, 2.146084e+006
5.024448e+002, 2.147427e+006
5.029269e+002, 2.148700e+006
5.034091e+002, 2.149752e+006
5.038912e+002, 2.150583e+006
5.043733e+002, 2.151499e+006
5.048554e+002, 2.152742e+006
5.053375e+002, 2.153800e+006
5.058196e+002, 2.154325e+006
5.063018e+002, 2.154604e+006
5.067839e+002, 2.155021e+006
5.072660e+002, 2.155723e+006
5.077481e+002, 2.156697e+006
5.082302e+002, 2.157932e+006
5.087123e+002, 2.159470e+006
5.091945e+002, 2.161113e+006
5.096766e+002, 2.163162e+006
5.101587e+002, 2.165001e+006
5.106408e+002, 2.166486e+006
5.111229e+002, 2.167576e+006
5.116050e+002, 2.168053e+006
5.120872e+002, 2.167614e+006
5.125693e+002, 2.167166e+006
5.130514e+002, 2.168689e+006
5.135335e+002, 2.172540e+006
5.140156e+002, 2.175655e+006
5.144977e+002, 2.177201e+006
5.149799e+002, 2.177944e+006
5.154620e+002, 2.178335e+006
5.159441e+002, 2.178460e+006
5.164262e+002, 2.178799e+006
5.169083e+002, 2.179469e+006
5.173904e+002, 2.180504e+006
5.178726e+002, 2.182265e+006
5.183547e+002, 2.184655e+006
5.188368e+002, 2.186425e+006
5.193189e+002, 2.186828e+006
5.198010e+002, 2.186439e+006
5.202831e+002, 2.186486e+006
5.207653e+002, 2.186921e+006
5.212474e+002, 2.187778e+006
5.217295e+002, 2.189683e+006
5.222116e+002, 2.191577e+006
5.226937e+002, 2.192287e+006
5.231758e+002, 2.191950e+006
5.236580e+002, 2.191639e+006
5.241401e+002, 2.192092e+006
5.246222e+002, 2.193253e+006
5.251043e+002, 2.194915e+006
5.255864e+002, 2.198126e+006
5.260685e+002, 2.200286e+006
5.265507e+002, 2.200472e+006
5.270328e+002, 2.200080e+006
5.275149e+002, 2.200248e+006
5.279970e+002, 2.201090e+006
5.284791e+002, 2.201997e+006
5.289612e+002, 2.202412e+006
5.294434e+002, 2.202426e+006
5.299255e+002, 2.202605e+006
5.304076e+002, 2.203028e+006
5.308897e+002, 2.203451e+006
5.313718e+002, 2.203634e+006
5.318539e+002, 2.203840e+006
5.323361e+002, 2.204411e+006
5.328182e+002, 2.205455e+006
5.333003e+002, 2.206502e+006
5.337824e+002, 2.207173e+006
5.342645e+002, 2.207650e+006
5.347466e+002, 2.208287e+006
5.352288e+002, 2.209123e+006
5.357109e+002, 2.210233e+006
5.361930e+002, 2.211848e+006
5.366751e+002, 2.213796e+006
5.371572e+002, 2.215019e+006
5.376393e+002, 2.214531e+006
5.381215e+002, 2.214585e+006
5.386036e+002, 2.216146e+006
5.390857e+002, 2.218444e+006
5.395678e+002, 2.220614e+006
5.400499e+002, 2.222433e+006
5.405320e+002, 2.224053e+006
5.410142e+002, 2.225638e+006
5.414963e+002, 2.227191e+006
5.419784e+002, 2.228399e+006
5.424604e+002, 2.228656e+006
5.429426e+002, 2.229266e+006
5.434247e+002, 2.230862e+006
5.439068e+002, 2.232754e+006
5.443889e+002, 2.234128e+006
5.448710e+002, 2.234775e+006
5.453531e+002, 2.235155e+006
5.458353e+002, 2.235619e+006
5.463174e+002, 2.236190e+006
5.467995e+002, 2.237189e+006
5.472816e+002, 2.238732e+006
5.477637e+002, 2.240482e+006
5.482458e+002, 2.242399e+006
5.487280e+002, 2.244348e+006
5.492101e+002, 2.246140e+006
5.496922e+002, 2.247796e+006
5.501743e+002, 2.249172e+006
5.506564e+002, 2.250157e+006
5.511385e+002, 2.250815e+006
5.516207e+002, 2.251200e+006
5.521028e+002, 2.251320e+006
5.525849e+002, 2.251450e+006
5.530670e+002, 2.251826e+006
5.535491e+002, 2.252458e+006
5.540313e+002, 2.253330e+006
5.545134e+002, 2.254652e+006
5.549955e+002, 2.255950e+006
5.554776e+002, 2.256968e+006
5.559597e+002, 2.257967e+006
5.564418e+002, 2.259319e+006
5.569240e+002, 2.261093e+006
5.574061e+002, 2.262962e+006
5.578882e+002, 2.264620e+006
5.583703e+002, 2.266060e+006
5.588524e+002, 2.266988e+006
5.593345e+002, 2.266708e+006
5.598167e+002, 2.266876e+006
5.602988e+002, 2.268392e+006
5.607809e+002, 2.270421e+006
5.612630e+002, 2.271871e+006
5.617451e+002, 2.272404e+006
5.622272e+002, 2.272917e+006
5.627094e+002, 2.274474e+006
5.631915e+002, 2.276653e+006
5.636736e+002, 2.277845e+006
5.641557e+002, 2.277642e+006
5.646378e+002, 2.277623e+006
5.651199e+002, 2.279144e+006
5.656021e+002, 2.281802e+006
5.660842e+002, 2.283683e+006
5.665663e+002, 2.284425e+006
5.670484e+002, 2.284949e+006
5.675305e+002, 2.285591e+006
5.680126e+002, 2.286203e+006
5.684948e+002, 2.286471e+006
5.689769e+002, 2.286414e+006
5.694590e+002, 2.286540e+006
5.699411e+002, 2.287368e+006
5.704232e+002, 2.288858e+006
5.709053e+002, 2.290083e+006
5.713875e+002, 2.291046e+006
5.718696e+002, 2.291725e+006
5.723517e+002, 2.291736e+006
5.728338e+002, 2.291716e+006
5.733159e+002, 2.292330e+006
5.737980e+002, 2.293637e+006
5.742802e+002, 2.295073e+006
5.747623e+002, 2.296140e+006
5.752444e+002, 2.296926e+006
5.757265e+002, 2.297734e+006
5.762086e+002, 2.298490e+006
5.766907e+002, 2.299595e+006
5.771729e+002, 2.301542e+006
5.776550e+002, 2.303767e+006
5.781371e+002, 2.305258e+006
5.786192e+002, 2.305780e+006
5.791013e+002, 2.306566e+006
5.795834e+002, 2.308376e+006
5.800656e+002, 2.310519e+006
5.805477e+002, 2.312167e+006
5.810298e+002, 2.313313e+006
5.815119e+002, 2.314432e+006
5.819940e+002, 2.315777e+006
5.824761e+002, 2.317403e+006
5.829583e+002, 2.319517e+006
5.834404e+002, 2.322471e+006
5.839225e+002, 2.325392e+006
5.844046e+002, 2.328911e+006
5.848867e+002, 2.331846e+006
5.853688e+002, 2.333080e+006
5.858510e+002, 2.332973e+006
5.863331e+002, 2.332779e+006
5.868152e+002, 2.333241e+006
5.872973e+002, 2.334165e+006
5.877794e+002, 2.335131e+006
5.882615e+002, 2.336125e+006
5.887437e+002, 2.337258e+006
5.892258e+002, 2.338748e+006
5.897079e+002, 2.340178e+006
5.901900e+002, 2.341268e+006
5.906721e+002, 2.342014e+006
5.911542e+002, 2.342289e+006
5.916364e+002, 2.341580e+006
5.921185e+002, 2.340806e+006
5.926006e+002, 2.340932e+006
5.930827e+002, 2.341674e+006
5.935648e+002, 2.342099e+006
5.940469e+002, 2.341862e+006
5.945291e+002, 2.341396e+006
5.950112e+002, 2.341240e+006
5.954933e+002, 2.341317e+006
5.959754e+002, 2.342186e+006
5.964575e+002, 2.344830e+006
5.969396e+002, 2.347088e+006
5.974218e+002, 2.347920e+006
5.979039e+002, 2.348012e+006
5.983860e+002, 2.348388e+006
5.988681e+002, 2.349393e+006
5.993502e+002, 2.350586e+006
5.998323e+002, 2.351276e+006
6.003145e+002, 2.351497e+006
6.007966e+002, 2.352416e+006
6.012787e+002, 2.354274e+006
6.017608e+002, 2.356366e+006
6.022429e+002, 2.358486e+006
6.027250e+002, 2.360496e+006
6.032072e+002, 2.362097e+006
6.036893e+002, 2.363147e+006
6.041714e+002, 2.364084e+006
6.046535e+002, 2.365263e+006
6.051356e+002, 2.366402e+006
6.056177e+002, 2.366836e+006
6.060999e+002, 2.366603e+006
6.065820e+002, 2.366819e+006
6.070641e+002, 2.368411e+006
6.075462e+002, 2.370962e+006
6.080283e+002, 2.372557e+006
6.085104e+002, 2.371941e+006
6.089926e+002, 2.372177e+006
6.094747e+002, 2.374254e+006
6.099568e+002, 2.376503e+006
6.104389e+002, 2.377606e+006
6.109210e+002, 2.377764e+006
6.114031e+002, 2.378121e+006
6.118853e+002, 2.379543e+006
6.123674e+002, 2.381383e+006
6.128495e+002, 2.382087e+006
6.133316e+002, 2.381524e+006
6.138137e+002, 2.381547e+006
6.142958e+002, 2.382975e+006
6.147780e+002, 2.384660e+006
6.152601e+002, 2.385144e+006
6.157422e+002, 2.384703e+006
6.162243e+002, 2.385117e+006
6.167064e+002, 2.387816e+006
6.171885e+002, 2.390404e+006
6.176707e+002, 2.390941e+006
6.181528e+002, 2.390313e+006
6.186349e+002, 2.390333e+006
6.191170e+002, 2.391537e+006
6.195991e+002, 2.393318e+006
6.200812e+002, 2.394998e+006
6.205634e+002, 2.396571e+006
6.210455e+002, 2.398128e+006
6.215276e+002, 2.399848e+006
6.220097e+002, 2.401315e+006
6.224918e+002, 2.402385e+006
6.229739e+002, 2.403199e+006
6.234561e+002, 2.403706e+006
6.239382e+002, 2.403965e+006
6.244203e+002, 2.404582e+006
6.249023e+002, 2.406559e+006
6.253845e+002, 2.409198e+006
6.258666e+002, 2.410385e+006
6.263487e+002, 2.409960e+006
6.268308e+002, 2.409634e+006
6.273129e+002, 2.410275e+006
6.277950e+002, 2.411390e+006
6.282772e+002, 2.411990e+006
6.287593e+002, 2.411922e+006
6.292414e+002, 2.412139e+006
6.297235e+002, 2.412922e+006
6.302056e+002, 2.413901e+006
6.306877e+002, 2.414858e+006
6.311699e+002, 2.415800e+006
6.316520e+002, 2.416853e+006
6.321341e+002, 2.418069e+006
6.326162e+002, 2.419276e+006
6.330983e+002, 2.420139e+006
6.335804e+002, 2.420576e+006
6.340626e+002, 2.421118e+006
6.345447e+002, 2.421740e+006
6.350268e+002, 2.422536e+006
6.355089e+002, 2.423545e+006
6.359910e+002, 2.424741e+006
6.364731e+002, 2.426140e+006
6.369553e+002, 2.427800e+006
6.374374e+002, 2.429395e+006
6.379195e+002, 2.430669e+006
6.384016e+002, 2.431710e+006
6.388837e+002, 2.432647e+006
6.393658e+002, 2.433492e+006
6.398480e+002, 2.434373e+006
6.403301e+002, 2.435398e+006
6.408122e+002, 2.436464e+006
6.412943e+002, 2.437246e+006
6.417764e+002, 2.436994e+006
6.422585e+002, 2.437556e+006
6.427407e+002, 2.439648e+006
6.432228e+002, 2.441892e+006
6.437049e+002, 2.443541e+006
6.441870e+002, 2.444600e+006
6.446691e+002, 2.445281e+006
6.451512e+002, 2.445645e+006
6.456334e+002, 2.445936e+006
6.461155e+002, 2.446602e+006
6.465976e+002, 2.447649e+006
6.470797e+002, 2.448621e+006
6.475618e+002, 2.449521e+006
6.480439e+002, 2.450221e+006
6.485261e+002, 2.450536e+006
6.490082e+002, 2.450576e+006
6.494903e+002, 2.450622e+006
6.499724e+002, 2.450352e+006
6.504545e+002, 2.450630e+006
6.509366e+002, 2.452228e+006
6.514188e+002, 2.454318e+006
6.519009e+002, 2.455943e+006
6.523830e+002, 2.456982e+006
6.528651e+002, 2.457711e+006
6.533472e+002, 2.458265e+006
6.538293e+002, 2.458793e+006
6.543115e+002, 2.459963e+006
6.547936e+002, 2.462155e+006
6.552757e+002, 2.464023e+006
6.557578e+002, 2.465320e+006
6.562399e+002, 2.466264e+006
6.567220e+002, 2.466854e+006
6.572042e+002, 2.467167e+006
6.576863e+002, 2.467361e+006
6.581684e+002, 2.467315e+006
6.586505e+002, 2.467468e+006
6.591326e+002, 2.468540e+006
6.596147e+002, 2.470138e+006
6.600969e+002, 2.471156e+006
6.605790e+002, 2.471349e+006
6.610611e+002, 2.471108e+006
6.615432e+002, 2.470637e+006
6.620253e+002, 2.470024e+006
6.625074e+002, 2.470152e+006
6.629896e+002, 2.472061e+006
6.634717e+002, 2.473365e+006
6.639538e+002, 2.473062e+006
6.644359e+002, 2.472717e+006
6.649180e+002, 2.473638e+006
6.654001e+002, 2.475742e+006
6.658823e+002, 2.478224e+006
6.663644e+002, 2.480892e+006
6.668465e+002, 2.483163e+006
6.673286e+002, 2.483712e+006
6.678107e+002, 2.482592e+006
6.682928e+002, 2.481587e+006
6.687750e+002, 2.480843e+006
6.692571e+002, 2.480908e+006
6.697392e+002, 2.482669e+006
6.702213e+002, 2.485924e+006
6.707034e+002, 2.488435e+006
6.711855e+002, 2.490009e+006
6.716677e+002, 2.491000e+006
6.721498e+002, 2.491157e+006
6.726319e+002, 2.490959e+006
6.731140e+002, 2.490759e+006
6.735961e+002, 2.490704e+006
6.740782e+002, 2.491068e+006
6.745604e+002, 2.492192e+006
6.750425e+002, 2.493677e+006
6.755246e+002, 2.494025e+006
6.760067e+002, 2.492836e+006
6.764888e+002, 2.492370e+006
6.769709e+002, 2.493525e+006
6.774531e+002, 2.495052e+006
6.779352e+002, 2.495890e+006
6.784173e+002, 2.496263e+006
6.788994e+002, 2.496962e+006
6.793815e+002, 2.498601e+006
6.798636e+002, 2.500077e+006
6.803458e+002, 2.500462e+006
6.808279e+002, 2.500382e+006
6.813100e+002, 2.500898e+006
6.817921e+002, 2.502141e+006
6.822742e+002, 2.503462e+006
6.827563e+002, 2.504318e+006
6.832385e+002, 2.504814e+006
6.837206e+002, 2.505462e+006
6.842027e+002, 2.506169e+006
6.846848e+002, 2.507180e+006
6.851669e+002, 2.509132e+006
6.856490e+002, 2.510825e+006
6.861312e+002, 2.511234e+006
6.866133e+002, 2.510773e+006
6.870954e+002, 2.510804e+006
6.875775e+002, 2.512182e+006
6.880596e+002, 2.513594e+006
6.885417e+002, 2.513396e+006
6.890239e+002, 2.512425e+006
6.895060e+002, 2.512800e+006
6.899881e+002, 2.514889e+006
6.904702e+002, 2.517323e+006
6.909523e+002, 2.519103e+006
6.914344e+002, 2.520303e+006
6.919166e+002, 2.521286e+006
6.923987e+002, 2.521635e+006
6.928808e+002, 2.522454e+006
6.933629e+002, 2.524120e+006
6.938450e+002, 2.525931e+006
6.943271e+002, 2.527645e+006
6.948093e+002, 2.529140e+006
6.952914e+002, 2.530189e+006
6.957735e+002, 2.530607e+006
6.962556e+002, 2.530789e+006
6.967377e+002, 2.531220e+006
6.972198e+002, 2.531776e+006
6.977020e+002, 2.531903e+006
6.981841e+002, 2.531466e+006
6.986662e+002, 2.531324e+006
6.991483e+002, 2.532217e+006
6.996304e+002, 2.533790e+006
7.001125e+002, 2.534669e+006
7.005947e+002, 2.534324e+006
7.010768e+002, 2.534112e+006
7.015589e+002, 2.533883e+006
7.020410e+002, 2.533986e+006
7.025231e+002, 2.534877e+006
7.030052e+002, 2.536257e+006
7.034874e+002, 2.537500e+006
7.039695e+002, 2.538338e+006
7.044516e+002, 2.539005e+006
7.049337e+002, 2.539649e+006
7.054158e+002, 2.540335e+006
7.058979e+002, 2.541445e+006
7.063801e+002, 2.543055e+006
7.068622e+002, 2.544731e+006
7.073442e+002, 2.546215e+006
7.078264e+002, 2.547580e+006
7.083085e+002, 2.549097e+006
7.087906e+002, 2.551078e+006
7.092727e+002, 2.552342e+006
7.097548e+002, 2.551963e+006
7.102369e+002, 2.551642e+006
7.107191e+002, 2.552735e+006
7.112012e+002, 2.554498e+006
7.116833e+002, 2.555271e+006
7.121654e+002, 2.554494e+006
7.126475e+002, 2.553736e+006
7.131296e+002, 2.555258e+006
7.136118e+002, 2.558527e+006
7.140939e+002, 2.560580e+006
7.145760e+002, 2.561245e+006
7.150581e+002, 2.561206e+006
7.155402e+002, 2.560222e+006
7.160223e+002, 2.559286e+006
7.165045e+002, 2.560323e+006
7.169866e+002, 2.563695e+006
7.174687e+002, 2.566654e+006
7.179508e+002, 2.569102e+006
7.184329e+002, 2.570946e+006
7.189150e+002, 2.571897e+006
7.193972e+002, 2.572304e+006
7.198793e+002, 2.572560e+006
7.203614e+002, 2.572805e+006
7.208435e+002, 2.573131e+006
7.213256e+002, 2.573576e+006
7.218077e+002, 2.574172e+006
7.222899e+002, 2.575101e+006
7.227720e+002, 2.576388e+006
7.232541e+002, 2.577791e+006
7.237362e+002, 2.579319e+006
7.242183e+002, 2.580791e+006
7.247004e+002, 2.581985e+006
7.251826e+002, 2.582918e+006
7.256647e+002, 2.583718e+006
7.261468e+002, 2.584365e+006
7.266289e+002, 2.584949e+006
7.271110e+002, 2.585360e+006
7.275931e+002, 2.585834e+006
7.280753e+002, 2.586564e+006
7.285574e+002, 2.587621e+006
7.290395e+002, 2.589151e+006
7.295216e+002, 2.591450e+006
7.300037e+002, 2.593954e+006
7.304858e+002, 2.595151e+006
7.309680e+002, 2.594976e+006
7.314501e+002, 2.595274e+006
7.319322e+002, 2.596449e+006
7.324143e+002, 2.598052e+006
7.328964e+002, 2.600079e+006
7.333785e+002, 2.602255e+006
7.338607e+002, 2.603296e+006
7.343428e+002, 2.602093e+006
7.348249e+002, 2.601445e+006
7.353070e+002, 2.602299e+006
7.357891e+002, 2.603603e+006
7.362712e+002, 2.604447e+006
7.367534e+002, 2.604962e+006
7.372355e+002, 2.605945e+006
7.377176e+002, 2.607868e+006
7.381997e+002, 2.609727e+006
7.386818e+002, 2.609605e+006
7.391639e+002, 2.607798e+006
7.396461e+002, 2.607336e+006
7.401282e+002, 2.608698e+006
7.406103e+002, 2.610320e+006
7.410924e+002, 2.611310e+006
7.415745e+002, 2.612033e+006
7.420566e+002, 2.613451e+006
7.425388e+002, 2.616039e+006
7.430209e+002, 2.617670e+006
7.435030e+002, 2.617816e+006
7.439851e+002, 2.617342e+006
7.444672e+002, 2.616083e+006
7.449493e+002, 2.614745e+006
7.454315e+002, 2.614223e+006
7.459136e+002, 2.614797e+006
7.463957e+002, 2.616330e+006
7.468778e+002, 2.619334e+006
7.473599e+002, 2.623081e+006
7.478420e+002, 2.625173e+006
7.483242e+002, 2.625574e+006
7.488063e+002, 2.625657e+006
7.492884e+002, 2.625755e+006
7.497705e+002, 2.625985e+006
7.502526e+002, 2.626477e+006
7.507347e+002, 2.627233e+006
7.512169e+002, 2.628198e+006
7.516990e+002, 2.629982e+006
7.521811e+002, 2.631159e+006
7.526632e+002, 2.630858e+006
7.531453e+002, 2.630231e+006
7.536274e+002, 2.630241e+006
7.541096e+002, 2.630958e+006
7.545917e+002, 2.632034e+006
7.550738e+002, 2.633354e+006
7.555559e+002, 2.634797e+006
7.560380e+002, 2.636428e+006
7.565201e+002, 2.638083e+006
7.570023e+002, 2.638894e+006
7.574844e+002, 2.638687e+006
7.579665e+002, 2.638175e+006
7.584486e+002, 2.637667e+006
7.589307e+002, 2.637425e+006
7.594128e+002, 2.638379e+006
7.598950e+002, 2.641614e+006
7.603771e+002, 2.644065e+006
7.608592e+002, 2.645435e+006
7.613413e+002, 2.646366e+006
7.618234e+002, 2.646966e+006
7.623055e+002, 2.647388e+006
7.627877e+002, 2.647795e+006
7.632698e+002, 2.648224e+006
7.637519e+002, 2.648769e+006
7.642340e+002, 2.649543e+006
7.647161e+002, 2.650454e+006
7.651982e+002, 2.651491e+006
7.656804e+002, 2.652575e+006
7.661625e+002, 2.653216e+006
7.666446e+002, 2.653204e+006
7.671267e+002, 2.653016e+006
7.676088e+002, 2.653249e+006
7.680909e+002, 2.653907e+006
7.685731e+002, 2.654858e+006
7.690552e+002, 2.656201e+006
7.695373e+002, 2.657677e+006
7.700194e+002, 2.659159e+006
7.705015e+002, 2.660787e+006
7.709836e+002, 2.662996e+006
7.714658e+002, 2.665534e+006
7.719479e+002, 2.667185e+006
7.724300e+002, 2.666784e+006
7.729121e+002, 2.666375e+006
7.733942e+002, 2.668050e+006
7.738763e+002, 2.670353e+006
7.743585e+002, 2.670664e+006
7.748406e+002, 2.668965e+006
7.753227e+002, 2.667423e+006
7.758048e+002, 2.667472e+006
7.762869e+002, 2.668569e+006
7.767690e+002, 2.669424e+006
7.772512e+002, 2.669993e+006
7.777333e+002, 2.670769e+006
7.782154e+002, 2.671927e+006
7.786975e+002, 2.673057e+006
7.791796e+002, 2.673988e+006
7.796617e+002, 2.674725e+006
7.801439e+002, 2.675017e+006
7.806260e+002, 2.674514e+006
7.811081e+002, 2.675239e+006
7.815902e+002, 2.679005e+006
7.820723e+002, 2.682783e+006
7.825544e+002, 2.684388e+006
7.830366e+002, 2.684726e+006
7.835187e+002, 2.685329e+006
7.840008e+002, 2.686640e+006
7.844829e+002, 2.688334e+006
7.849650e+002, 2.690153e+006
7.854471e+002, 2.692100e+006
7.859293e+002, 2.694427e+006
7.864114e+002, 2.697140e+006
7.868935e+002, 2.698813e+006
7.873756e+002, 2.698828e+006
7.878577e+002, 2.698533e+006
7.883398e+002, 2.699227e+006
7.888220e+002, 2.700757e+006
7.893040e+002, 2.701731e+006
7.897861e+002, 2.701680e+006
7.902682e+002, 2.701815e+006
7.907504e+002, 2.702105e+006
7.912325e+002, 2.702735e+006
7.917146e+002, 2.703917e+006
7.921967e+002, 2.705518e+006
7.926788e+002, 2.707290e+006
7.931609e+002, 2.709142e+006
7.936431e+002, 2.711088e+006
7.941252e+002, 2.713645e+006
7.946073e+002, 2.716087e+006
7.950894e+002, 2.716706e+006
7.955715e+002, 2.715676e+006
7.960536e+002, 2.714728e+006
7.965358e+002, 2.714558e+006
7.970179e+002, 2.714874e+006
7.975000e+002, 2.715333e+006
7.979821e+002, 2.715937e+006
7.984642e+002, 2.716396e+006
7.989464e+002, 2.716528e+006
7.994285e+002, 2.716833e+006
7.999106e+002, 2.717857e+006
8.003927e+002, 2.718769e+006
8.008748e+002, 2.718681e+006
8.013569e+002, 2.717853e+006
8.018391e+002, 2.717604e+006
8.023212e+002, 2.718764e+006
8.028033e+002, 2.719893e+006
8.032854e+002, 2.719192e+006
8.037675e+002, 2.718739e+006
8.042496e+002, 2.721832e+006
8.047318e+002, 2.727708e+006
8.052139e+002, 2.732823e+006
8.056960e+002, 2.735234e+006
8.061781e+002, 2.735959e+006
8.066602e+002, 2.736342e+006
8.071423e+002, 2.736414e+006
8.076245e+002, 2.736566e+006
8.081066e+002, 2.736847e+006
8.085887e+002, 2.737002e+006
8.090708e+002, 2.736776e+006
8.095529e+002, 2.736557e+006
8.100350e+002, 2.737045e+006
8.105172e+002, 2.738439e+006
8.109993e+002, 2.739187e+006
8.114814e+002, 2.738822e+006
8.119635e+002, 2.738418e+006
8.124456e+002, 2.737820e+006
8.129277e+002, 2.737639e+006
8.134099e+002, 2.738587e+006
8.138920e+002, 2.740546e+006
8.143741e+002, 2.742819e+006
8.148562e+002, 2.745259e+006
8.153383e+002, 2.747454e+006
8.158204e+002, 2.748940e+006
8.163026e+002, 2.749833e+006
8.167847e+002, 2.750045e+006
8.172668e+002, 2.749730e+006
8.177489e+002, 2.750198e+006
8.182310e+002, 2.752279e+006
8.187131e+002, 2.755021e+006
8.191953e+002, 2.756506e+006
8.196774e+002, 2.756460e+006
8.201595e+002, 2.756772e+006
8.206416e+002, 2.757365e+006
8.211237e+002, 2.758446e+006
8.216058e+002, 2.760443e+006
8.220880e+002, 2.762708e+006
8.225701e+002, 2.764533e+006
8.230522e+002, 2.765921e+006
8.235343e+002, 2.767225e+006
8.240164e+002, 2.768688e+006
8.244985e+002, 2.769868e+006
8.249807e+002, 2.770052e+006
8.254628e+002, 2.770205e+006
8.259449e+002, 2.771580e+006
8.264270e+002, 2.774038e+006
8.269091e+002, 2.776587e+006
8.273912e+002, 2.778779e+006
8.278734e+002, 2.780372e+006
8.283555e+002, 2.780649e+006
8.288376e+002, 2.780001e+006
8.293197e+002, 2.780197e+006
8.298018e+002, 2.781396e+006
8.302839e+002, 2.782409e+006
8.307661e+002, 2.782626e+006
8.312482e+002, 2.782393e+006
8.317303e+002, 2.782206e+006
8.322124e+002, 2.781995e+006
8.326945e+002, 2.782349e+006
8.331766e+002, 2.783770e+006
8.336588e+002, 2.785021e+006
8.341409e+002, 2.785719e+006
8.346230e+002, 2.786218e+006
8.351051e+002, 2.786832e+006
8.355872e+002, 2.787526e+006
8.360693e+002, 2.788046e+006
8.365515e+002, 2.788109e+006
8.370336e+002, 2.788319e+006
8.375157e+002, 2.788958e+006
8.379978e+002, 2.789966e+006
8.384799e+002, 2.791588e+006
8.389620e+002, 2.793531e+006
8.394442e+002, 2.794940e+006
8.399263e+002, 2.795411e+006
8.404084e+002, 2.795411e+006
8.408905e+002, 2.795472e+006
8.413726e+002, 2.795605e+006
8.418547e+002, 2.795876e+006
8.423369e+002, 2.796303e+006
8.428190e+002, 2.796637e+006
8.433011e+002, 2.796762e+006
8.437832e+002, 2.796812e+006
8.442653e+002, 2.796818e+006
8.447474e+002, 2.796793e+006
8.452296e+002, 2.797605e+006
8.457117e+002, 2.800508e+006
8.461938e+002, 2.802353e+006
8.466759e+002, 2.801861e+006
8.471580e+002, 2.801195e+006
8.476401e+002, 2.801716e+006
8.481223e+002, 2.803105e+006
8.486044e+002, 2.804504e+006
8.490865e+002, 2.805716e+006
8.495686e+002, 2.806853e+006
8.500507e+002, 2.808143e+006
8.505328e+002, 2.809278e+006
8.510150e+002, 2.809783e+006
8.514971e+002, 2.809920e+006
8.519792e+002, 2.810385e+006
8.524613e+002, 2.811353e+006
8.529434e+002, 2.812257e+006
8.534255e+002, 2.812370e+006
8.539077e+002, 2.812135e+006
8.543898e+002, 2.813174e+006
8.548719e+002, 2.815485e+006
8.553540e+002, 2.817047e+006
8.558361e+002, 2.817292e+006
8.563182e+002, 2.817396e+006
8.568004e+002, 2.818237e+006
8.572825e+002, 2.819576e+006
8.577646e+002, 2.820730e+006
8.582467e+002, 2.822064e+006
8.587288e+002, 2.822356e+006
8.592109e+002, 2.819990e+006
8.596931e+002, 2.818484e+006
8.601752e+002, 2.819613e+006
8.606573e+002, 2.821972e+006
8.611394e+002, 2.824067e+006
8.616215e+002, 2.825689e+006
8.621036e+002, 2.826813e+006
8.625858e+002, 2.827089e+006
8.630679e+002, 2.827278e+006
8.635500e+002, 2.827967e+006
8.640321e+002, 2.828880e+006
8.645142e+002, 2.829714e+006
8.649963e+002, 2.830376e+006
8.654785e+002, 2.830748e+006
8.659606e+002, 2.830748e+006
8.664427e+002, 2.830488e+006
8.669248e+002, 2.829882e+006
8.674069e+002, 2.829101e+006
8.678890e+002, 2.829171e+006
8.683712e+002, 2.830159e+006
8.688533e+002, 2.831491e+006
8.693354e+002, 2.833084e+006
8.698175e+002, 2.834344e+006
8.702996e+002, 2.834292e+006
8.707817e+002, 2.832903e+006
8.712639e+002, 2.832643e+006
8.717459e+002, 2.834375e+006
8.722280e+002, 2.835707e+006
8.727101e+002, 2.835814e+006
8.731923e+002, 2.835822e+006
8.736744e+002, 2.836618e+006
8.741565e+002, 2.837811e+006
8.746386e+002, 2.838328e+006
8.751207e+002, 2.837657e+006
8.756028e+002, 2.837370e+006
8.760850e+002, 2.838400e+006
8.765671e+002, 2.839637e+006
8.770492e+002, 2.840287e+006
8.775313e+002, 2.840543e+006
8.780134e+002, 2.840747e+006
8.784955e+002, 2.841023e+006
8.789777e+002, 2.841491e+006
8.794598e+002, 2.842363e+006
8.799419e+002, 2.843350e+006
8.804240e+002, 2.843736e+006
8.809061e+002, 2.843819e+006
8.813882e+002, 2.844918e+006
8.818704e+002, 2.847169e+006
8.823525e+002, 2.849100e+006
8.828346e+002, 2.849732e+006
8.833167e+002, 2.849674e+006
8.837988e+002, 2.850244e+006
8.842809e+002, 2.851580e+006
8.847631e+002, 2.852455e+006
8.852452e+002, 2.852669e+006
8.857273e+002, 2.852877e+006
8.862094e+002, 2.853096e+006
8.866915e+002, 2.853615e+006
8.871736e+002, 2.854997e+006
8.876558e+002, 2.857145e+006
8.881379e+002, 2.858714e+006
8.886200e+002, 2.859154e+006
8.891021e+002, 2.859720e+006
8.895842e+002, 2.860888e+006
8.900663e+002, 2.862007e+006
8.905485e+002, 2.862568e+006
8.910306e+002, 2.862762e+006
8.915127e+002, 2.863083e+006
8.919948e+002, 2.863690e+006
8.924769e+002, 2.864035e+006
8.929590e+002, 2.863163e+006
8.934412e+002, 2.862379e+006
8.939233e+002, 2.863713e+006
8.944054e+002, 2.866054e+006
8.948875e+002, 2.866820e+006
8.953696e+002, 2.865653e+006
8.958517e+002, 2.864220e+006
8.963339e+002, 2.863658e+006
8.968160e+002, 2.863933e+006
8.972981e+002, 2.865217e+006
8.977802e+002, 2.867390e+006
8.982623e+002, 2.869454e+006
8.987444e+002, 2.871342e+006
8.992266e+002, 2.872638e+006
8.997087e+002, 2.873039e+006
9.001908e+002, 2.873012e+006
9.006729e+002, 2.873231e+006
9.011550e+002, 2.873691e+006
9.016371e+002, 2.874199e+006
9.021193e+002, 2.874836e+006
9.026014e+002, 2.875344e+006
9.030835e+002, 2.875782e+006
9.035656e+002, 2.875963e+006
9.040477e+002, 2.875316e+006
9.045298e+002, 2.874377e+006
9.050120e+002, 2.874668e+006
9.054941e+002, 2.876982e+006
9.059762e+002, 2.878762e+006
9.064583e+002, 2.878885e+006
9.069404e+002, 2.878874e+006
9.074225e+002, 2.880163e+006
9.079047e+002, 2.881627e+006
9.083868e+002, 2.881150e+006
9.088689e+002, 2.878821e+006
9.093510e+002, 2.877441e+006
9.098331e+002, 2.879107e+006
9.103152e+002, 2.881712e+006
9.107974e+002, 2.883261e+006
9.112795e+002, 2.884150e+006
9.117616e+002, 2.884984e+006
9.122437e+002, 2.885864e+006
9.127258e+002, 2.886890e+006
9.132079e+002, 2.888099e+006
9.136901e+002, 2.889161e+006
9.141722e+002, 2.889477e+006
9.146543e+002, 2.889227e+006
9.151364e+002, 2.889588e+006
9.156185e+002, 2.890569e+006
9.161006e+002, 2.891668e+006
9.165828e+002, 2.892848e+006
9.170649e+002, 2.893671e+006
9.175470e+002, 2.893627e+006
9.180291e+002, 2.893087e+006
9.185112e+002, 2.893443e+006
9.189933e+002, 2.895250e+006
9.194755e+002, 2.896598e+006
9.199576e+002, 2.897352e+006
9.204397e+002, 2.897896e+006
9.209218e+002, 2.898496e+006
9.214039e+002, 2.898921e+006
9.218860e+002, 2.898771e+006
9.223682e+002, 2.898091e+006
9.228503e+002, 2.897692e+006
9.233324e+002, 2.897862e+006
9.238145e+002, 2.898095e+006
9.242966e+002, 2.897942e+006
9.247787e+002, 2.898070e+006
9.252609e+002, 2.899016e+006
9.257430e+002, 2.900638e+006
9.262251e+002, 2.902763e+006
9.267072e+002, 2.905356e+006
9.271893e+002, 2.907450e+006
9.276714e+002, 2.907787e+006
9.281536e+002, 2.907828e+006
9.286357e+002, 2.909492e+006
9.291178e+002, 2.911817e+006
9.295999e+002, 2.912612e+006
9.300820e+002, 2.911815e+006
9.305641e+002, 2.911417e+006
9.310463e+002, 2.912763e+006
9.315284e+002, 2.914742e+006
9.320105e+002, 2.915598e+006
9.324926e+002, 2.915583e+006
9.329747e+002, 2.915804e+006
9.334568e+002, 2.916293e+006
9.339390e+002, 2.916131e+006
9.344211e+002, 2.914914e+006
9.349032e+002, 2.913767e+006
9.353853e+002, 2.913977e+006
9.358674e+002, 2.915304e+006
9.363495e+002, 2.916165e+006
9.368317e+002, 2.916271e+006
9.373138e+002, 2.917376e+006
9.377959e+002, 2.920325e+006
9.382780e+002, 2.922827e+006
9.387601e+002, 2.923370e+006
9.392422e+002, 2.922889e+006
9.397244e+002, 2.923009e+006
9.402065e+002, 2.923767e+006
9.406886e+002, 2.924756e+006
9.411707e+002, 2.926494e+006
9.416528e+002, 2.927694e+006
9.421349e+002, 2.927481e+006
9.426171e+002, 2.927186e+006
9.430992e+002, 2.928159e+006
9.435813e+002, 2.929790e+006
9.440634e+002, 2.930237e+006
9.445455e+002, 2.928669e+006
9.450276e+002, 2.927804e+006
9.455098e+002, 2.929226e+006
9.459919e+002, 2.931044e+006
9.464740e+002, 2.932195e+006
9.469561e+002, 2.932886e+006
9.474382e+002, 2.933376e+006
9.479203e+002, 2.933787e+006
9.484025e+002, 2.934309e+006
9.488846e+002, 2.935078e+006
9.493667e+002, 2.935913e+006
9.498488e+002, 2.937045e+006
9.503309e+002, 2.937886e+006
9.508130e+002, 2.936855e+006
9.512952e+002, 2.934672e+006
9.517773e+002, 2.934046e+006
9.522594e+002, 2.935784e+006
9.527415e+002, 2.937958e+006
9.532236e+002, 2.938695e+006
9.537057e+002, 2.938586e+006
9.541878e+002, 2.939153e+006
9.546699e+002, 2.940257e+006
9.551520e+002, 2.940998e+006
9.556342e+002, 2.941259e+006
9.561163e+002, 2.941171e+006
9.565984e+002, 2.940775e+006
9.570805e+002, 2.940256e+006
9.575626e+002, 2.939739e+006
9.580447e+002, 2.939261e+006
9.585269e+002, 2.940621e+006
9.590090e+002, 2.944644e+006
9.594911e+002, 2.946925e+006
9.599732e+002, 2.945964e+006
9.604553e+002, 2.944325e+006
9.609374e+002, 2.943740e+006
9.614196e+002, 2.943991e+006
9.619017e+002, 2.944515e+006
9.623838e+002, 2.945356e+006
9.628659e+002, 2.946238e+006
9.633480e+002, 2.947185e+006
9.638301e+002, 2.948071e+006
9.643123e+002, 2.948929e+006
9.647944e+002, 2.949610e+006
9.652765e+002, 2.949892e+006
9.657586e+002, 2.949853e+006
9.662407e+002, 2.949919e+006
9.667228e+002, 2.950373e+006
9.672050e+002, 2.950450e+006
9.676871e+002, 2.949542e+006
9.681692e+002, 2.948711e+006
9.686513e+002, 2.948527e+006
9.691334e+002, 2.948848e+006
9.696155e+002, 2.949674e+006
9.700977e+002, 2.950881e+006
9.705798e+002, 2.951714e+006
9.710619e+002, 2.951553e+006
9.715440e+002, 2.951461e+006
9.720261e+002, 2.952531e+006
9.725082e+002, 2.953704e+006
9.729904e+002, 2.953734e+006
9.734725e+002, 2.952935e+006
9.739546e+002, 2.952208e+006
9.744367e+002, 2.951815e+006
9.749188e+002, 2.951370e+006
9.754009e+002, 2.950025e+006
9.758831e+002, 2.949024e+006
9.763652e+002, 2.950721e+006
9.768473e+002, 2.953786e+006
9.773294e+002, 2.955254e+006
9.778115e+002, 2.955043e+006
9.782936e+002, 2.954829e+006
9.787758e+002, 2.955410e+006
9.792579e+002, 2.956380e+006
9.797400e+002, 2.957302e+006
9.802221e+002, 2.958203e+006
9.807042e+002, 2.959143e+006
9.811863e+002, 2.960136e+006
9.816685e+002, 2.961339e+006
9.821506e+002, 2.962795e+006
9.826327e+002, 2.963871e+006
9.831148e+002, 2.964165e+006
9.835969e+002, 2.963842e+006
9.840790e+002, 2.963043e+006
9.845612e+002, 2.961775e+006
9.850433e+002, 2.960971e+006
9.855254e+002, 2.960515e+006
9.860075e+002, 2.961433e+006
9.864896e+002, 2.964389e+006
9.869717e+002, 2.967490e+006
9.874539e+002, 2.969239e+006
9.879360e+002, 2.969896e+006
9.884181e+002, 2.970271e+006
9.889002e+002, 2.970287e+006
9.893823e+002, 2.970200e+006
9.898644e+002, 2.969797e+006
9.903466e+002, 2.969672e+006
9.908287e+002, 2.970089e+006
9.913108e+002, 2.970782e+006
9.917929e+002, 2.971531e+006
9.922750e+002, 2.972351e+006
9.927571e+002, 2.973341e+006
9.932393e+002, 2.975210e+006
9.937214e+002, 2.976023e+006
9.942035e+002, 2.974570e+006
9.946856e+002, 2.973525e+006
9.951677e+002, 2.974329e+006
9.956498e+002, 2.975788e+006
9.961320e+002, 2.976398e+006
9.966141e+002, 2.976301e+006
9.970962e+002, 2.977123e+006
9.975783e+002, 2.980182e+006
9.980604e+002, 2.982441e+006
9.985425e+002, 2.982339e+006
9.990247e+002, 2.981993e+006
9.995068e+002, 2.982814e+006
9.999889e+002, 2.984146e+006
1.000471e+003, 2.984942e+006
1.000953e+003, 2.985081e+006
1.001435e+003, 2.985140e+006
1.001917e+003, 2.985185e+006
1.002399e+003, 2.985441e+006
1.002882e+003, 2.986233e+006
1.003364e+003, 2.987123e+006
1.003846e+003, 2.987688e+006
1.004328e+003, 2.988048e+006
1.004810e+003, 2.988561e+006
1.005292e+003, 2.989293e+006
1.005774e+003, 2.989866e+006
1.006256e+003, 2.989901e+006
1.006739e+003, 2.989909e+006
1.007221e+003, 2.990585e+006
1.007703e+003, 2.991418e+006
1.008185e+003, 2.991587e+006
1.008667e+003, 2.991243e+006
1.009149e+003, 2.990973e+006
1.009631e+003, 2.990998e+006
1.010113e+003, 2.991279e+006
1.010595e+003, 2.991946e+006
1.011078e+003, 2.992647e+006
1.011560e+003, 2.992576e+006
1.012042e+003, 2.992190e+006
1.012524e+003, 2.992712e+006
1.013006e+003, 2.994079e+006
1.013488e+003, 2.995356e+006
1.013970e+003, 2.996120e+006
1.014452e+003, 2.996467e+006
1.014935e+003, 2.996297e+006
1.015417e+003, 2.995954e+006
1.015899e+003, 2.996456e+006
1.016381e+003, 2.997609e+006
1.016863e+003, 2.998348e+006
1.017345e+003, 2.998599e+006
1.017827e+003, 2.999496e+006
1.018309e+003, 3.001671e+006
1.018791e+003, 3.004113e+006
1.019274e+003, 3.005445e+006
1.019756e+003, 3.005851e+006
1.020238e+003, 3.006281e+006
1.020720e+003, 3.006721e+006
1.021202e+003, 3.006183e+006
1.021684e+003, 3.004445e+006
1.022166e+003, 3.002796e+006
1.022648e+003, 3.001889e+006
1.023130e+003, 3.001934e+006
1.023613e+003, 3.003486e+006
1.024095e+003, 3.006411e+006
1.024577e+003, 3.008611e+006
1.025059e+003, 3.010014e+006
1.025541e+003, 3.011004e+006
1.026023e+003, 3.011605e+006
1.026505e+003, 3.011839e+006
1.026987e+003, 3.011597e+006
1.027469e+003, 3.011225e+006
1.027952e+003, 3.011419e+006
1.028434e+003, 3.012198e+006
1.028916e+003, 3.012919e+006
1.029398e+003, 3.013781e+006
1.029880e+003, 3.013814e+006
1.030362e+003, 3.012554e+006
1.030844e+003, 3.011116e+006
1.031326e+003, 3.010073e+006
1.031809e+003, 3.009546e+006
1.032291e+003, 3.009856e+006
1.032773e+003, 3.011170e+006
1.033255e+003, 3.012116e+006
1.033737e+003, 3.012186e+006
1.034219e+003, 3.013216e+006
1.034701e+003, 3.016672e+006
1.035183e+003, 3.019474e+006
1.035666e+003, 3.019038e+006
1.036148e+003, 3.016882e+006
1.036630e+003, 3.016242e+006
1.037112e+003, 3.017469e+006
1.037594e+003, 3.018104e+006
1.038076e+003, 3.016957e+006
1.038558e+003, 3.017058e+006
1.039040e+003, 3.020098e+006
1.039522e+003, 3.023164e+006
1.040005e+003, 3.024230e+006
1.040487e+003, 3.024018e+006
1.040969e+003, 3.024087e+006
1.041451e+003, 3.024558e+006
1.041933e+003, 3.024596e+006
1.042415e+003, 3.023333e+006
1.042897e+003, 3.022841e+006
1.043379e+003, 3.024760e+006
1.043861e+003, 3.026359e+006
1.044344e+003, 3.025218e+006
1.044826e+003, 3.022775e+006
1.045308e+003, 3.021953e+006
1.045790e+003, 3.023213e+006
1.046272e+003, 3.024349e+006
1.046754e+003, 3.025244e+006
1.047236e+003, 3.025893e+006
1.047718e+003, 3.025676e+006
1.048201e+003, 3.025841e+006
1.048683e+003, 3.027747e+006
1.049165e+003, 3.030452e+006
1.049647e+003, 3.032190e+006
1.050129e+003, 3.032690e+006
1.050611e+003, 3.032786e+006
1.051093e+003, 3.031607e+006
1.051575e+003, 3.031364e+006
1.052057e+003, 3.033974e+006
1.052540e+003, 3.036468e+006
1.053022e+003, 3.035992e+006
1.053504e+003, 3.034091e+006
1.053986e+003, 3.033838e+006
1.054468e+003, 3.035695e+006
1.054950e+003, 3.037511e+006
1.055432e+003, 3.039274e+006
1.055914e+003, 3.040161e+006
1.056396e+003, 3.039173e+006
1.056879e+003, 3.037929e+006
1.057361e+003, 3.037174e+006
1.057843e+003, 3.037254e+006
1.058325e+003, 3.039221e+006
1.058807e+003, 3.043133e+006
1.059289e+003, 3.045259e+006
1.059771e+003, 3.042635e+006
1.060253e+003, 3.040413e+006
1.060736e+003, 3.040951e+006
1.061218e+003, 3.042233e+006
1.061700e+003, 3.043018e+006
1.062182e+003, 3.043321e+006
1.062664e+003, 3.043154e+006
1.063146e+003, 3.042613e+006
1.063628e+003, 3.042625e+006
1.064110e+003, 3.043987e+006
1.064593e+003, 3.045313e+006
1.065075e+003, 3.046684e+006
1.065557e+003, 3.047168e+006
1.066039e+003, 3.044898e+006
1.066521e+003, 3.041845e+006
1.067003e+003, 3.041248e+006
1.067485e+003, 3.043356e+006
1.067967e+003, 3.045610e+006
1.068449e+003, 3.047656e+006
1.068932e+003, 3.048625e+006
1.069414e+003, 3.046987e+006
1.069896e+003, 3.045276e+006
1.070378e+003, 3.045598e+006
1.070860e+003, 3.046949e+006
1.071342e+003, 3.047663e+006
1.071824e+003, 3.047654e+006
1.072306e+003, 3.048121e+006
1.072788e+003, 3.049705e+006
1.073271e+003, 3.051309e+006
1.073753e+003, 3.052507e+006
1.074235e+003, 3.053439e+006
1.074717e+003, 3.054459e+006
1.075199e+003, 3.055127e+006
1.075681e+003, 3.054418e+006
1.076163e+003, 3.052700e+006
1.076645e+003, 3.052027e+006
1.077127e+003, 3.053571e+006
1.077610e+003, 3.054704e+006
1.078092e+003, 3.053112e+006
1.078574e+003, 3.051918e+006
1.079056e+003, 3.054390e+006
1.079538e+003, 3.057686e+006
1.080020e+003, 3.058026e+006
1.080502e+003, 3.055880e+006
1.080984e+003, 3.054195e+006
1.081467e+003, 3.053809e+006
1.081949e+003, 3.054305e+006
1.082431e+003, 3.056420e+006
1.082913e+003, 3.058291e+006
1.083395e+003, 3.058460e+006
1.083877e+003, 3.058027e+006
1.084359e+003, 3.058307e+006
1.084841e+003, 3.059035e+006
1.085323e+003, 3.058948e+006
1.085806e+003, 3.057552e+006
1.086288e+003, 3.056986e+006
1.086770e+003, 3.058976e+006
1.087252e+003, 3.060982e+006
1.087734e+003, 3.061542e+006
1.088216e+003, 3.061629e+006
1.088698e+003, 3.062337e+006
1.089180e+003, 3.063272e+006
1.089662e+003, 3.063262e+006
1.090145e+003, 3.062063e+006
1.090627e+003, 3.061303e+006
1.091109e+003, 3.062031e+006
1.091591e+003, 3.062746e+006
1.092073e+003, 3.062654e+006
1.092555e+003, 3.062460e+006
1.093037e+003, 3.062718e+006
1.093519e+003, 3.063283e+006
1.094002e+003, 3.063908e+006
1.094484e+003, 3.064534e+006
1.094966e+003, 3.065017e+006
1.095448e+003, 3.065509e+006
1.095930e+003, 3.065549e+006
1.096412e+003, 3.064327e+006
1.096894e+003, 3.063309e+006
1.097376e+003, 3.063360e+006
1.097859e+003, 3.064214e+006
1.098341e+003, 3.066034e+006
1.098823e+003, 3.068417e+006
1.099305e+003, 3.069134e+006
1.099787e+003, 3.066569e+006
1.100269e+003, 3.064618e+006
1.100751e+003, 3.064710e+006
1.101233e+003, 3.065135e+006
1.101715e+003, 3.065366e+006
1.102198e+003, 3.065272e+006
1.102680e+003, 3.064370e+006
1.103162e+003, 3.063061e+006
1.103644e+003, 3.062924e+006
1.104126e+003, 3.064871e+006
1.104608e+003, 3.065830e+006
1.105090e+003, 3.063489e+006
1.105572e+003, 3.062412e+006
1.106054e+003, 3.065750e+006
1.106537e+003, 3.069537e+006
1.107019e+003, 3.070519e+006
1.107501e+003, 3.069446e+006
1.107983e+003, 3.068094e+006
1.108465e+003, 3.066211e+006
1.108947e+003, 3.066246e+006
1.109429e+003, 3.071093e+006
1.109911e+003, 3.074021e+006
1.110394e+003, 3.071737e+006
1.110876e+003, 3.069176e+006
1.111358e+003, 3.069607e+006
1.111840e+003, 3.071496e+006
1.112322e+003, 3.072227e+006
1.112804e+003, 3.071685e+006
1.113286e+003, 3.071602e+006
1.113768e+003, 3.072196e+006
1.114250e+003, 3.072897e+006
1.114733e+003, 3.074205e+006
1.115215e+003, 3.074896e+006
1.115697e+003, 3.074453e+006
1.116179e+003, 3.073124e+006
1.116661e+003, 3.070399e+006
1.117143e+003, 3.066850e+006
1.117625e+003, 3.066881e+006
1.118107e+003, 3.073192e+006
1.118589e+003, 3.076602e+006
1.119072e+003, 3.075685e+006
1.119554e+003, 3.074575e+006
1.120036e+003, 3.074294e+006
1.120518e+003, 3.074717e+006
1.121000e+003, 3.075811e+006
1.121482e+003, 3.077487e+006
1.121964e+003, 3.079675e+006
1.122446e+003, 3.082790e+006
1.122929e+003, 3.083551e+006
1.123411e+003, 3.080957e+006
1.123893e+003, 3.079384e+006
1.124375e+003, 3.079915e+006
1.124857e+003, 3.081151e+006
1.125339e+003, 3.082344e+006
1.125821e+003, 3.083347e+006
1.126303e+003, 3.083727e+006
1.126786e+003, 3.083581e+006
1.127268e+003, 3.085349e+006
1.127750e+003, 3.089465e+006
1.128232e+003, 3.091105e+006
1.128714e+003, 3.089301e+006
1.129196e+003, 3.087631e+006
1.129678e+003, 3.087777e+006
1.130160e+003, 3.088396e+006
1.130642e+003, 3.087910e+006
1.131125e+003, 3.086759e+006
1.131607e+003, 3.086318e+006
1.132089e+003, 3.086614e+006
1.132571e+003, 3.088209e+006
1.133053e+003, 3.091094e+006
1.133535e+003, 3.093284e+006
1.134017e+003, 3.094176e+006
1.134499e+003, 3.093883e+006
1.134981e+003, 3.092323e+006
1.135464e+003, 3.090514e+006
1.135946e+003, 3.090402e+006
1.136428e+003, 3.091602e+006
1.136910e+003, 3.092701e+006
1.137392e+003, 3.093720e+006
1.137874e+003, 3.094816e+006
1.138356e+003, 3.096076e+006
1.138838e+003, 3.098104e+006
1.139321e+003, 3.101219e+006
1.139803e+003, 3.103853e+006
1.140285e+003, 3.103871e+006
1.140767e+003, 3.102625e+006
1.141249e+003, 3.102495e+006
1.141731e+003, 3.103104e+006
1.142213e+003, 3.103785e+006
1.142695e+003, 3.104412e+006
1.143177e+003, 3.105032e+006
1.143660e+003, 3.105609e+006
1.144142e+003, 3.105624e+006
1.144624e+003, 3.104416e+006
1.145106e+003, 3.103258e+006
1.145588e+003, 3.103633e+006
1.146070e+003, 3.104727e+006
1.146552e+003, 3.105793e+006
1.147034e+003, 3.106666e+006
1.147516e+003, 3.107073e+006
1.147999e+003, 3.107106e+006
1.148481e+003, 3.107297e+006
1.148963e+003, 3.107886e+006
1.149445e+003, 3.108489e+006
1.149927e+003, 3.108443e+006
1.150409e+003, 3.108758e+006
1.150891e+003, 3.110918e+006
1.151373e+003, 3.113172e+006
1.151856e+003, 3.112715e+006
1.152338e+003, 3.110994e+006
1.152820e+003, 3.112179e+006
1.153302e+003, 3.117113e+006
1.153784e+003, 3.120433e+006
1.154266e+003, 3.118699e+006
1.154748e+003, 3.117410e+006
1.155230e+003, 3.119354e+006
1.155713e+003, 3.121234e+006
1.156195e+003, 3.120356e+006
1.156677e+003, 3.118647e+006
1.157159e+003, 3.119169e+006
1.157641e+003, 3.121593e+006
1.158123e+003, 3.122270e+006
1.158605e+003, 3.119310e+006
1.159087e+003, 3.118000e+006
1.159569e+003, 3.120592e+006
1.160052e+003, 3.122246e+006
1.160534e+003, 3.120837e+006
1.161016e+003, 3.119036e+006
1.161498e+003, 3.118679e+006
1.161980e+003, 3.119394e+006
1.162462e+003, 3.120502e+006
1.162944e+003, 3.122097e+006
1.163426e+003, 3.122943e+006
1.163908e+003, 3.122582e+006
1.164391e+003, 3.122763e+006
1.164873e+003, 3.123764e+006
1.165355e+003, 3.125251e+006
1.165837e+003, 3.127429e+006
1.166319e+003, 3.128928e+006
1.166801e+003, 3.127676e+006
1.167283e+003, 3.124864e+006
1.167765e+003, 3.126034e+006
1.168247e+003, 3.131388e+006
1.168730e+003, 3.134087e+006
1.169212e+003, 3.133773e+006
1.169694e+003, 3.133200e+006
1.170176e+003, 3.133109e+006
1.170658e+003, 3.133473e+006
1.171140e+003, 3.134302e+006
1.171622e+003, 3.135436e+006
1.172104e+003, 3.136773e+006
1.172587e+003, 3.138143e+006
1.173069e+003, 3.138928e+006
1.173551e+003, 3.139240e+006
1.174033e+003, 3.139356e+006
1.174515e+003, 3.139419e+006
1.174997e+003, 3.140026e+006
1.175479e+003, 3.141327e+006
1.175961e+003, 3.142232e+006
1.176443e+003, 3.141541e+006
1.176926e+003, 3.140695e+006
1.177408e+003, 3.141881e+006
1.177890e+003, 3.143764e+006
1.178372e+003, 3.144904e+006
1.178854e+003, 3.144990e+006
1.179336e+003, 3.142980e+006
1.179818e+003, 3.139508e+006
1.180300e+003, 3.137608e+006
1.180782e+003, 3.138729e+006
1.181265e+003, 3.139996e+006
1.181747e+003, 3.139603e+006
1.182229e+003, 3.138896e+006
1.182711e+003, 3.138641e+006
1.183193e+003, 3.138619e+006
1.183675e+003, 3.138867e+006
1.184157e+003, 3.139071e+006
1.184639e+003, 3.138245e+006
1.185122e+003, 3.136418e+006
1.185604e+003, 3.136319e+006
1.186086e+003, 3.140655e+006
1.186568e+003, 3.143372e+006
1.187050e+003, 3.142374e+006
1.187532e+003, 3.140906e+006
1.188014e+003, 3.139898e+006
1.188496e+003, 3.139388e+006
1.188979e+003, 3.139601e+006
1.189461e+003, 3.140244e+006
1.189943e+003, 3.140470e+006
1.190425e+003, 3.140160e+006
1.190907e+003, 3.140067e+006
1.191389e+003, 3.140205e+006
1.191871e+003, 3.140519e+006
1.192353e+003, 3.141060e+006
1.192835e+003, 3.141575e+006
1.193318e+003, 3.141896e+006
1.193800e+003, 3.142262e+006
1.194282e+003, 3.142978e+006
1.194764e+003, 3.143974e+006
1.195246e+003, 3.145035e+006
1.195728e+003, 3.146151e+006
1.196210e+003, 3.147043e+006
1.196692e+003, 3.147664e+006
1.197174e+003, 3.147148e+006
1.197657e+003, 3.145369e+006
1.198139e+003, 3.144116e+006
1.198621e+003, 3.144503e+006
1.199103e+003, 3.145808e+006
1.199585e+003, 3.147507e+006
1.200067e+003, 3.149106e+006
1.200549e+003, 3.149719e+006
1.201031e+003, 3.149427e+006
1.201514e+003, 3.147947e+006
1.201996e+003, 3.145812e+006
1.202478e+003, 3.144566e+006
1.202960e+003, 3.144528e+006
1.203442e+003, 3.144584e+006
1.203924e+003, 3.144059e+006
1.204406e+003, 3.143589e+006
1.204888e+003, 3.143979e+006
1.205370e+003, 3.144327e+006
1.205853e+003, 3.144073e+006
1.206335e+003, 3.143235e+006
1.206817e+003, 3.141082e+006
1.207299e+003, 3.138592e+006
1.207781e+003, 3.138581e+006
1.208263e+003, 3.141815e+006
1.208745e+003, 3.143637e+006
1.209227e+003, 3.141026e+006
1.209709e+003, 3.139734e+006
1.210192e+003, 3.142228e+006
1.210674e+003, 3.144753e+006
1.211156e+003, 3.145313e+006
1.211638e+003, 3.145065e+006
1.212120e+003, 3.145156e+006
1.212602e+003, 3.145375e+006
1.213084e+003, 3.144923e+006
1.213566e+003, 3.143539e+006
1.214049e+003, 3.142587e+006
1.214531e+003, 3.141897e+006
1.215013e+003, 3.142645e+006
1.215495e+003, 3.145610e+006
1.215977e+003, 3.147258e+006
1.216459e+003, 3.145591e+006
1.216941e+003, 3.142345e+006
1.217423e+003, 3.139322e+006
1.217906e+003, 3.136934e+006
1.218388e+003, 3.136831e+006
1.218870e+003, 3.138542e+006
1.219352e+003, 3.139816e+006
1.219834e+003, 3.140535e+006
1.220316e+003, 3.140826e+006
1.220798e+003, 3.140739e+006
1.221280e+003, 3.140272e+006
1.221762e+003, 3.139396e+006
1.222245e+003, 3.138591e+006
1.222727e+003, 3.138453e+006
1.223209e+003, 3.138498e+006
1.223691e+003, 3.138157e+006
1.224173e+003, 3.137670e+006
1.224655e+003, 3.137341e+006
1.225137e+003, 3.137138e+006
1.225619e+003, 3.136867e+006
1.226101e+003, 3.136571e+006
1.226584e+003, 3.136690e+006
1.227066e+003, 3.137746e+006
1.227548e+003, 3.138201e+006
1.228030e+003, 3.136903e+006
1.228512e+003, 3.135778e+006
1.228994e+003, 3.135914e+006
1.229476e+003, 3.136293e+006
1.229958e+003, 3.135801e+006
1.230441e+003, 3.135182e+006
1.230923e+003, 3.135965e+006
1.231405e+003, 3.138087e+006
1.231887e+003, 3.139382e+006
1.232369e+003, 3.139672e+006
1.232851e+003, 3.139405e+006
1.233333e+003, 3.138048e+006
1.233815e+003, 3.138158e+006
1.234297e+003, 3.140799e+006
1.234780e+003, 3.143700e+006
1.235262e+003, 3.145290e+006
1.235744e+003, 3.145840e+006
1.236226e+003, 3.145684e+006
1.236708e+003, 3.144962e+006
1.237190e+003, 3.144221e+006
1.237672e+003, 3.143492e+006
1.238154e+003, 3.142993e+006
1.238636e+003, 3.142669e+006
1.239119e+003, 3.142160e+006
1.239601e+003, 3.141370e+006
1.240083e+003, 3.140379e+006
1.240565e+003, 3.139219e+006
1.241047e+003, 3.138059e+006
1.241529e+003, 3.136778e+006
1.242011e+003, 3.135902e+006
1.242493e+003, 3.135893e+006
1.242975e+003, 3.136658e+006
1.243458e+003, 3.138517e+006
1.243940e+003, 3.140896e+006
1.244422e+003, 3.143004e+006
1.244904e+003, 3.144612e+006
1.245386e+003, 3.144599e+006
1.245868e+003, 3.141434e+006
1.246350e+003, 3.138963e+006
1.246832e+003, 3.137267e+006
1.247315e+003, 3.137161e+006
1.247797e+003, 3.140581e+006
1.248279e+003, 3.143538e+006
1.248761e+003, 3.142493e+006
1.249243e+003, 3.139853e+006
1.249725e+003, 3.140106e+006
1.250207e+003, 3.143023e+006
1.250689e+003, 3.145429e+006
1.251172e+003, 3.147402e+006
1.251654e+003, 3.146824e+006
1.252136e+003, 3.143340e+006
1.252618e+003, 3.142657e+006
1.253100e+003, 3.146462e+006
1.253582e+003, 3.150363e+006
1.254064e+003, 3.151347e+006
1.254546e+003, 3.150793e+006
1.255028e+003, 3.150067e+006
1.255510e+003, 3.149545e+006
1.255993e+003, 3.150429e+006
1.256475e+003, 3.151781e+006
1.256957e+003, 3.151906e+006
1.257439e+003, 3.150909e+006
1.257921e+003, 3.149022e+006
1.258403e+003, 3.146698e+006
1.258885e+003, 3.145661e+006
1.259367e+003, 3.147026e+006
1.259850e+003, 3.148361e+006
1.260332e+003, 3.148680e+006
1.260814e+003, 3.148531e+006
1.261296e+003, 3.147184e+006
1.261778e+003, 3.146472e+006
1.262260e+003, 3.148622e+006
1.262742e+003, 3.151834e+006
1.263224e+003, 3.153148e+006
1.263707e+003, 3.152758e+006
1.264189e+003, 3.152333e+006
1.264671e+003, 3.151540e+006
1.265153e+003, 3.152036e+006
1.265635e+003, 3.154383e+006
1.266117e+003, 3.155189e+006
1.266599e+003, 3.153372e+006
1.267081e+003, 3.152199e+006
1.267563e+003, 3.153506e+006
1.268046e+003, 3.156111e+006
1.268528e+003, 3.158940e+006
1.269010e+003, 3.161423e+006
1.269492e+003, 3.161755e+006
1.269974e+003, 3.160921e+006
1.270456e+003, 3.161476e+006
1.270938e+003, 3.163073e+006
1.271420e+003, 3.164392e+006
1.271902e+003, 3.165292e+006
1.272385e+003, 3.166489e+006
1.272867e+003, 3.168262e+006
1.273349e+003, 3.169426e+006
1.273831e+003, 3.168785e+006
1.274313e+003, 3.168050e+006
1.274795e+003, 3.168351e+006
1.275277e+003, 3.168551e+006
1.275759e+003, 3.167350e+006
1.276242e+003, 3.166080e+006
1.276724e+003, 3.166540e+006
1.277206e+003, 3.168218e+006
1.277688e+003, 3.169178e+006
1.278170e+003, 3.169294e+006
1.278652e+003, 3.169825e+006
1.279134e+003, 3.170952e+006
1.279616e+003, 3.171858e+006
1.280099e+003, 3.172416e+006
1.280581e+003, 3.172843e+006
1.281063e+003, 3.173162e+006
1.281545e+003, 3.173637e+006
1.282027e+003, 3.174537e+006
1.282509e+003, 3.175350e+006
1.282991e+003, 3.174997e+006
1.283473e+003, 3.173972e+006
1.283955e+003, 3.174005e+006
##END=



