##NAMES=Xonotlite
##RRUFFID=R180003
##IDEAL CHEMISTRY=Ca_6_Si_6_O_17_(OH)_2_
##LOCALITY=Nchwaning III mine, Kuruman, Kalahari manganese field, Northern Cape Province, South Africa
##OWNER=RRUFF
##SOURCE=Jaco and Tania Janse van Nieuwenhuizen
##DESCRIPTION=Sprays of colorless prismatic crystals
##STATUS=The identification of this mineral has been confirmed by single-crystal X-ray diffraction.
##URL=rruff.info/R180003
8.758203e+001, 8.315965e+002
8.806415e+001, 8.348866e+002
8.854626e+001, 8.355253e+002
8.902838e+001, 8.327125e+002
8.951050e+001, 8.287484e+002
8.999261e+001, 8.242637e+002
9.047473e+001, 8.193756e+002
9.095685e+001, 8.142809e+002
9.143896e+001, 8.091132e+002
9.192108e+001, 8.038566e+002
9.240320e+001, 7.986223e+002
9.288531e+001, 7.835824e+002
9.336743e+001, 7.553339e+002
9.384955e+001, 7.197755e+002
9.433167e+001, 6.889572e+002
9.481378e+001, 6.590736e+002
9.529590e+001, 6.314719e+002
9.577802e+001, 6.060875e+002
9.626013e+001, 5.835631e+002
9.674225e+001, 5.641289e+002
9.722437e+001, 5.473320e+002
9.770648e+001, 5.322754e+002
9.818860e+001, 5.192267e+002
9.867072e+001, 5.070744e+002
9.915283e+001, 4.951631e+002
9.963495e+001, 4.833591e+002
1.001171e+002, 4.720431e+002
1.005992e+002, 4.618114e+002
1.010813e+002, 4.525695e+002
1.015634e+002, 4.441989e+002
1.020455e+002, 4.359905e+002
1.025277e+002, 4.284202e+002
1.030098e+002, 4.218803e+002
1.034919e+002, 4.164803e+002
1.039740e+002, 4.120099e+002
1.044561e+002, 4.079660e+002
1.049382e+002, 4.055244e+002
1.054204e+002, 4.020796e+002
1.059025e+002, 3.972900e+002
1.063846e+002, 3.912843e+002
1.068667e+002, 3.840016e+002
1.073488e+002, 3.749987e+002
1.078309e+002, 3.648180e+002
1.083131e+002, 3.576030e+002
1.087952e+002, 3.550026e+002
1.092773e+002, 3.533616e+002
1.097594e+002, 3.508597e+002
1.102415e+002, 3.474423e+002
1.107236e+002, 3.436389e+002
1.112058e+002, 3.395848e+002
1.116879e+002, 3.354345e+002
1.121700e+002, 3.317095e+002
1.126521e+002, 3.291661e+002
1.131342e+002, 3.269588e+002
1.136163e+002, 3.234815e+002
1.140985e+002, 3.180569e+002
1.145806e+002, 3.126676e+002
1.150627e+002, 3.085439e+002
1.155448e+002, 3.054379e+002
1.160269e+002, 3.027815e+002
1.165090e+002, 3.003374e+002
1.169912e+002, 2.981059e+002
1.174733e+002, 2.958958e+002
1.179554e+002, 2.933688e+002
1.184375e+002, 2.911670e+002
1.189196e+002, 2.894203e+002
1.194017e+002, 2.881987e+002
1.198839e+002, 2.876183e+002
1.203660e+002, 2.880505e+002
1.208481e+002, 2.903942e+002
1.213302e+002, 2.914284e+002
1.218123e+002, 2.908966e+002
1.222944e+002, 2.895480e+002
1.227766e+002, 2.875746e+002
1.232587e+002, 2.851237e+002
1.237408e+002, 2.825589e+002
1.242229e+002, 2.805835e+002
1.247050e+002, 2.794231e+002
1.251871e+002, 2.786488e+002
1.256693e+002, 2.785002e+002
1.261514e+002, 2.786714e+002
1.266335e+002, 2.788685e+002
1.271156e+002, 2.790169e+002
1.275977e+002, 2.789736e+002
1.280798e+002, 2.782634e+002
1.285620e+002, 2.768182e+002
1.290441e+002, 2.750484e+002
1.295262e+002, 2.730493e+002
1.300083e+002, 2.708362e+002
1.304904e+002, 2.684815e+002
1.309725e+002, 2.659320e+002
1.314547e+002, 2.633098e+002
1.319368e+002, 2.608873e+002
1.324189e+002, 2.587556e+002
1.329010e+002, 2.567369e+002
1.333831e+002, 2.546543e+002
1.338652e+002, 2.524964e+002
1.343474e+002, 2.503613e+002
1.348295e+002, 2.482992e+002
1.353116e+002, 2.462979e+002
1.357937e+002, 2.443268e+002
1.362758e+002, 2.423400e+002
1.367579e+002, 2.404010e+002
1.372401e+002, 2.387454e+002
1.377222e+002, 2.377736e+002
1.382043e+002, 2.364326e+002
1.386864e+002, 2.344057e+002
1.391685e+002, 2.318410e+002
1.396507e+002, 2.289040e+002
1.401328e+002, 2.256272e+002
1.406149e+002, 2.220215e+002
1.410970e+002, 2.188718e+002
1.415791e+002, 2.163319e+002
1.420612e+002, 2.141414e+002
1.425434e+002, 2.123736e+002
1.430255e+002, 2.109340e+002
1.435076e+002, 2.096170e+002
1.439897e+002, 2.082234e+002
1.444718e+002, 2.066989e+002
1.449539e+002, 2.054495e+002
1.454361e+002, 2.048443e+002
1.459182e+002, 2.041572e+002
1.464003e+002, 2.028628e+002
1.468824e+002, 2.009631e+002
1.473645e+002, 1.989534e+002
1.478466e+002, 1.974069e+002
1.483288e+002, 1.964798e+002
1.488109e+002, 1.955163e+002
1.492930e+002, 1.943886e+002
1.497751e+002, 1.932655e+002
1.502572e+002, 1.923228e+002
1.507393e+002, 1.915975e+002
1.512215e+002, 1.910402e+002
1.517036e+002, 1.906448e+002
1.521857e+002, 1.904001e+002
1.526678e+002, 1.901688e+002
1.531499e+002, 1.901189e+002
1.536320e+002, 1.900615e+002
1.541142e+002, 1.894536e+002
1.545963e+002, 1.879286e+002
1.550784e+002, 1.861398e+002
1.555605e+002, 1.847359e+002
1.560426e+002, 1.837156e+002
1.565247e+002, 1.829198e+002
1.570069e+002, 1.823671e+002
1.574890e+002, 1.820503e+002
1.579711e+002, 1.815410e+002
1.584532e+002, 1.804598e+002
1.589353e+002, 1.793711e+002
1.594174e+002, 1.787091e+002
1.598996e+002, 1.785201e+002
1.603817e+002, 1.784399e+002
1.608638e+002, 1.780589e+002
1.613459e+002, 1.773450e+002
1.618280e+002, 1.764174e+002
1.623102e+002, 1.750204e+002
1.627923e+002, 1.736061e+002
1.632744e+002, 1.725022e+002
1.637565e+002, 1.717930e+002
1.642386e+002, 1.713156e+002
1.647207e+002, 1.707684e+002
1.652029e+002, 1.701923e+002
1.656850e+002, 1.694597e+002
1.661671e+002, 1.683536e+002
1.666492e+002, 1.672093e+002
1.671313e+002, 1.663103e+002
1.676134e+002, 1.657872e+002
1.680956e+002, 1.655700e+002
1.685777e+002, 1.654610e+002
1.690598e+002, 1.658187e+002
1.695419e+002, 1.658689e+002
1.700240e+002, 1.653754e+002
1.705061e+002, 1.645773e+002
1.709883e+002, 1.638115e+002
1.714704e+002, 1.632528e+002
1.719525e+002, 1.628335e+002
1.724346e+002, 1.622599e+002
1.729167e+002, 1.612579e+002
1.733988e+002, 1.604303e+002
1.738810e+002, 1.600290e+002
1.743631e+002, 1.599526e+002
1.748452e+002, 1.599637e+002
1.753273e+002, 1.599787e+002
1.758094e+002, 1.599549e+002
1.762915e+002, 1.597800e+002
1.767737e+002, 1.594223e+002
1.772558e+002, 1.589658e+002
1.777379e+002, 1.584105e+002
1.782200e+002, 1.577693e+002
1.787021e+002, 1.571599e+002
1.791842e+002, 1.566432e+002
1.796664e+002, 1.562095e+002
1.801485e+002, 1.558196e+002
1.806306e+002, 1.554348e+002
1.811127e+002, 1.551290e+002
1.815948e+002, 1.550116e+002
1.820769e+002, 1.551069e+002
1.825591e+002, 1.552482e+002
1.830412e+002, 1.554064e+002
1.835233e+002, 1.555440e+002
1.840054e+002, 1.556171e+002
1.844875e+002, 1.556126e+002
1.849696e+002, 1.555322e+002
1.854518e+002, 1.553402e+002
1.859339e+002, 1.549337e+002
1.864160e+002, 1.546555e+002
1.868981e+002, 1.547484e+002
1.873802e+002, 1.549852e+002
1.878623e+002, 1.550832e+002
1.883445e+002, 1.548644e+002
1.888266e+002, 1.544633e+002
1.893087e+002, 1.543607e+002
1.897908e+002, 1.548615e+002
1.902729e+002, 1.552415e+002
1.907550e+002, 1.550816e+002
1.912372e+002, 1.547590e+002
1.917193e+002, 1.548348e+002
1.922014e+002, 1.556967e+002
1.926835e+002, 1.571812e+002
1.931656e+002, 1.581649e+002
1.936477e+002, 1.579297e+002
1.941299e+002, 1.578838e+002
1.946120e+002, 1.583821e+002
1.950941e+002, 1.592213e+002
1.955762e+002, 1.600226e+002
1.960583e+002, 1.605168e+002
1.965404e+002, 1.607348e+002
1.970226e+002, 1.612479e+002
1.975047e+002, 1.624221e+002
1.979868e+002, 1.634829e+002
1.984689e+002, 1.642368e+002
1.989510e+002, 1.647044e+002
1.994331e+002, 1.649501e+002
1.999153e+002, 1.649948e+002
2.003974e+002, 1.648454e+002
2.008795e+002, 1.648062e+002
2.013616e+002, 1.650018e+002
2.018437e+002, 1.651612e+002
2.023258e+002, 1.653034e+002
2.028080e+002, 1.653480e+002
2.032901e+002, 1.650327e+002
2.037722e+002, 1.640983e+002
2.042543e+002, 1.625771e+002
2.047364e+002, 1.612013e+002
2.052185e+002, 1.599672e+002
2.057007e+002, 1.588657e+002
2.061828e+002, 1.579511e+002
2.066649e+002, 1.572078e+002
2.071470e+002, 1.565118e+002
2.076291e+002, 1.558407e+002
2.081112e+002, 1.551402e+002
2.085934e+002, 1.542200e+002
2.090755e+002, 1.529698e+002
2.095576e+002, 1.515656e+002
2.100397e+002, 1.501265e+002
2.105218e+002, 1.486488e+002
2.110039e+002, 1.472006e+002
2.114861e+002, 1.457297e+002
2.119682e+002, 1.443394e+002
2.124503e+002, 1.432360e+002
2.129324e+002, 1.426318e+002
2.134145e+002, 1.422173e+002
2.138967e+002, 1.415733e+002
2.143788e+002, 1.406279e+002
2.148609e+002, 1.397854e+002
2.153430e+002, 1.394303e+002
2.158251e+002, 1.392833e+002
2.163072e+002, 1.389973e+002
2.167894e+002, 1.383848e+002
2.172715e+002, 1.376449e+002
2.177536e+002, 1.371232e+002
2.182357e+002, 1.368724e+002
2.187178e+002, 1.366999e+002
2.191999e+002, 1.365747e+002
2.196821e+002, 1.364574e+002
2.201642e+002, 1.362876e+002
2.206463e+002, 1.360113e+002
2.211284e+002, 1.357108e+002
2.216105e+002, 1.355783e+002
2.220926e+002, 1.356835e+002
2.225748e+002, 1.358300e+002
2.230569e+002, 1.359749e+002
2.235390e+002, 1.361158e+002
2.240211e+002, 1.362118e+002
2.245032e+002, 1.362131e+002
2.249853e+002, 1.362385e+002
2.254675e+002, 1.366704e+002
2.259496e+002, 1.378907e+002
2.264317e+002, 1.389088e+002
2.269138e+002, 1.395219e+002
2.273959e+002, 1.398505e+002
2.278780e+002, 1.399830e+002
2.283602e+002, 1.399492e+002
2.288423e+002, 1.398176e+002
2.293244e+002, 1.398233e+002
2.298065e+002, 1.401892e+002
2.302886e+002, 1.403759e+002
2.307707e+002, 1.402919e+002
2.312529e+002, 1.400125e+002
2.317350e+002, 1.395831e+002
2.322171e+002, 1.390210e+002
2.326992e+002, 1.383953e+002
2.331813e+002, 1.379374e+002
2.336634e+002, 1.380092e+002
2.341456e+002, 1.378033e+002
2.346277e+002, 1.370808e+002
2.351098e+002, 1.361156e+002
2.355919e+002, 1.352433e+002
2.360740e+002, 1.346191e+002
2.365561e+002, 1.341210e+002
2.370383e+002, 1.333862e+002
2.375204e+002, 1.321095e+002
2.380025e+002, 1.309482e+002
2.384846e+002, 1.299514e+002
2.389667e+002, 1.290849e+002
2.394488e+002, 1.283659e+002
2.399310e+002, 1.278041e+002
2.404131e+002, 1.272817e+002
2.408952e+002, 1.264855e+002
2.413773e+002, 1.249919e+002
2.418594e+002, 1.238039e+002
2.423415e+002, 1.232327e+002
2.428237e+002, 1.229537e+002
2.433058e+002, 1.225437e+002
2.437879e+002, 1.218358e+002
2.442700e+002, 1.209875e+002
2.447521e+002, 1.203445e+002
2.452342e+002, 1.200823e+002
2.457164e+002, 1.196592e+002
2.461985e+002, 1.187660e+002
2.466806e+002, 1.177294e+002
2.471627e+002, 1.170423e+002
2.476448e+002, 1.168881e+002
2.481269e+002, 1.169739e+002
2.486091e+002, 1.167663e+002
2.490912e+002, 1.161695e+002
2.495733e+002, 1.156685e+002
2.500554e+002, 1.154543e+002
2.505375e+002, 1.153640e+002
2.510196e+002, 1.151503e+002
2.515018e+002, 1.147401e+002
2.519839e+002, 1.142370e+002
2.524660e+002, 1.137397e+002
2.529481e+002, 1.132224e+002
2.534302e+002, 1.128866e+002
2.539123e+002, 1.129418e+002
2.543945e+002, 1.131664e+002
2.548766e+002, 1.131978e+002
2.553587e+002, 1.129311e+002
2.558408e+002, 1.125869e+002
2.563229e+002, 1.124566e+002
2.568051e+002, 1.125082e+002
2.572872e+002, 1.125070e+002
2.577693e+002, 1.122796e+002
2.582514e+002, 1.119871e+002
2.587335e+002, 1.119439e+002
2.592156e+002, 1.122576e+002
2.596978e+002, 1.125774e+002
2.601799e+002, 1.124995e+002
2.606620e+002, 1.121294e+002
2.611441e+002, 1.117807e+002
2.616262e+002, 1.116260e+002
2.621083e+002, 1.115251e+002
2.625905e+002, 1.112346e+002
2.630726e+002, 1.107092e+002
2.635547e+002, 1.101096e+002
2.640368e+002, 1.095065e+002
2.645189e+002, 1.089217e+002
2.650010e+002, 1.084237e+002
2.654832e+002, 1.080721e+002
2.659653e+002, 1.078062e+002
2.664474e+002, 1.075443e+002
2.669295e+002, 1.072952e+002
2.674116e+002, 1.070240e+002
2.678937e+002, 1.067095e+002
2.683759e+002, 1.063611e+002
2.688580e+002, 1.059629e+002
2.693401e+002, 1.054044e+002
2.698222e+002, 1.048926e+002
2.703043e+002, 1.048231e+002
2.707864e+002, 1.053204e+002
2.712686e+002, 1.057202e+002
2.717507e+002, 1.056068e+002
2.722328e+002, 1.052499e+002
2.727149e+002, 1.049064e+002
2.731970e+002, 1.046503e+002
2.736791e+002, 1.044158e+002
2.741613e+002, 1.040853e+002
2.746434e+002, 1.036174e+002
2.751255e+002, 1.032518e+002
2.756076e+002, 1.032217e+002
2.760897e+002, 1.032644e+002
2.765718e+002, 1.031419e+002
2.770540e+002, 1.027779e+002
2.775361e+002, 1.023906e+002
2.780182e+002, 1.022858e+002
2.785003e+002, 1.025211e+002
2.789824e+002, 1.026402e+002
2.794645e+002, 1.024649e+002
2.799467e+002, 1.021643e+002
2.804288e+002, 1.017751e+002
2.809109e+002, 1.013106e+002
2.813930e+002, 1.009394e+002
2.818751e+002, 1.009382e+002
2.823572e+002, 1.013582e+002
2.828394e+002, 1.015105e+002
2.833215e+002, 1.008721e+002
2.838036e+002, 1.002734e+002
2.842857e+002, 1.002599e+002
2.847678e+002, 1.008049e+002
2.852499e+002, 1.014484e+002
2.857321e+002, 1.017864e+002
2.862142e+002, 1.018099e+002
2.866963e+002, 1.018153e+002
2.871784e+002, 1.016931e+002
2.876605e+002, 1.016872e+002
2.881426e+002, 1.019996e+002
2.886248e+002, 1.025440e+002
2.891069e+002, 1.030403e+002
2.895890e+002, 1.032071e+002
2.900711e+002, 1.030867e+002
2.905532e+002, 1.032445e+002
2.910353e+002, 1.039947e+002
2.915175e+002, 1.046393e+002
2.919996e+002, 1.048059e+002
2.924817e+002, 1.046846e+002
2.929638e+002, 1.046413e+002
2.934459e+002, 1.049154e+002
2.939280e+002, 1.054373e+002
2.944102e+002, 1.058886e+002
2.948923e+002, 1.062466e+002
2.953744e+002, 1.065675e+002
2.958565e+002, 1.068359e+002
2.963386e+002, 1.070956e+002
2.968207e+002, 1.074294e+002
2.973029e+002, 1.079020e+002
2.977850e+002, 1.084013e+002
2.982671e+002, 1.086290e+002
2.987492e+002, 1.084687e+002
2.992313e+002, 1.082594e+002
2.997134e+002, 1.080134e+002
3.001956e+002, 1.077962e+002
3.006777e+002, 1.076596e+002
3.011598e+002, 1.076199e+002
3.016419e+002, 1.076857e+002
3.021240e+002, 1.079501e+002
3.026061e+002, 1.086129e+002
3.030883e+002, 1.088914e+002
3.035704e+002, 1.083904e+002
3.040525e+002, 1.076826e+002
3.045346e+002, 1.071069e+002
3.050167e+002, 1.067381e+002
3.054988e+002, 1.064861e+002
3.059810e+002, 1.062249e+002
3.064631e+002, 1.059171e+002
3.069452e+002, 1.057718e+002
3.074273e+002, 1.060282e+002
3.079094e+002, 1.062694e+002
3.083915e+002, 1.062975e+002
3.088737e+002, 1.061169e+002
3.093558e+002, 1.058483e+002
3.098379e+002, 1.056089e+002
3.103200e+002, 1.054033e+002
3.108021e+002, 1.051000e+002
3.112842e+002, 1.044540e+002
3.117664e+002, 1.039629e+002
3.122485e+002, 1.038407e+002
3.127306e+002, 1.040109e+002
3.132127e+002, 1.043161e+002
3.136948e+002, 1.047256e+002
3.141769e+002, 1.051706e+002
3.146591e+002, 1.051966e+002
3.151412e+002, 1.044318e+002
3.156233e+002, 1.037466e+002
3.161054e+002, 1.034575e+002
3.165875e+002, 1.033723e+002
3.170696e+002, 1.032031e+002
3.175518e+002, 1.027890e+002
3.180339e+002, 1.022888e+002
3.185160e+002, 1.021652e+002
3.189981e+002, 1.027359e+002
3.194802e+002, 1.030268e+002
3.199623e+002, 1.025974e+002
3.204445e+002, 1.019663e+002
3.209266e+002, 1.015831e+002
3.214087e+002, 1.015847e+002
3.218908e+002, 1.018082e+002
3.223729e+002, 1.020387e+002
3.228550e+002, 1.022956e+002
3.233372e+002, 1.024912e+002
3.238193e+002, 1.025312e+002
3.243014e+002, 1.025670e+002
3.247835e+002, 1.026672e+002
3.252656e+002, 1.028467e+002
3.257477e+002, 1.031063e+002
3.262299e+002, 1.034956e+002
3.267120e+002, 1.040377e+002
3.271941e+002, 1.044445e+002
3.276762e+002, 1.046682e+002
3.281583e+002, 1.047743e+002
3.286404e+002, 1.047192e+002
3.291226e+002, 1.045602e+002
3.296047e+002, 1.044505e+002
3.300868e+002, 1.045759e+002
3.305689e+002, 1.048616e+002
3.310510e+002, 1.047713e+002
3.315331e+002, 1.040206e+002
3.320153e+002, 1.033060e+002
3.324974e+002, 1.029463e+002
3.329795e+002, 1.027677e+002
3.334616e+002, 1.025315e+002
3.339437e+002, 1.021420e+002
3.344258e+002, 1.016048e+002
3.349080e+002, 1.009078e+002
3.353901e+002, 9.997935e+001
3.358722e+002, 9.907508e+001
3.363543e+002, 9.824467e+001
3.368365e+002, 9.748136e+001
3.373186e+002, 9.674887e+001
3.378007e+002, 9.603301e+001
3.382828e+002, 9.545787e+001
3.387649e+002, 9.528785e+001
3.392470e+002, 9.561320e+001
3.397292e+002, 9.566158e+001
3.402113e+002, 9.496581e+001
3.406934e+002, 9.418504e+001
3.411755e+002, 9.376741e+001
3.416576e+002, 9.371250e+001
3.421397e+002, 9.368289e+001
3.426219e+002, 9.335645e+001
3.431040e+002, 9.277020e+001
3.435861e+002, 9.234466e+001
3.440682e+002, 9.220791e+001
3.445503e+002, 9.209705e+001
3.450324e+002, 9.181240e+001
3.455146e+002, 9.142574e+001
3.459967e+002, 9.112528e+001
3.464788e+002, 9.111547e+001
3.469609e+002, 9.122580e+001
3.474430e+002, 9.098970e+001
3.479251e+002, 9.026680e+001
3.484073e+002, 8.958743e+001
3.488894e+002, 8.921026e+001
3.493715e+002, 8.902935e+001
3.498536e+002, 8.894234e+001
3.503357e+002, 8.893338e+001
3.508178e+002, 8.898783e+001
3.513000e+002, 8.909355e+001
3.517821e+002, 8.925196e+001
3.522642e+002, 8.945833e+001
3.527463e+002, 8.982282e+001
3.532284e+002, 9.014784e+001
3.537105e+002, 9.021313e+001
3.541927e+002, 8.998747e+001
3.546748e+002, 8.969795e+001
3.551569e+002, 8.941564e+001
3.556390e+002, 8.917651e+001
3.561211e+002, 8.917608e+001
3.566032e+002, 8.956556e+001
3.570854e+002, 9.000317e+001
3.575675e+002, 9.012315e+001
3.580496e+002, 8.999329e+001
3.585317e+002, 8.993748e+001
3.590138e+002, 9.013229e+001
3.594959e+002, 9.045860e+001
3.599781e+002, 9.071709e+001
3.604602e+002, 9.088159e+001
3.609423e+002, 9.107605e+001
3.614244e+002, 9.145358e+001
3.619065e+002, 9.191633e+001
3.623886e+002, 9.221530e+001
3.628708e+002, 9.218527e+001
3.633529e+002, 9.211552e+001
3.638350e+002, 9.220477e+001
3.643171e+002, 9.244868e+001
3.647992e+002, 9.285513e+001
3.652813e+002, 9.351969e+001
3.657635e+002, 9.425566e+001
3.662456e+002, 9.471660e+001
3.667277e+002, 9.488147e+001
3.672098e+002, 9.487254e+001
3.676919e+002, 9.455836e+001
3.681740e+002, 9.413303e+001
3.686562e+002, 9.405039e+001
3.691383e+002, 9.448376e+001
3.696204e+002, 9.495528e+001
3.701025e+002, 9.478470e+001
3.705846e+002, 9.392062e+001
3.710667e+002, 9.330247e+001
3.715489e+002, 9.316013e+001
3.720310e+002, 9.323277e+001
3.725131e+002, 9.335723e+001
3.729952e+002, 9.350082e+001
3.734773e+002, 9.356705e+001
3.739594e+002, 9.347388e+001
3.744416e+002, 9.323179e+001
3.749237e+002, 9.300346e+001
3.754058e+002, 9.283465e+001
3.758879e+002, 9.263083e+001
3.763700e+002, 9.236203e+001
3.768521e+002, 9.202982e+001
3.773343e+002, 9.159565e+001
3.778164e+002, 9.101868e+001
3.782985e+002, 9.043718e+001
3.787806e+002, 9.018913e+001
3.792627e+002, 9.051245e+001
3.797448e+002, 9.077235e+001
3.802270e+002, 9.088638e+001
3.807091e+002, 9.094146e+001
3.811912e+002, 9.102249e+001
3.816733e+002, 9.114441e+001
3.821554e+002, 9.126382e+001
3.826375e+002, 9.133118e+001
3.831197e+002, 9.133350e+001
3.836018e+002, 9.134543e+001
3.840839e+002, 9.125900e+001
3.845660e+002, 9.128153e+001
3.850481e+002, 9.155718e+001
3.855302e+002, 9.202334e+001
3.860124e+002, 9.251804e+001
3.864945e+002, 9.293617e+001
3.869766e+002, 9.329589e+001
3.874587e+002, 9.369905e+001
3.879408e+002, 9.419344e+001
3.884229e+002, 9.467805e+001
3.889051e+002, 9.515737e+001
3.893872e+002, 9.561462e+001
3.898693e+002, 9.603097e+001
3.903514e+002, 9.640041e+001
3.908335e+002, 9.674343e+001
3.913156e+002, 9.716037e+001
3.917978e+002, 9.788860e+001
3.922799e+002, 9.802320e+001
3.927620e+002, 9.701516e+001
3.932441e+002, 9.591827e+001
3.937262e+002, 9.519793e+001
3.942083e+002, 9.487514e+001
3.946905e+002, 9.479707e+001
3.951726e+002, 9.492771e+001
3.956547e+002, 9.521848e+001
3.961368e+002, 9.513285e+001
3.966189e+002, 9.433240e+001
3.971010e+002, 9.363595e+001
3.975832e+002, 9.339636e+001
3.980653e+002, 9.336297e+001
3.985474e+002, 9.321642e+001
3.990295e+002, 9.282663e+001
3.995116e+002, 9.229066e+001
3.999937e+002, 9.169199e+001
4.004759e+002, 9.096826e+001
4.009580e+002, 9.051669e+001
4.014401e+002, 9.080569e+001
4.019222e+002, 9.113253e+001
4.024043e+002, 9.097234e+001
4.028864e+002, 9.031016e+001
4.033686e+002, 8.955193e+001
4.038507e+002, 8.894880e+001
4.043328e+002, 8.848708e+001
4.048149e+002, 8.810025e+001
4.052970e+002, 8.776674e+001
4.057791e+002, 8.755227e+001
4.062613e+002, 8.763848e+001
4.067434e+002, 8.786640e+001
4.072255e+002, 8.788840e+001
4.077076e+002, 8.739019e+001
4.081897e+002, 8.683908e+001
4.086718e+002, 8.679286e+001
4.091540e+002, 8.723597e+001
4.096361e+002, 8.777856e+001
4.101182e+002, 8.829309e+001
4.106003e+002, 8.878484e+001
4.110824e+002, 8.927509e+001
4.115645e+002, 8.977943e+001
4.120467e+002, 9.023148e+001
4.125288e+002, 9.048637e+001
4.130109e+002, 9.069762e+001
4.134930e+002, 9.116353e+001
4.139751e+002, 9.195510e+001
4.144572e+002, 9.287872e+001
4.149394e+002, 9.375571e+001
4.154215e+002, 9.458327e+001
4.159036e+002, 9.539021e+001
4.163857e+002, 9.615430e+001
4.168678e+002, 9.691399e+001
4.173499e+002, 9.774284e+001
4.178321e+002, 9.859508e+001
4.183142e+002, 9.933169e+001
4.187963e+002, 9.987112e+001
4.192784e+002, 1.002400e+002
4.197605e+002, 1.005148e+002
4.202426e+002, 1.006394e+002
4.207248e+002, 1.007544e+002
4.212069e+002, 1.010578e+002
4.216890e+002, 1.012656e+002
4.221711e+002, 1.010599e+002
4.226532e+002, 1.003805e+002
4.231353e+002, 9.941579e+001
4.236175e+002, 9.837498e+001
4.240996e+002, 9.725443e+001
4.245817e+002, 9.608220e+001
4.250638e+002, 9.471230e+001
4.255459e+002, 9.344650e+001
4.260280e+002, 9.245964e+001
4.265102e+002, 9.166444e+001
4.269923e+002, 9.088055e+001
4.274744e+002, 9.000566e+001
4.279565e+002, 8.905968e+001
4.284386e+002, 8.810615e+001
4.289207e+002, 8.698292e+001
4.294029e+002, 8.615911e+001
4.298850e+002, 8.573973e+001
4.303671e+002, 8.556145e+001
4.308492e+002, 8.563081e+001
4.313313e+002, 8.588906e+001
4.318134e+002, 8.603664e+001
4.322956e+002, 8.563067e+001
4.327777e+002, 8.464818e+001
4.332598e+002, 8.404542e+001
4.337419e+002, 8.403440e+001
4.342241e+002, 8.417599e+001
4.347062e+002, 8.430073e+001
4.351883e+002, 8.440624e+001
4.356704e+002, 8.447108e+001
4.361525e+002, 8.441476e+001
4.366346e+002, 8.441344e+001
4.371168e+002, 8.482214e+001
4.375989e+002, 8.568718e+001
4.380810e+002, 8.646437e+001
4.385631e+002, 8.692039e+001
4.390452e+002, 8.722637e+001
4.395273e+002, 8.757396e+001
4.400095e+002, 8.796997e+001
4.404916e+002, 8.839645e+001
4.409737e+002, 8.891627e+001
4.414558e+002, 8.944749e+001
4.419379e+002, 8.980490e+001
4.424200e+002, 8.995413e+001
4.429022e+002, 9.001505e+001
4.433843e+002, 9.012906e+001
4.438664e+002, 9.024366e+001
4.443485e+002, 9.009682e+001
4.448306e+002, 8.950547e+001
4.453127e+002, 8.881224e+001
4.457949e+002, 8.809934e+001
4.462770e+002, 8.743275e+001
4.467591e+002, 8.704878e+001
4.472412e+002, 8.709403e+001
4.477233e+002, 8.725001e+001
4.482054e+002, 8.688662e+001
4.486876e+002, 8.566847e+001
4.491697e+002, 8.467893e+001
4.496518e+002, 8.404258e+001
4.501339e+002, 8.359476e+001
4.506160e+002, 8.323522e+001
4.510981e+002, 8.294693e+001
4.515803e+002, 8.275793e+001
4.520624e+002, 8.271850e+001
4.525445e+002, 8.280339e+001
4.530266e+002, 8.267501e+001
4.535087e+002, 8.196292e+001
4.539908e+002, 8.146019e+001
4.544730e+002, 8.141628e+001
4.549551e+002, 8.157793e+001
4.554372e+002, 8.165254e+001
4.559193e+002, 8.155177e+001
4.564014e+002, 8.141374e+001
4.568835e+002, 8.146939e+001
4.573657e+002, 8.179693e+001
4.578478e+002, 8.195651e+001
4.583299e+002, 8.180486e+001
4.588120e+002, 8.159827e+001
4.592941e+002, 8.140229e+001
4.597762e+002, 8.123401e+001
4.602584e+002, 8.111928e+001
4.607405e+002, 8.109680e+001
4.612226e+002, 8.110814e+001
4.617047e+002, 8.104150e+001
4.621868e+002, 8.090025e+001
4.626689e+002, 8.066029e+001
4.631511e+002, 8.024149e+001
4.636332e+002, 7.976402e+001
4.641153e+002, 7.933665e+001
4.645974e+002, 7.896600e+001
4.650795e+002, 7.863327e+001
4.655616e+002, 7.827709e+001
4.660438e+002, 7.795672e+001
4.665259e+002, 7.786948e+001
4.670080e+002, 7.808749e+001
4.674901e+002, 7.823752e+001
4.679722e+002, 7.798347e+001
4.684543e+002, 7.739961e+001
4.689365e+002, 7.690693e+001
4.694186e+002, 7.647228e+001
4.699007e+002, 7.618261e+001
4.703828e+002, 7.613303e+001
4.708649e+002, 7.626138e+001
4.713470e+002, 7.646337e+001
4.718292e+002, 7.671145e+001
4.723113e+002, 7.693571e+001
4.727934e+002, 7.702166e+001
4.732755e+002, 7.690051e+001
4.737576e+002, 7.682848e+001
4.742397e+002, 7.676324e+001
4.747219e+002, 7.678080e+001
4.752040e+002, 7.690437e+001
4.756861e+002, 7.714857e+001
4.761682e+002, 7.760300e+001
4.766503e+002, 7.836405e+001
4.771324e+002, 7.925558e+001
4.776146e+002, 7.955107e+001
4.780967e+002, 7.875844e+001
4.785788e+002, 7.814607e+001
4.790609e+002, 7.783265e+001
4.795430e+002, 7.772778e+001
4.800251e+002, 7.782281e+001
4.805073e+002, 7.807970e+001
4.809894e+002, 7.836325e+001
4.814715e+002, 7.856602e+001
4.819536e+002, 7.868752e+001
4.824357e+002, 7.870278e+001
4.829178e+002, 7.854541e+001
4.834000e+002, 7.839622e+001
4.838821e+002, 7.834982e+001
4.843642e+002, 7.835204e+001
4.848463e+002, 7.834768e+001
4.853284e+002, 7.833838e+001
4.858105e+002, 7.825942e+001
4.862927e+002, 7.786728e+001
4.867748e+002, 7.727172e+001
4.872569e+002, 7.725813e+001
4.877390e+002, 7.823119e+001
4.882211e+002, 7.933476e+001
4.887032e+002, 7.955347e+001
4.891854e+002, 7.904468e+001
4.896675e+002, 7.859152e+001
4.901496e+002, 7.846568e+001
4.906317e+002, 7.835079e+001
4.911138e+002, 7.792690e+001
4.915959e+002, 7.727834e+001
4.920781e+002, 7.674901e+001
4.925602e+002, 7.651651e+001
4.930423e+002, 7.645970e+001
4.935244e+002, 7.629967e+001
4.940065e+002, 7.584087e+001
4.944886e+002, 7.566939e+001
4.949708e+002, 7.606619e+001
4.954529e+002, 7.655791e+001
4.959350e+002, 7.678049e+001
4.964171e+002, 7.674378e+001
4.968992e+002, 7.668144e+001
4.973813e+002, 7.677480e+001
4.978635e+002, 7.698952e+001
4.983456e+002, 7.709827e+001
4.988277e+002, 7.683479e+001
4.993098e+002, 7.687981e+001
4.997919e+002, 7.768320e+001
5.002740e+002, 7.858800e+001
5.007562e+002, 7.897604e+001
5.012383e+002, 7.876247e+001
5.017204e+002, 7.837914e+001
5.022025e+002, 7.825938e+001
5.026846e+002, 7.837482e+001
5.031667e+002, 7.838448e+001
5.036489e+002, 7.826579e+001
5.041310e+002, 7.807616e+001
5.046131e+002, 7.782996e+001
5.050952e+002, 7.754197e+001
5.055773e+002, 7.722311e+001
5.060594e+002, 7.686341e+001
5.065416e+002, 7.650703e+001
5.070237e+002, 7.623028e+001
5.075058e+002, 7.599366e+001
5.079879e+002, 7.563191e+001
5.084700e+002, 7.507536e+001
5.089521e+002, 7.450474e+001
5.094343e+002, 7.412778e+001
5.099164e+002, 7.394713e+001
5.103985e+002, 7.370602e+001
5.108806e+002, 7.331992e+001
5.113627e+002, 7.294026e+001
5.118448e+002, 7.262328e+001
5.123270e+002, 7.238066e+001
5.128091e+002, 7.223356e+001
5.132912e+002, 7.219407e+001
5.137733e+002, 7.222639e+001
5.142554e+002, 7.228031e+001
5.147375e+002, 7.245109e+001
5.152197e+002, 7.240519e+001
5.157018e+002, 7.197386e+001
5.161839e+002, 7.151662e+001
5.166660e+002, 7.119071e+001
5.171481e+002, 7.099309e+001
5.176302e+002, 7.088253e+001
5.181124e+002, 7.084707e+001
5.185945e+002, 7.084059e+001
5.190766e+002, 7.070513e+001
5.195587e+002, 7.033935e+001
5.200408e+002, 7.017160e+001
5.205229e+002, 7.054081e+001
5.210051e+002, 7.095419e+001
5.214872e+002, 7.110307e+001
5.219693e+002, 7.098634e+001
5.224514e+002, 7.075511e+001
5.229335e+002, 7.036982e+001
5.234156e+002, 6.997178e+001
5.238978e+002, 6.986325e+001
5.243799e+002, 7.005998e+001
5.248620e+002, 7.032030e+001
5.253441e+002, 7.061794e+001
5.258262e+002, 7.083773e+001
5.263083e+002, 7.071602e+001
5.267905e+002, 7.014468e+001
5.272726e+002, 6.963342e+001
5.277547e+002, 6.932149e+001
5.282368e+002, 6.915220e+001
5.287189e+002, 6.910153e+001
5.292010e+002, 6.914914e+001
5.296832e+002, 6.921773e+001
5.301653e+002, 6.924922e+001
5.306474e+002, 6.925127e+001
5.311295e+002, 6.927913e+001
5.316116e+002, 6.942384e+001
5.320938e+002, 6.947504e+001
5.325759e+002, 6.928673e+001
5.330580e+002, 6.907619e+001
5.335401e+002, 6.907934e+001
5.340222e+002, 6.930138e+001
5.345043e+002, 6.952560e+001
5.349865e+002, 6.953618e+001
5.354686e+002, 6.935287e+001
5.359507e+002, 6.919714e+001
5.364328e+002, 6.901945e+001
5.369149e+002, 6.896696e+001
5.373970e+002, 6.927979e+001
5.378792e+002, 6.964635e+001
5.383613e+002, 6.970139e+001
5.388434e+002, 6.935532e+001
5.393255e+002, 6.893708e+001
5.398076e+002, 6.861886e+001
5.402897e+002, 6.842358e+001
5.407719e+002, 6.848726e+001
5.412540e+002, 6.887708e+001
5.417361e+002, 6.917785e+001
5.422182e+002, 6.901646e+001
5.427003e+002, 6.851065e+001
5.431824e+002, 6.826381e+001
5.436646e+002, 6.849963e+001
5.441467e+002, 6.869738e+001
5.446288e+002, 6.859319e+001
5.451109e+002, 6.838356e+001
5.455930e+002, 6.834511e+001
5.460751e+002, 6.852909e+001
5.465573e+002, 6.877772e+001
5.470394e+002, 6.893076e+001
5.475215e+002, 6.898421e+001
5.480036e+002, 6.906682e+001
5.484857e+002, 6.931571e+001
5.489678e+002, 6.943156e+001
5.494500e+002, 6.924037e+001
5.499321e+002, 6.894763e+001
5.504142e+002, 6.877450e+001
5.508963e+002, 6.877818e+001
5.513784e+002, 6.886279e+001
5.518605e+002, 6.895601e+001
5.523427e+002, 6.905244e+001
5.528248e+002, 6.905576e+001
5.533069e+002, 6.890231e+001
5.537890e+002, 6.878043e+001
5.542711e+002, 6.888241e+001
5.547532e+002, 6.905938e+001
5.552354e+002, 6.907845e+001
5.557175e+002, 6.885051e+001
5.561996e+002, 6.860064e+001
5.566817e+002, 6.850060e+001
5.571638e+002, 6.847519e+001
5.576459e+002, 6.834227e+001
5.581281e+002, 6.806693e+001
5.586102e+002, 6.782261e+001
5.590923e+002, 6.779075e+001
5.595744e+002, 6.795314e+001
5.600565e+002, 6.791718e+001
5.605386e+002, 6.742738e+001
5.610208e+002, 6.708943e+001
5.615029e+002, 6.710548e+001
5.619850e+002, 6.731488e+001
5.624671e+002, 6.762643e+001
5.629492e+002, 6.796964e+001
5.634313e+002, 6.813012e+001
5.639135e+002, 6.778767e+001
5.643956e+002, 6.695965e+001
5.648777e+002, 6.667965e+001
5.653598e+002, 6.736330e+001
5.658419e+002, 6.794337e+001
5.663240e+002, 6.811358e+001
5.668062e+002, 6.801875e+001
5.672883e+002, 6.770754e+001
5.677704e+002, 6.718456e+001
5.682525e+002, 6.680775e+001
5.687346e+002, 6.700517e+001
5.692167e+002, 6.755540e+001
5.696989e+002, 6.780225e+001
5.701810e+002, 6.765346e+001
5.706631e+002, 6.750722e+001
5.711452e+002, 6.762452e+001
5.716273e+002, 6.793499e+001
5.721094e+002, 6.818322e+001
5.725916e+002, 6.835122e+001
5.730737e+002, 6.849505e+001
5.735558e+002, 6.864935e+001
5.740379e+002, 6.877571e+001
5.745200e+002, 6.875676e+001
5.750021e+002, 6.862768e+001
5.754843e+002, 6.863451e+001
5.759664e+002, 6.899275e+001
5.764485e+002, 6.963764e+001
5.769306e+002, 7.017261e+001
5.774127e+002, 7.051558e+001
5.778948e+002, 7.087321e+001
5.783770e+002, 7.114019e+001
5.788591e+002, 7.152254e+001
5.793412e+002, 7.226116e+001
5.798233e+002, 7.331384e+001
5.803054e+002, 7.435892e+001
5.807875e+002, 7.515112e+001
5.812697e+002, 7.577122e+001
5.817518e+002, 7.633507e+001
5.822339e+002, 7.680798e+001
5.827161e+002, 7.756602e+001
5.831982e+002, 7.885409e+001
5.836803e+002, 8.041956e+001
5.841624e+002, 8.185120e+001
5.846445e+002, 8.312933e+001
5.851266e+002, 8.455749e+001
5.856088e+002, 8.607291e+001
5.860909e+002, 8.788268e+001
5.865730e+002, 9.024951e+001
5.870551e+002, 9.308469e+001
5.875372e+002, 9.610815e+001
5.880193e+002, 9.915791e+001
5.885015e+002, 1.022557e+002
5.889836e+002, 1.054345e+002
5.894657e+002, 1.086887e+002
5.899478e+002, 1.120456e+002
5.904299e+002, 1.155684e+002
5.909120e+002, 1.191324e+002
5.913942e+002, 1.229665e+002
5.918763e+002, 1.267501e+002
5.923584e+002, 1.298846e+002
5.928405e+002, 1.320962e+002
5.933226e+002, 1.335010e+002
5.938047e+002, 1.344045e+002
5.942869e+002, 1.347959e+002
5.947690e+002, 1.339043e+002
5.952511e+002, 1.313210e+002
5.957332e+002, 1.278921e+002
5.962153e+002, 1.240962e+002
5.966974e+002, 1.200133e+002
5.971796e+002, 1.159039e+002
5.976617e+002, 1.115495e+002
5.981438e+002, 1.074279e+002
5.986259e+002, 1.038810e+002
5.991080e+002, 1.007162e+002
5.995901e+002, 9.754952e+001
6.000723e+002, 9.429939e+001
6.005544e+002, 9.126646e+001
6.010365e+002, 8.878771e+001
6.015186e+002, 8.687017e+001
6.020007e+002, 8.506667e+001
6.024828e+002, 8.342265e+001
6.029650e+002, 8.184133e+001
6.034471e+002, 8.018982e+001
6.039292e+002, 7.866516e+001
6.044113e+002, 7.750842e+001
6.048934e+002, 7.673921e+001
6.053755e+002, 7.607131e+001
6.058577e+002, 7.524714e+001
6.063398e+002, 7.432329e+001
6.068219e+002, 7.347255e+001
6.073040e+002, 7.267494e+001
6.077861e+002, 7.207520e+001
6.082682e+002, 7.179770e+001
6.087504e+002, 7.171633e+001
6.092325e+002, 7.163663e+001
6.097146e+002, 7.158503e+001
6.101967e+002, 7.140007e+001
6.106788e+002, 7.091813e+001
6.111609e+002, 7.037456e+001
6.116431e+002, 6.995483e+001
6.121252e+002, 6.966283e+001
6.126073e+002, 6.945873e+001
6.130894e+002, 6.932444e+001
6.135715e+002, 6.924361e+001
6.140536e+002, 6.917819e+001
6.145358e+002, 6.911112e+001
6.150179e+002, 6.910459e+001
6.155000e+002, 6.931350e+001
6.159821e+002, 6.942876e+001
6.164642e+002, 6.914049e+001
6.169464e+002, 6.869701e+001
6.174285e+002, 6.861413e+001
6.179106e+002, 6.916214e+001
6.183927e+002, 6.985056e+001
6.188748e+002, 7.015107e+001
6.193569e+002, 7.010645e+001
6.198391e+002, 6.989257e+001
6.203212e+002, 6.947729e+001
6.208033e+002, 6.914680e+001
6.212854e+002, 6.916382e+001
6.217675e+002, 6.947558e+001
6.222496e+002, 6.972218e+001
6.227318e+002, 6.989622e+001
6.232139e+002, 7.001640e+001
6.236960e+002, 7.007358e+001
6.241781e+002, 7.008517e+001
6.246602e+002, 7.008206e+001
6.251423e+002, 7.005827e+001
6.256245e+002, 6.996038e+001
6.261066e+002, 6.973257e+001
6.265887e+002, 6.941166e+001
6.270708e+002, 6.915506e+001
6.275529e+002, 6.896027e+001
6.280350e+002, 6.883851e+001
6.285172e+002, 6.897480e+001
6.289993e+002, 6.904131e+001
6.294814e+002, 6.879677e+001
6.299635e+002, 6.827135e+001
6.304456e+002, 6.767301e+001
6.309277e+002, 6.692503e+001
6.314099e+002, 6.629111e+001
6.318920e+002, 6.620663e+001
6.323741e+002, 6.652351e+001
6.328562e+002, 6.660886e+001
6.333383e+002, 6.624619e+001
6.338204e+002, 6.573181e+001
6.343026e+002, 6.542287e+001
6.347847e+002, 6.535287e+001
6.352668e+002, 6.516871e+001
6.357489e+002, 6.472163e+001
6.362310e+002, 6.435282e+001
6.367131e+002, 6.421367e+001
6.371953e+002, 6.417988e+001
6.376774e+002, 6.412687e+001
6.381595e+002, 6.401727e+001
6.386416e+002, 6.384876e+001
6.391237e+002, 6.357054e+001
6.396058e+002, 6.322758e+001
6.400880e+002, 6.306730e+001
6.405701e+002, 6.313106e+001
6.410522e+002, 6.322161e+001
6.415343e+002, 6.333694e+001
6.420164e+002, 6.337997e+001
6.424985e+002, 6.316142e+001
6.429807e+002, 6.265051e+001
6.434628e+002, 6.234111e+001
6.439449e+002, 6.262452e+001
6.444270e+002, 6.294775e+001
6.449091e+002, 6.277318e+001
6.453912e+002, 6.226401e+001
6.458734e+002, 6.190076e+001
6.463555e+002, 6.188042e+001
6.468376e+002, 6.203609e+001
6.473197e+002, 6.211650e+001
6.478018e+002, 6.210333e+001
6.482839e+002, 6.211974e+001
6.487661e+002, 6.218452e+001
6.492482e+002, 6.225666e+001
6.497303e+002, 6.237525e+001
6.502124e+002, 6.246982e+001
6.506945e+002, 6.243034e+001
6.511766e+002, 6.223043e+001
6.516588e+002, 6.202502e+001
6.521409e+002, 6.191295e+001
6.526230e+002, 6.188418e+001
6.531051e+002, 6.197482e+001
6.535872e+002, 6.217891e+001
6.540693e+002, 6.223991e+001
6.545515e+002, 6.196598e+001
6.550336e+002, 6.156538e+001
6.555157e+002, 6.149107e+001
6.559978e+002, 6.197055e+001
6.564799e+002, 6.224620e+001
6.569620e+002, 6.208313e+001
6.574442e+002, 6.194373e+001
6.579263e+002, 6.214808e+001
6.584084e+002, 6.253532e+001
6.588905e+002, 6.279484e+001
6.593726e+002, 6.279995e+001
6.598547e+002, 6.268233e+001
6.603369e+002, 6.259157e+001
6.608190e+002, 6.252766e+001
6.613011e+002, 6.249995e+001
6.617832e+002, 6.252980e+001
6.622653e+002, 6.253120e+001
6.627474e+002, 6.237428e+001
6.632296e+002, 6.219556e+001
6.637117e+002, 6.228367e+001
6.641938e+002, 6.274444e+001
6.646759e+002, 6.313389e+001
6.651580e+002, 6.329770e+001
6.656401e+002, 6.334460e+001
6.661223e+002, 6.337673e+001
6.666044e+002, 6.338379e+001
6.670865e+002, 6.326908e+001
6.675686e+002, 6.297522e+001
6.680507e+002, 6.264495e+001
6.685328e+002, 6.256535e+001
6.690150e+002, 6.280009e+001
6.694971e+002, 6.301579e+001
6.699792e+002, 6.323957e+001
6.704613e+002, 6.339925e+001
6.709434e+002, 6.347490e+001
6.714255e+002, 6.347050e+001
6.719077e+002, 6.335067e+001
6.723898e+002, 6.306515e+001
6.728719e+002, 6.289375e+001
6.733540e+002, 6.307727e+001
6.738361e+002, 6.345796e+001
6.743182e+002, 6.381263e+001
6.748004e+002, 6.412196e+001
6.752825e+002, 6.442768e+001
6.757646e+002, 6.476174e+001
6.762467e+002, 6.507771e+001
6.767288e+002, 6.525439e+001
6.772109e+002, 6.514645e+001
6.776931e+002, 6.524454e+001
6.781752e+002, 6.565659e+001
6.786573e+002, 6.614272e+001
6.791394e+002, 6.660061e+001
6.796215e+002, 6.706237e+001
6.801036e+002, 6.757543e+001
6.805858e+002, 6.815023e+001
6.810679e+002, 6.881853e+001
6.815500e+002, 6.966638e+001
6.820321e+002, 7.062039e+001
6.825142e+002, 7.140429e+001
6.829963e+002, 7.197369e+001
6.834785e+002, 7.280430e+001
6.839606e+002, 7.422059e+001
6.844427e+002, 7.599744e+001
6.849248e+002, 7.760547e+001
6.854069e+002, 7.879921e+001
6.858890e+002, 8.041237e+001
6.863712e+002, 8.265530e+001
6.868533e+002, 8.512645e+001
6.873354e+002, 8.762016e+001
6.878175e+002, 9.019256e+001
6.882996e+002, 9.299683e+001
6.887817e+002, 9.608968e+001
6.892639e+002, 9.935514e+001
6.897460e+002, 1.025673e+002
6.902281e+002, 1.057965e+002
6.907102e+002, 1.094731e+002
6.911923e+002, 1.136976e+002
6.916744e+002, 1.179440e+002
6.921566e+002, 1.219756e+002
6.926387e+002, 1.258336e+002
6.931208e+002, 1.296182e+002
6.936029e+002, 1.335069e+002
6.940850e+002, 1.366664e+002
6.945671e+002, 1.390172e+002
6.950493e+002, 1.405464e+002
6.955314e+002, 1.414304e+002
6.960135e+002, 1.414360e+002
6.964956e+002, 1.400846e+002
6.969777e+002, 1.372256e+002
6.974598e+002, 1.332301e+002
6.979420e+002, 1.283388e+002
6.984241e+002, 1.225943e+002
6.989062e+002, 1.171145e+002
6.993883e+002, 1.119619e+002
6.998704e+002, 1.068935e+002
7.003525e+002, 1.016424e+002
7.008347e+002, 9.660477e+001
7.013168e+002, 9.233243e+001
7.017989e+002, 8.889739e+001
7.022810e+002, 8.565200e+001
7.027631e+002, 8.235795e+001
7.032452e+002, 7.929472e+001
7.037274e+002, 7.661645e+001
7.042095e+002, 7.434504e+001
7.046916e+002, 7.254661e+001
7.051737e+002, 7.123637e+001
7.056558e+002, 7.027690e+001
7.061379e+002, 6.958244e+001
7.066201e+002, 6.912988e+001
7.071022e+002, 6.848026e+001
7.075843e+002, 6.755774e+001
7.080664e+002, 6.660540e+001
7.085485e+002, 6.551618e+001
7.090306e+002, 6.457240e+001
7.095128e+002, 6.415865e+001
7.099949e+002, 6.423055e+001
7.104770e+002, 6.413425e+001
7.109591e+002, 6.349128e+001
7.114412e+002, 6.277339e+001
7.119233e+002, 6.235120e+001
7.124055e+002, 6.209747e+001
7.128876e+002, 6.174134e+001
7.133697e+002, 6.122818e+001
7.138518e+002, 6.073938e+001
7.143339e+002, 6.046362e+001
7.148160e+002, 6.036859e+001
7.152982e+002, 6.021347e+001
7.157803e+002, 5.995325e+001
7.162624e+002, 5.973875e+001
7.167445e+002, 5.963119e+001
7.172266e+002, 5.955388e+001
7.177087e+002, 5.944334e+001
7.181909e+002, 5.931330e+001
7.186730e+002, 5.923307e+001
7.191551e+002, 5.930702e+001
7.196372e+002, 5.932426e+001
7.201193e+002, 5.904917e+001
7.206014e+002, 5.865242e+001
7.210836e+002, 5.843195e+001
7.215657e+002, 5.842674e+001
7.220478e+002, 5.848678e+001
7.225299e+002, 5.850201e+001
7.230120e+002, 5.849008e+001
7.234941e+002, 5.853038e+001
7.239763e+002, 5.868695e+001
7.244584e+002, 5.871443e+001
7.249405e+002, 5.846014e+001
7.254226e+002, 5.820881e+001
7.259047e+002, 5.813305e+001
7.263868e+002, 5.816834e+001
7.268690e+002, 5.816465e+001
7.273511e+002, 5.806203e+001
7.278332e+002, 5.799107e+001
7.283153e+002, 5.807185e+001
7.287974e+002, 5.820742e+001
7.292795e+002, 5.824973e+001
7.297617e+002, 5.820746e+001
7.302438e+002, 5.821790e+001
7.307259e+002, 5.836532e+001
7.312080e+002, 5.853626e+001
7.316901e+002, 5.845750e+001
7.321722e+002, 5.800867e+001
7.326544e+002, 5.783155e+001
7.331365e+002, 5.817083e+001
7.336186e+002, 5.844381e+001
7.341007e+002, 5.845385e+001
7.345828e+002, 5.824899e+001
7.350649e+002, 5.780825e+001
7.355471e+002, 5.710080e+001
7.360292e+002, 5.653947e+001
7.365113e+002, 5.637490e+001
7.369934e+002, 5.640239e+001
7.374755e+002, 5.643706e+001
7.379576e+002, 5.648894e+001
7.384398e+002, 5.667215e+001
7.389219e+002, 5.702013e+001
7.394040e+002, 5.729322e+001
7.398861e+002, 5.714432e+001
7.403682e+002, 5.658422e+001
7.408503e+002, 5.634923e+001
7.413325e+002, 5.661652e+001
7.418146e+002, 5.683516e+001
7.422967e+002, 5.678623e+001
7.427788e+002, 5.667402e+001
7.432609e+002, 5.665448e+001
7.437430e+002, 5.672736e+001
7.442252e+002, 5.683819e+001
7.447073e+002, 5.715514e+001
7.451894e+002, 5.731070e+001
7.456715e+002, 5.688073e+001
7.461536e+002, 5.620813e+001
7.466357e+002, 5.584232e+001
7.471179e+002, 5.586280e+001
7.476000e+002, 5.602770e+001
7.480821e+002, 5.616731e+001
7.485642e+002, 5.627172e+001
7.490463e+002, 5.630385e+001
7.495284e+002, 5.625241e+001
7.500106e+002, 5.618005e+001
7.504927e+002, 5.606620e+001
7.509748e+002, 5.597318e+001
7.514569e+002, 5.602735e+001
7.519390e+002, 5.612134e+001
7.524211e+002, 5.598712e+001
7.529033e+002, 5.544684e+001
7.533854e+002, 5.502989e+001
7.538675e+002, 5.502166e+001
7.543496e+002, 5.514972e+001
7.548317e+002, 5.515476e+001
7.553138e+002, 5.506757e+001
7.557960e+002, 5.503447e+001
7.562781e+002, 5.512252e+001
7.567602e+002, 5.530908e+001
7.572423e+002, 5.566821e+001
7.577244e+002, 5.618166e+001
7.582065e+002, 5.619777e+001
7.586887e+002, 5.551788e+001
7.591708e+002, 5.500078e+001
7.596529e+002, 5.512093e+001
7.601350e+002, 5.550518e+001
7.606171e+002, 5.558119e+001
7.610992e+002, 5.532967e+001
7.615814e+002, 5.514024e+001
7.620635e+002, 5.506563e+001
7.625456e+002, 5.505745e+001
7.630277e+002, 5.517878e+001
7.635098e+002, 5.530975e+001
7.639919e+002, 5.524968e+001
7.644741e+002, 5.500353e+001
7.649562e+002, 5.480922e+001
7.654383e+002, 5.485754e+001
7.659204e+002, 5.507467e+001
7.664025e+002, 5.532831e+001
7.668846e+002, 5.561466e+001
7.673668e+002, 5.584778e+001
7.678489e+002, 5.600745e+001
7.683310e+002, 5.611489e+001
7.688131e+002, 5.617287e+001
7.692952e+002, 5.619260e+001
7.697773e+002, 5.624034e+001
7.702595e+002, 5.622526e+001
7.707416e+002, 5.636903e+001
7.712237e+002, 5.688145e+001
7.717058e+002, 5.737207e+001
7.721879e+002, 5.758036e+001
7.726700e+002, 5.757519e+001
7.731522e+002, 5.749440e+001
7.736343e+002, 5.737480e+001
7.741164e+002, 5.736450e+001
7.745985e+002, 5.769461e+001
7.750806e+002, 5.821275e+001
7.755627e+002, 5.856252e+001
7.760449e+002, 5.873746e+001
7.765270e+002, 5.895630e+001
7.770091e+002, 5.935138e+001
7.774912e+002, 5.965229e+001
7.779733e+002, 5.940208e+001
7.784554e+002, 5.849506e+001
7.789376e+002, 5.790382e+001
7.794197e+002, 5.790952e+001
7.799019e+002, 5.784958e+001
7.803840e+002, 5.755816e+001
7.808661e+002, 5.716560e+001
7.813482e+002, 5.674731e+001
7.818303e+002, 5.632765e+001
7.823124e+002, 5.597807e+001
7.827946e+002, 5.572942e+001
7.832767e+002, 5.555630e+001
7.837588e+002, 5.544009e+001
7.842409e+002, 5.538317e+001
7.847230e+002, 5.548563e+001
7.852051e+002, 5.570341e+001
7.856873e+002, 5.567561e+001
7.861694e+002, 5.511963e+001
7.866515e+002, 5.427577e+001
7.871336e+002, 5.376494e+001
7.876157e+002, 5.364365e+001
7.880978e+002, 5.355690e+001
7.885800e+002, 5.346579e+001
7.890621e+002, 5.343912e+001
7.895442e+002, 5.355726e+001
7.900263e+002, 5.374689e+001
7.905084e+002, 5.391317e+001
7.909905e+002, 5.407018e+001
7.914727e+002, 5.410773e+001
7.919548e+002, 5.386383e+001
7.924369e+002, 5.362797e+001
7.929190e+002, 5.364729e+001
7.934011e+002, 5.377584e+001
7.938832e+002, 5.376954e+001
7.943654e+002, 5.356763e+001
7.948475e+002, 5.325442e+001
7.953296e+002, 5.283684e+001
7.958117e+002, 5.241463e+001
7.962938e+002, 5.228325e+001
7.967759e+002, 5.243783e+001
7.972581e+002, 5.268948e+001
7.977402e+002, 5.303910e+001
7.982223e+002, 5.329557e+001
7.987044e+002, 5.328128e+001
7.991865e+002, 5.302909e+001
7.996686e+002, 5.273950e+001
8.001508e+002, 5.218705e+001
8.006329e+002, 5.192782e+001
8.011150e+002, 5.223117e+001
8.015971e+002, 5.257283e+001
8.020792e+002, 5.256694e+001
8.025613e+002, 5.241158e+001
8.030435e+002, 5.258483e+001
8.035256e+002, 5.326453e+001
8.040077e+002, 5.376116e+001
8.044898e+002, 5.334707e+001
8.049719e+002, 5.257364e+001
8.054540e+002, 5.219640e+001
8.059362e+002, 5.219503e+001
8.064183e+002, 5.239093e+001
8.069004e+002, 5.271934e+001
8.073825e+002, 5.294041e+001
8.078646e+002, 5.272572e+001
8.083467e+002, 5.212880e+001
8.088289e+002, 5.185710e+001
8.093110e+002, 5.203405e+001
8.097931e+002, 5.219873e+001
8.102752e+002, 5.219641e+001
8.107573e+002, 5.221611e+001
8.112394e+002, 5.249195e+001
8.117216e+002, 5.291681e+001
8.122037e+002, 5.312937e+001
8.126858e+002, 5.302663e+001
8.131679e+002, 5.281331e+001
8.136500e+002, 5.242540e+001
8.141321e+002, 5.206282e+001
8.146143e+002, 5.192669e+001
8.150964e+002, 5.196143e+001
8.155785e+002, 5.198724e+001
8.160606e+002, 5.193275e+001
8.165427e+002, 5.192445e+001
8.170248e+002, 5.221296e+001
8.175070e+002, 5.266159e+001
8.179891e+002, 5.269769e+001
8.184712e+002, 5.231505e+001
8.189533e+002, 5.216323e+001
8.194354e+002, 5.253601e+001
8.199175e+002, 5.296046e+001
8.203997e+002, 5.283994e+001
8.208818e+002, 5.218858e+001
8.213639e+002, 5.186335e+001
8.218460e+002, 5.218755e+001
8.223281e+002, 5.235991e+001
8.228102e+002, 5.213898e+001
8.232924e+002, 5.189163e+001
8.237745e+002, 5.186857e+001
8.242566e+002, 5.201315e+001
8.247387e+002, 5.216901e+001
8.252208e+002, 5.233368e+001
8.257029e+002, 5.236653e+001
8.261851e+002, 5.203266e+001
8.266672e+002, 5.162609e+001
8.271493e+002, 5.156398e+001
8.276314e+002, 5.174376e+001
8.281135e+002, 5.173595e+001
8.285956e+002, 5.138264e+001
8.290778e+002, 5.098612e+001
8.295599e+002, 5.092198e+001
8.300420e+002, 5.114455e+001
8.305241e+002, 5.137998e+001
8.310062e+002, 5.164818e+001
8.314883e+002, 5.177122e+001
8.319705e+002, 5.164964e+001
8.324526e+002, 5.146738e+001
8.329347e+002, 5.139634e+001
8.334168e+002, 5.142377e+001
8.338989e+002, 5.142907e+001
8.343810e+002, 5.132141e+001
8.348632e+002, 5.132505e+001
8.353453e+002, 5.160791e+001
8.358274e+002, 5.186489e+001
8.363095e+002, 5.185665e+001
8.367916e+002, 5.169452e+001
8.372737e+002, 5.160792e+001
8.377559e+002, 5.166601e+001
8.382380e+002, 5.177508e+001
8.387201e+002, 5.195955e+001
8.392022e+002, 5.209380e+001
8.396843e+002, 5.192572e+001
8.401664e+002, 5.155581e+001
8.406486e+002, 5.132642e+001
8.411307e+002, 5.133622e+001
8.416128e+002, 5.139987e+001
8.420949e+002, 5.133278e+001
8.425770e+002, 5.116631e+001
8.430591e+002, 5.103061e+001
8.435413e+002, 5.091175e+001
8.440234e+002, 5.090297e+001
8.445055e+002, 5.106070e+001
8.449876e+002, 5.125733e+001
8.454697e+002, 5.147804e+001
8.459518e+002, 5.165593e+001
8.464340e+002, 5.156528e+001
8.469161e+002, 5.100932e+001
8.473982e+002, 5.072339e+001
8.478803e+002, 5.101226e+001
8.483624e+002, 5.134120e+001
8.488445e+002, 5.150767e+001
8.493267e+002, 5.151620e+001
8.498088e+002, 5.132075e+001
8.502909e+002, 5.095594e+001
8.507730e+002, 5.070015e+001
8.512551e+002, 5.082402e+001
8.517372e+002, 5.105678e+001
8.522194e+002, 5.104323e+001
8.527015e+002, 5.088581e+001
8.531836e+002, 5.085707e+001
8.536657e+002, 5.099039e+001
8.541478e+002, 5.110690e+001
8.546299e+002, 5.108274e+001
8.551121e+002, 5.098149e+001
8.555942e+002, 5.096345e+001
8.560763e+002, 5.105105e+001
8.565584e+002, 5.101013e+001
8.570405e+002, 5.075951e+001
8.575226e+002, 5.057557e+001
8.580048e+002, 5.059632e+001
8.584869e+002, 5.072868e+001
8.589690e+002, 5.086184e+001
8.594511e+002, 5.099975e+001
8.599332e+002, 5.107406e+001
8.604153e+002, 5.107446e+001
8.608975e+002, 5.102110e+001
8.613796e+002, 5.083170e+001
8.618617e+002, 5.066078e+001
8.623438e+002, 5.070221e+001
8.628259e+002, 5.088246e+001
8.633080e+002, 5.092700e+001
8.637902e+002, 5.067823e+001
8.642723e+002, 5.045656e+001
8.647544e+002, 5.058174e+001
8.652365e+002, 5.087492e+001
8.657186e+002, 5.109054e+001
8.662007e+002, 5.121417e+001
8.666829e+002, 5.129951e+001
8.671650e+002, 5.136352e+001
8.676471e+002, 5.129049e+001
8.681292e+002, 5.086857e+001
8.686113e+002, 5.020866e+001
8.690934e+002, 5.006118e+001
8.695756e+002, 5.053011e+001
8.700577e+002, 5.071349e+001
8.705398e+002, 5.027793e+001
8.710219e+002, 4.986141e+001
8.715040e+002, 5.004515e+001
8.719861e+002, 5.062515e+001
8.724683e+002, 5.083833e+001
8.729504e+002, 5.042973e+001
8.734325e+002, 5.012321e+001
8.739146e+002, 5.003260e+001
8.743967e+002, 4.992070e+001
8.748788e+002, 4.955743e+001
8.753610e+002, 4.918534e+001
8.758431e+002, 4.917392e+001
8.763252e+002, 4.954581e+001
8.768073e+002, 4.987619e+001
8.772894e+002, 4.995094e+001
8.777715e+002, 4.992435e+001
8.782537e+002, 4.981315e+001
8.787358e+002, 4.972792e+001
8.792179e+002, 4.991901e+001
8.797000e+002, 5.033194e+001
8.801821e+002, 5.059987e+001
8.806642e+002, 5.050434e+001
8.811464e+002, 5.027268e+001
8.816285e+002, 5.029561e+001
8.821106e+002, 5.050343e+001
8.825927e+002, 5.043696e+001
8.830748e+002, 5.006559e+001
8.835569e+002, 4.986532e+001
8.840391e+002, 5.005593e+001
8.845212e+002, 5.031416e+001
8.850033e+002, 5.019361e+001
8.854854e+002, 4.973911e+001
8.859675e+002, 4.989821e+001
8.864496e+002, 5.133390e+001
8.869318e+002, 5.205877e+001
8.874139e+002, 5.115193e+001
8.878960e+002, 5.018143e+001
8.883781e+002, 5.015480e+001
8.888602e+002, 5.064758e+001
8.893423e+002, 5.080390e+001
8.898245e+002, 5.047200e+001
8.903066e+002, 5.008665e+001
8.907887e+002, 4.959047e+001
8.912708e+002, 4.926496e+001
8.917529e+002, 4.941636e+001
8.922350e+002, 4.976588e+001
8.927172e+002, 4.999071e+001
8.931993e+002, 5.001239e+001
8.936814e+002, 4.981933e+001
8.941635e+002, 4.928433e+001
8.946456e+002, 4.878130e+001
8.951277e+002, 4.893503e+001
8.956099e+002, 4.941685e+001
8.960920e+002, 4.935715e+001
8.965741e+002, 4.878288e+001
8.970562e+002, 4.851176e+001
8.975383e+002, 4.894484e+001
8.980204e+002, 4.960295e+001
8.985026e+002, 4.978048e+001
8.989847e+002, 4.951865e+001
8.994668e+002, 4.936967e+001
8.999489e+002, 4.936128e+001
9.004310e+002, 4.927428e+001
9.009131e+002, 4.896581e+001
9.013953e+002, 4.877796e+001
9.018774e+002, 4.910744e+001
9.023595e+002, 4.978752e+001
9.028416e+002, 5.003963e+001
9.033237e+002, 4.947651e+001
9.038058e+002, 4.919231e+001
9.042880e+002, 4.946195e+001
9.047701e+002, 4.968382e+001
9.052522e+002, 4.955098e+001
9.057343e+002, 4.927678e+001
9.062164e+002, 4.915697e+001
9.066985e+002, 4.920856e+001
9.071807e+002, 4.917009e+001
9.076628e+002, 4.875798e+001
9.081449e+002, 4.845640e+001
9.086270e+002, 4.863563e+001
9.091091e+002, 4.899395e+001
9.095912e+002, 4.926268e+001
9.100734e+002, 4.938433e+001
9.105555e+002, 4.930509e+001
9.110376e+002, 4.899236e+001
9.115197e+002, 4.868393e+001
9.120018e+002, 4.866063e+001
9.124839e+002, 4.881114e+001
9.129661e+002, 4.888195e+001
9.134482e+002, 4.890301e+001
9.139303e+002, 4.913365e+001
9.144124e+002, 4.963274e+001
9.148945e+002, 4.992188e+001
9.153766e+002, 4.951093e+001
9.158588e+002, 4.871646e+001
9.163409e+002, 4.862151e+001
9.168230e+002, 4.933108e+001
9.173051e+002, 4.971113e+001
9.177872e+002, 4.958545e+001
9.182693e+002, 4.939287e+001
9.187515e+002, 4.932278e+001
9.192336e+002, 4.933160e+001
9.197157e+002, 4.935347e+001
9.201978e+002, 4.938520e+001
9.206799e+002, 4.946140e+001
9.211620e+002, 4.957477e+001
9.216442e+002, 4.974379e+001
9.221263e+002, 5.006252e+001
9.226084e+002, 5.035134e+001
9.230905e+002, 5.054076e+001
9.235726e+002, 5.059797e+001
9.240547e+002, 5.041014e+001
9.245369e+002, 4.985510e+001
9.250190e+002, 4.948593e+001
9.255011e+002, 4.963863e+001
9.259832e+002, 4.989581e+001
9.264653e+002, 4.999195e+001
9.269474e+002, 5.001118e+001
9.274296e+002, 5.012300e+001
9.279117e+002, 5.032343e+001
9.283938e+002, 5.043809e+001
9.288759e+002, 5.034898e+001
9.293580e+002, 5.017259e+001
9.298401e+002, 4.999510e+001
9.303223e+002, 4.984031e+001
9.308044e+002, 4.975426e+001
9.312865e+002, 4.973606e+001
9.317686e+002, 4.977999e+001
9.322507e+002, 4.988092e+001
9.327328e+002, 4.997139e+001
9.332150e+002, 4.997394e+001
9.336971e+002, 4.990284e+001
9.341792e+002, 4.978618e+001
9.346613e+002, 4.962442e+001
9.351434e+002, 4.956550e+001
9.356255e+002, 4.964848e+001
9.361077e+002, 4.975702e+001
9.365898e+002, 4.982047e+001
9.370719e+002, 4.985209e+001
9.375540e+002, 4.989685e+001
9.380361e+002, 4.998874e+001
9.385182e+002, 4.987929e+001
9.390004e+002, 4.934449e+001
9.394825e+002, 4.905516e+001
9.399646e+002, 4.941369e+001
9.404467e+002, 4.987482e+001
9.409288e+002, 4.985309e+001
9.414109e+002, 4.948699e+001
9.418931e+002, 4.939626e+001
9.423752e+002, 4.977430e+001
9.428573e+002, 5.010862e+001
9.433394e+002, 5.036271e+001
9.438215e+002, 5.053407e+001
9.443036e+002, 5.053511e+001
9.447858e+002, 5.049963e+001
9.452679e+002, 5.064861e+001
9.457500e+002, 5.097931e+001
9.462321e+002, 5.118539e+001
9.467142e+002, 5.105189e+001
9.471964e+002, 5.087000e+001
9.476785e+002, 5.069904e+001
9.481606e+002, 5.065747e+001
9.486427e+002, 5.089717e+001
9.491248e+002, 5.138241e+001
9.496069e+002, 5.205928e+001
9.500891e+002, 5.289181e+001
9.505712e+002, 5.362024e+001
9.510533e+002, 5.384974e+001
9.515354e+002, 5.392254e+001
9.520175e+002, 5.440304e+001
9.524996e+002, 5.520116e+001
9.529818e+002, 5.602862e+001
9.534639e+002, 5.685659e+001
9.539460e+002, 5.789832e+001
9.544281e+002, 5.929746e+001
9.549102e+002, 6.090678e+001
9.553923e+002, 6.241480e+001
9.558745e+002, 6.386934e+001
9.563566e+002, 6.568263e+001
9.568387e+002, 6.787611e+001
9.573208e+002, 7.016900e+001
9.578029e+002, 7.249732e+001
9.582850e+002, 7.485669e+001
9.587672e+002, 7.731100e+001
9.592493e+002, 7.972958e+001
9.597314e+002, 8.162031e+001
9.602135e+002, 8.300105e+001
9.606956e+002, 8.383836e+001
9.611777e+002, 8.429587e+001
9.616599e+002, 8.384628e+001
9.621420e+002, 8.211887e+001
9.626241e+002, 7.952066e+001
9.631062e+002, 7.633093e+001
9.635883e+002, 7.255925e+001
9.640704e+002, 6.919157e+001
9.645526e+002, 6.623554e+001
9.650347e+002, 6.365668e+001
9.655168e+002, 6.147346e+001
9.659989e+002, 5.964469e+001
9.664810e+002, 5.824891e+001
9.669631e+002, 5.715055e+001
9.674453e+002, 5.616751e+001
9.679274e+002, 5.527490e+001
9.684095e+002, 5.441499e+001
9.688916e+002, 5.343655e+001
9.693737e+002, 5.265102e+001
9.698558e+002, 5.229855e+001
9.703380e+002, 5.211442e+001
9.708201e+002, 5.185966e+001
9.713022e+002, 5.155295e+001
9.717843e+002, 5.133228e+001
9.722664e+002, 5.125214e+001
9.727485e+002, 5.112517e+001
9.732307e+002, 5.066129e+001
9.737128e+002, 5.024479e+001
9.741949e+002, 5.044651e+001
9.746770e+002, 5.087903e+001
9.751591e+002, 5.077240e+001
9.756412e+002, 5.014465e+001
9.761234e+002, 4.969739e+001
9.766055e+002, 4.983382e+001
9.770876e+002, 5.013477e+001
9.775698e+002, 5.007593e+001
9.780519e+002, 4.981763e+001
9.785340e+002, 4.972485e+001
9.790161e+002, 4.976326e+001
9.794982e+002, 4.971204e+001
9.799803e+002, 4.952096e+001
9.804625e+002, 4.934236e+001
9.809446e+002, 4.930315e+001
9.814267e+002, 4.933580e+001
9.819088e+002, 4.927886e+001
9.823909e+002, 4.914722e+001
9.828730e+002, 4.911005e+001
9.833552e+002, 4.918106e+001
9.838373e+002, 4.918559e+001
9.843194e+002, 4.905393e+001
9.848015e+002, 4.887034e+001
9.852836e+002, 4.871370e+001
9.857657e+002, 4.858927e+001
9.862479e+002, 4.853933e+001
9.867300e+002, 4.859710e+001
9.872121e+002, 4.853686e+001
9.876942e+002, 4.828442e+001
9.881763e+002, 4.808501e+001
9.886584e+002, 4.808252e+001
9.891406e+002, 4.814117e+001
9.896227e+002, 4.805946e+001
9.901048e+002, 4.783942e+001
9.905869e+002, 4.777102e+001
9.910690e+002, 4.796653e+001
9.915511e+002, 4.809236e+001
9.920333e+002, 4.804694e+001
9.925154e+002, 4.801205e+001
9.929975e+002, 4.813194e+001
9.934796e+002, 4.829841e+001
9.939617e+002, 4.831617e+001
9.944438e+002, 4.816204e+001
9.949260e+002, 4.810910e+001
9.954081e+002, 4.835700e+001
9.958902e+002, 4.845280e+001
9.963723e+002, 4.814080e+001
9.968544e+002, 4.780368e+001
9.973365e+002, 4.767908e+001
9.978187e+002, 4.772599e+001
9.983008e+002, 4.789305e+001
9.987829e+002, 4.819975e+001
9.992650e+002, 4.830867e+001
9.997471e+002, 4.779591e+001
1.000229e+003, 4.746070e+001
1.000711e+003, 4.792480e+001
1.001193e+003, 4.853561e+001
1.001676e+003, 4.861293e+001
1.002158e+003, 4.829442e+001
1.002640e+003, 4.811409e+001
1.003122e+003, 4.825164e+001
1.003604e+003, 4.832216e+001
1.004086e+003, 4.793811e+001
1.004568e+003, 4.757726e+001
1.005050e+003, 4.766602e+001
1.005533e+003, 4.799358e+001
1.006015e+003, 4.829258e+001
1.006497e+003, 4.852506e+001
1.006979e+003, 4.877317e+001
1.007461e+003, 4.908784e+001
1.007943e+003, 4.927089e+001
1.008425e+003, 4.900583e+001
1.008907e+003, 4.861953e+001
1.009389e+003, 4.847601e+001
1.009872e+003, 4.856672e+001
1.010354e+003, 4.894361e+001
1.010836e+003, 4.952993e+001
1.011318e+003, 4.997618e+001
1.011800e+003, 5.006669e+001
1.012282e+003, 5.004299e+001
1.012764e+003, 5.022136e+001
1.013246e+003, 5.049971e+001
1.013729e+003, 5.063914e+001
1.014211e+003, 5.067383e+001
1.014693e+003, 5.077348e+001
1.015175e+003, 5.096613e+001
1.015657e+003, 5.112208e+001
1.016139e+003, 5.115063e+001
1.016621e+003, 5.109529e+001
1.017103e+003, 5.107098e+001
1.017585e+003, 5.103016e+001
1.018068e+003, 5.067197e+001
1.018550e+003, 5.003629e+001
1.019032e+003, 4.959911e+001
1.019514e+003, 4.949732e+001
1.019996e+003, 4.948496e+001
1.020478e+003, 4.936370e+001
1.020960e+003, 4.920115e+001
1.021442e+003, 4.917545e+001
1.021924e+003, 4.927906e+001
1.022407e+003, 4.928916e+001
1.022889e+003, 4.918986e+001
1.023371e+003, 4.916100e+001
1.023853e+003, 4.926712e+001
1.024335e+003, 4.939702e+001
1.024817e+003, 4.943844e+001
1.025299e+003, 4.945071e+001
1.025781e+003, 4.966150e+001
1.026264e+003, 5.012196e+001
1.026746e+003, 5.033845e+001
1.027228e+003, 5.025249e+001
1.027710e+003, 5.009711e+001
1.028192e+003, 4.988326e+001
1.028674e+003, 4.982018e+001
1.029156e+003, 5.014090e+001
1.029638e+003, 5.075498e+001
1.030120e+003, 5.128698e+001
1.030603e+003, 5.165990e+001
1.031085e+003, 5.224183e+001
1.031567e+003, 5.311144e+001
1.032049e+003, 5.399285e+001
1.032531e+003, 5.473893e+001
1.033013e+003, 5.555564e+001
1.033495e+003, 5.667201e+001
1.033977e+003, 5.802979e+001
1.034459e+003, 5.931902e+001
1.034942e+003, 6.036576e+001
1.035424e+003, 6.175877e+001
1.035906e+003, 6.360814e+001
1.036388e+003, 6.560341e+001
1.036870e+003, 6.748911e+001
1.037352e+003, 6.963361e+001
1.037834e+003, 7.255697e+001
1.038316e+003, 7.611681e+001
1.038799e+003, 7.945498e+001
1.039281e+003, 8.260946e+001
1.039763e+003, 8.548630e+001
1.040245e+003, 8.813013e+001
1.040727e+003, 9.046628e+001
1.041209e+003, 9.271058e+001
1.041691e+003, 9.446950e+001
1.042173e+003, 9.529473e+001
1.042656e+003, 9.529359e+001
1.043138e+003, 9.501005e+001
1.043620e+003, 9.480865e+001
1.044102e+003, 9.363110e+001
1.044584e+003, 9.107623e+001
1.045066e+003, 8.795943e+001
1.045548e+003, 8.410437e+001
1.046030e+003, 8.019640e+001
1.046512e+003, 7.690828e+001
1.046995e+003, 7.416218e+001
1.047477e+003, 7.148420e+001
1.047959e+003, 6.879134e+001
1.048441e+003, 6.623661e+001
1.048923e+003, 6.382381e+001
1.049405e+003, 6.159315e+001
1.049887e+003, 5.936113e+001
1.050369e+003, 5.747222e+001
1.050851e+003, 5.642881e+001
1.051334e+003, 5.605601e+001
1.051816e+003, 5.562958e+001
1.052298e+003, 5.500451e+001
1.052780e+003, 5.438228e+001
1.053262e+003, 5.377555e+001
1.053744e+003, 5.321615e+001
1.054226e+003, 5.263410e+001
1.054708e+003, 5.216996e+001
1.055191e+003, 5.203356e+001
1.055673e+003, 5.214468e+001
1.056155e+003, 5.218381e+001
1.056637e+003, 5.202309e+001
1.057119e+003, 5.199672e+001
1.057601e+003, 5.236941e+001
1.058083e+003, 5.270210e+001
1.058565e+003, 5.272413e+001
1.059047e+003, 5.263952e+001
1.059530e+003, 5.262041e+001
1.060012e+003, 5.269063e+001
1.060494e+003, 5.283313e+001
1.060976e+003, 5.302532e+001
1.061458e+003, 5.337804e+001
1.061940e+003, 5.417057e+001
1.062422e+003, 5.484959e+001
1.062904e+003, 5.493909e+001
1.063386e+003, 5.492169e+001
1.063869e+003, 5.527890e+001
1.064351e+003, 5.595791e+001
1.064833e+003, 5.669765e+001
1.065315e+003, 5.744468e+001
1.065797e+003, 5.816424e+001
1.066279e+003, 5.887977e+001
1.066761e+003, 5.951484e+001
1.067243e+003, 5.982225e+001
1.067726e+003, 6.019554e+001
1.068208e+003, 6.125122e+001
1.068690e+003, 6.263964e+001
1.069172e+003, 6.344566e+001
1.069654e+003, 6.340616e+001
1.070136e+003, 6.339157e+001
1.070618e+003, 6.398656e+001
1.071100e+003, 6.443893e+001
1.071583e+003, 6.430413e+001
1.072065e+003, 6.388122e+001
1.072547e+003, 6.337309e+001
1.073029e+003, 6.283623e+001
1.073511e+003, 6.233725e+001
1.073993e+003, 6.188922e+001
1.074475e+003, 6.132078e+001
1.074957e+003, 6.047062e+001
1.075439e+003, 5.959181e+001
1.075922e+003, 5.881186e+001
1.076404e+003, 5.805451e+001
1.076886e+003, 5.718289e+001
1.077368e+003, 5.630630e+001
1.077850e+003, 5.566668e+001
1.078332e+003, 5.528832e+001
1.078814e+003, 5.490609e+001
1.079296e+003, 5.444298e+001
1.079779e+003, 5.390169e+001
1.080261e+003, 5.310011e+001
1.080743e+003, 5.240100e+001
1.081225e+003, 5.229647e+001
1.081707e+003, 5.241113e+001
1.082189e+003, 5.202859e+001
1.082671e+003, 5.113457e+001
1.083153e+003, 5.053913e+001
1.083635e+003, 5.081346e+001
1.084118e+003, 5.095137e+001
1.084600e+003, 5.032080e+001
1.085082e+003, 4.957307e+001
1.085564e+003, 4.915251e+001
1.086046e+003, 4.893360e+001
1.086528e+003, 4.868905e+001
1.087010e+003, 4.842015e+001
1.087492e+003, 4.833603e+001
1.087974e+003, 4.867094e+001
1.088457e+003, 4.875434e+001
1.088939e+003, 4.804539e+001
1.089421e+003, 4.729280e+001
1.089903e+003, 4.692254e+001
1.090385e+003, 4.679783e+001
1.090867e+003, 4.679818e+001
1.091349e+003, 4.686688e+001
1.091831e+003, 4.692500e+001
1.092314e+003, 4.699112e+001
1.092796e+003, 4.687842e+001
1.093278e+003, 4.629420e+001
1.093760e+003, 4.578502e+001
1.094242e+003, 4.569538e+001
1.094724e+003, 4.576048e+001
1.095206e+003, 4.575666e+001
1.095688e+003, 4.567432e+001
1.096171e+003, 4.553862e+001
1.096653e+003, 4.533773e+001
1.097135e+003, 4.522145e+001
1.097617e+003, 4.534465e+001
1.098099e+003, 4.541475e+001
1.098581e+003, 4.522012e+001
1.099063e+003, 4.501917e+001
1.099545e+003, 4.507102e+001
1.100027e+003, 4.525011e+001
1.100510e+003, 4.527834e+001
1.100992e+003, 4.511410e+001
1.101474e+003, 4.502958e+001
1.101956e+003, 4.515808e+001
1.102438e+003, 4.527226e+001
1.102920e+003, 4.531181e+001
1.103402e+003, 4.532171e+001
1.103884e+003, 4.532858e+001
1.104366e+003, 4.532491e+001
1.104849e+003, 4.529988e+001
1.105331e+003, 4.525231e+001
1.105813e+003, 4.518001e+001
1.106295e+003, 4.505426e+001
1.106777e+003, 4.494807e+001
1.107259e+003, 4.494094e+001
1.107741e+003, 4.487111e+001
1.108223e+003, 4.455263e+001
1.108706e+003, 4.421859e+001
1.109188e+003, 4.416397e+001
1.109670e+003, 4.433059e+001
1.110152e+003, 4.437623e+001
1.110634e+003, 4.421119e+001
1.111116e+003, 4.408200e+001
1.111598e+003, 4.397436e+001
1.112080e+003, 4.393856e+001
1.112563e+003, 4.401014e+001
1.113045e+003, 4.414234e+001
1.113527e+003, 4.437386e+001
1.114009e+003, 4.462316e+001
1.114491e+003, 4.464277e+001
1.114973e+003, 4.434531e+001
1.115455e+003, 4.420252e+001
1.115937e+003, 4.438728e+001
1.116419e+003, 4.441525e+001
1.116901e+003, 4.401394e+001
1.117384e+003, 4.370707e+001
1.117866e+003, 4.388749e+001
1.118348e+003, 4.428572e+001
1.118830e+003, 4.442842e+001
1.119312e+003, 4.430386e+001
1.119794e+003, 4.436102e+001
1.120276e+003, 4.472547e+001
1.120758e+003, 4.493707e+001
1.121241e+003, 4.491079e+001
1.121723e+003, 4.480907e+001
1.122205e+003, 4.467466e+001
1.122687e+003, 4.455015e+001
1.123169e+003, 4.448487e+001
1.123651e+003, 4.447565e+001
1.124133e+003, 4.453315e+001
1.124615e+003, 4.471924e+001
1.125098e+003, 4.461852e+001
1.125580e+003, 4.408877e+001
1.126062e+003, 4.386495e+001
1.126544e+003, 4.428928e+001
1.127026e+003, 4.470010e+001
1.127508e+003, 4.451697e+001
1.127990e+003, 4.397206e+001
1.128472e+003, 4.360137e+001
1.128954e+003, 4.340362e+001
1.129437e+003, 4.349530e+001
1.129919e+003, 4.390339e+001
1.130401e+003, 4.418879e+001
1.130883e+003, 4.426271e+001
1.131365e+003, 4.416768e+001
1.131847e+003, 4.391219e+001
1.132329e+003, 4.361043e+001
1.132811e+003, 4.342844e+001
1.133293e+003, 4.335181e+001
1.133776e+003, 4.328258e+001
1.134258e+003, 4.324245e+001
1.134740e+003, 4.352562e+001
1.135222e+003, 4.412661e+001
1.135704e+003, 4.452481e+001
1.136186e+003, 4.450874e+001
1.136668e+003, 4.435098e+001
1.137150e+003, 4.431648e+001
1.137633e+003, 4.431770e+001
1.138115e+003, 4.411567e+001
1.138597e+003, 4.381617e+001
1.139079e+003, 4.379833e+001
1.139561e+003, 4.399944e+001
1.140043e+003, 4.405342e+001
1.140525e+003, 4.389392e+001
1.141007e+003, 4.377195e+001
1.141490e+003, 4.385314e+001
1.141972e+003, 4.399529e+001
1.142454e+003, 4.403038e+001
1.142936e+003, 4.401337e+001
1.143418e+003, 4.406201e+001
1.143900e+003, 4.411660e+001
1.144382e+003, 4.400278e+001
1.144864e+003, 4.376297e+001
1.145346e+003, 4.365250e+001
1.145828e+003, 4.376603e+001
1.146311e+003, 4.383220e+001
1.146793e+003, 4.356676e+001
1.147275e+003, 4.324730e+001
1.147757e+003, 4.309508e+001
1.148239e+003, 4.306245e+001
1.148721e+003, 4.314720e+001
1.149203e+003, 4.328545e+001
1.149685e+003, 4.333381e+001
1.150168e+003, 4.329406e+001
1.150650e+003, 4.340349e+001
1.151132e+003, 4.389629e+001
1.151614e+003, 4.425215e+001
1.152096e+003, 4.406144e+001
1.152578e+003, 4.379958e+001
1.153060e+003, 4.378040e+001
1.153542e+003, 4.388197e+001
1.154025e+003, 4.401056e+001
1.154507e+003, 4.410609e+001
1.154989e+003, 4.400886e+001
1.155471e+003, 4.361705e+001
1.155953e+003, 4.339244e+001
1.156435e+003, 4.353863e+001
1.156917e+003, 4.373492e+001
1.157399e+003, 4.402319e+001
1.157881e+003, 4.418074e+001
1.158364e+003, 4.394652e+001
1.158846e+003, 4.353606e+001
1.159328e+003, 4.331140e+001
1.159810e+003, 4.328977e+001
1.160292e+003, 4.326317e+001
1.160774e+003, 4.319804e+001
1.161256e+003, 4.318416e+001
1.161738e+003, 4.320655e+001
1.162220e+003, 4.332464e+001
1.162703e+003, 4.367836e+001
1.163185e+003, 4.396802e+001
1.163667e+003, 4.387536e+001
1.164149e+003, 4.351189e+001
1.164631e+003, 4.323231e+001
1.165113e+003, 4.302222e+001
1.165595e+003, 4.302476e+001
1.166077e+003, 4.332814e+001
1.166560e+003, 4.342452e+001
1.167042e+003, 4.315503e+001
1.167524e+003, 4.290813e+001
1.168006e+003, 4.290724e+001
1.168488e+003, 4.309051e+001
1.168970e+003, 4.342801e+001
1.169452e+003, 4.382901e+001
1.169934e+003, 4.372444e+001
1.170417e+003, 4.316527e+001
1.170899e+003, 4.293098e+001
1.171381e+003, 4.307498e+001
1.171863e+003, 4.323571e+001
1.172345e+003, 4.328573e+001
1.172827e+003, 4.318233e+001
1.173309e+003, 4.284325e+001
1.173791e+003, 4.254829e+001
1.174273e+003, 4.289386e+001
1.174755e+003, 4.357943e+001
1.175238e+003, 4.390578e+001
1.175720e+003, 4.394713e+001
1.176202e+003, 4.396193e+001
1.176684e+003, 4.398735e+001
1.177166e+003, 4.393218e+001
1.177648e+003, 4.375788e+001
1.178130e+003, 4.356746e+001
1.178612e+003, 4.342712e+001
1.179095e+003, 4.333596e+001
1.179577e+003, 4.332589e+001
1.180059e+003, 4.333728e+001
1.180541e+003, 4.330633e+001
1.181023e+003, 4.323456e+001
1.181505e+003, 4.310264e+001
1.181987e+003, 4.293609e+001
1.182469e+003, 4.288588e+001
1.182952e+003, 4.307924e+001
1.183434e+003, 4.320301e+001
1.183916e+003, 4.291624e+001
1.184398e+003, 4.276484e+001
1.184880e+003, 4.327858e+001
1.185362e+003, 4.387646e+001
1.185844e+003, 4.393176e+001
1.186326e+003, 4.362849e+001
1.186808e+003, 4.351806e+001
1.187291e+003, 4.369179e+001
1.187773e+003, 4.372107e+001
1.188255e+003, 4.337716e+001
1.188737e+003, 4.318279e+001
1.189219e+003, 4.330966e+001
1.189701e+003, 4.342913e+001
1.190183e+003, 4.337962e+001
1.190665e+003, 4.328872e+001
1.191147e+003, 4.331960e+001
1.191630e+003, 4.341699e+001
1.192112e+003, 4.330165e+001
1.192594e+003, 4.285473e+001
1.193076e+003, 4.286153e+001
1.193558e+003, 4.345511e+001
1.194040e+003, 4.380983e+001
1.194522e+003, 4.372256e+001
1.195004e+003, 4.344952e+001
1.195487e+003, 4.310909e+001
1.195969e+003, 4.284816e+001
1.196451e+003, 4.290538e+001
1.196933e+003, 4.317947e+001
1.197415e+003, 4.328284e+001
1.197897e+003, 4.324446e+001
1.198379e+003, 4.318951e+001
1.198861e+003, 4.314935e+001
1.199344e+003, 4.326126e+001
1.199826e+003, 4.354490e+001
1.200308e+003, 4.380497e+001
1.200790e+003, 4.391730e+001
1.201272e+003, 4.390003e+001
1.201754e+003, 4.369429e+001
1.202236e+003, 4.343970e+001
1.202718e+003, 4.335278e+001
1.203200e+003, 4.335011e+001
1.203682e+003, 4.324762e+001
1.204165e+003, 4.309505e+001
1.204647e+003, 4.312798e+001
1.205129e+003, 4.339270e+001
1.205611e+003, 4.355892e+001
1.206093e+003, 4.333998e+001
1.206575e+003, 4.316792e+001
1.207057e+003, 4.334292e+001
1.207539e+003, 4.355396e+001
1.208022e+003, 4.356472e+001
1.208504e+003, 4.350848e+001
1.208986e+003, 4.356610e+001
1.209468e+003, 4.371167e+001
1.209950e+003, 4.381133e+001
1.210432e+003, 4.385715e+001
1.210914e+003, 4.382917e+001
1.211396e+003, 4.361860e+001
1.211879e+003, 4.350451e+001
1.212361e+003, 4.358832e+001
1.212843e+003, 4.367784e+001
1.213325e+003, 4.368090e+001
1.213807e+003, 4.363630e+001
1.214289e+003, 4.358875e+001
1.214771e+003, 4.353556e+001
1.215253e+003, 4.345031e+001
1.215735e+003, 4.332060e+001
1.216218e+003, 4.328460e+001
1.216700e+003, 4.335075e+001
1.217182e+003, 4.345998e+001
1.217664e+003, 4.360363e+001
1.218146e+003, 4.365475e+001
1.218628e+003, 4.353306e+001
1.219110e+003, 4.334809e+001
1.219592e+003, 4.322205e+001
1.220074e+003, 4.316210e+001
1.220557e+003, 4.320439e+001
1.221039e+003, 4.332154e+001
1.221521e+003, 4.344841e+001
1.222003e+003, 4.358092e+001
1.222485e+003, 4.375796e+001
1.222967e+003, 4.396370e+001
1.223449e+003, 4.407598e+001
1.223931e+003, 4.402899e+001
1.224414e+003, 4.387377e+001
1.224896e+003, 4.353351e+001
1.225378e+003, 4.323264e+001
1.225860e+003, 4.314079e+001
1.226342e+003, 4.319613e+001
1.226824e+003, 4.344648e+001
1.227306e+003, 4.373988e+001
1.227788e+003, 4.379555e+001
1.228271e+003, 4.358739e+001
1.228753e+003, 4.334021e+001
1.229235e+003, 4.298289e+001
1.229717e+003, 4.280154e+001
1.230199e+003, 4.298547e+001
1.230681e+003, 4.314680e+001
1.231163e+003, 4.312773e+001
1.231645e+003, 4.309516e+001
1.232127e+003, 4.319199e+001
1.232609e+003, 4.333596e+001
1.233092e+003, 4.335632e+001
1.233574e+003, 4.325699e+001
1.234056e+003, 4.323343e+001
1.234538e+003, 4.328792e+001
1.235020e+003, 4.341534e+001
1.235502e+003, 4.362415e+001
1.235984e+003, 4.372557e+001
1.236466e+003, 4.364934e+001
1.236949e+003, 4.361283e+001
1.237431e+003, 4.380639e+001
1.237913e+003, 4.399940e+001
1.238395e+003, 4.371738e+001
1.238877e+003, 4.320553e+001
1.239359e+003, 4.307587e+001
1.239841e+003, 4.318562e+001
1.240323e+003, 4.316781e+001
1.240806e+003, 4.304618e+001
1.241288e+003, 4.306775e+001
1.241770e+003, 4.328687e+001
1.242252e+003, 4.351327e+001
1.242734e+003, 4.365175e+001
1.243216e+003, 4.374554e+001
1.243698e+003, 4.384178e+001
1.244180e+003, 4.388049e+001
1.244662e+003, 4.371099e+001
1.245145e+003, 4.355576e+001
1.245627e+003, 4.374659e+001
1.246109e+003, 4.409877e+001
1.246591e+003, 4.412913e+001
1.247073e+003, 4.376744e+001
1.247555e+003, 4.357978e+001
1.248037e+003, 4.383954e+001
1.248519e+003, 4.379248e+001
1.249001e+003, 4.316048e+001
1.249484e+003, 4.273148e+001
1.249966e+003, 4.279081e+001
1.250448e+003, 4.307164e+001
1.250930e+003, 4.342077e+001
1.251412e+003, 4.372654e+001
1.251894e+003, 4.374426e+001
1.252376e+003, 4.352075e+001
1.252858e+003, 4.340837e+001
1.253341e+003, 4.339397e+001
1.253823e+003, 4.333412e+001
1.254305e+003, 4.323465e+001
1.254787e+003, 4.328158e+001
1.255269e+003, 4.350975e+001
1.255751e+003, 4.365420e+001
1.256233e+003, 4.351284e+001
1.256715e+003, 4.340187e+001
1.257198e+003, 4.381000e+001
1.257680e+003, 4.428100e+001
1.258162e+003, 4.427251e+001
1.258644e+003, 4.403487e+001
1.259126e+003, 4.382076e+001
1.259608e+003, 4.368390e+001
1.260090e+003, 4.370253e+001
1.260572e+003, 4.385324e+001
1.261054e+003, 4.384414e+001
1.261536e+003, 4.346528e+001
1.262019e+003, 4.321682e+001
1.262501e+003, 4.317651e+001
1.262983e+003, 4.331004e+001
1.263465e+003, 4.381236e+001
1.263947e+003, 4.421425e+001
1.264429e+003, 4.417900e+001
1.264911e+003, 4.392333e+001
1.265393e+003, 4.375670e+001
1.265876e+003, 4.367242e+001
1.266358e+003, 4.362005e+001
1.266840e+003, 4.359887e+001
1.267322e+003, 4.365388e+001
1.267804e+003, 4.378575e+001
1.268286e+003, 4.384805e+001
1.268768e+003, 4.380872e+001
1.269250e+003, 4.372459e+001
1.269733e+003, 4.362655e+001
1.270215e+003, 4.355875e+001
1.270697e+003, 4.359138e+001
1.271179e+003, 4.364901e+001
1.271661e+003, 4.358201e+001
1.272143e+003, 4.350200e+001
1.272625e+003, 4.361040e+001
1.273107e+003, 4.380687e+001
1.273589e+003, 4.391283e+001
1.274072e+003, 4.390446e+001
1.274554e+003, 4.379329e+001
1.275036e+003, 4.355195e+001
1.275518e+003, 4.346728e+001
1.276000e+003, 4.380813e+001
1.276482e+003, 4.404771e+001
1.276964e+003, 4.400105e+001
1.277446e+003, 4.388288e+001
1.277929e+003, 4.372341e+001
1.278411e+003, 4.360823e+001
1.278893e+003, 4.364309e+001
1.279375e+003, 4.376681e+001
1.279857e+003, 4.380586e+001
1.280339e+003, 4.375899e+001
1.280821e+003, 4.373723e+001
1.281303e+003, 4.374535e+001
1.281786e+003, 4.383620e+001
1.282268e+003, 4.401591e+001
##END=



