##NAMES=Yttrotungstite-(Y)
##RRUFFID=R050569
##IDEAL CHEMISTRY=Y^3+^W^6+^_2_O_6_(OH)_3_
##LOCALITY=Perak, Malaysia
##OWNER=RRUFF
##SOURCE=University of Arizona Mineral Museum
##DESCRIPTION=Colorless flattened lathlike crystals
##STATUS=The identification of this mineral has been confirmed by X-ray diffraction and chemical analysis
##URL=rruff.info/R050569
##MEASURED CHEMISTRY=(Y_0.70_Nd_0.10_Ce_0.07_Dy_0.07_La_0.04_Ca_0.02_)_Σ=1_W_2.00_(O_6.00_(OH)_2.98_(H_2_O)_0.02_)_Σ=9_ ; O, OH and H_2_O estimated by difference and charge balance.
114.5598, 1805.408
115.0419, 1899.659
115.5240, 2005.912
116.0062, 2128.167
116.4883, 2262.846
116.9704, 2399.504
117.4525, 2525.550
117.9346, 2639.721
118.4167, 2765.492
118.8989, 2900.562
119.3810, 3051.466
119.8631, 3222.889
120.3452, 3414.448
120.8273, 3623.035
121.3094, 3841.704
121.7916, 4062.842
122.2737, 4322.763
122.7558, 4631.057
123.2379, 4969.621
123.7200, 5323.872
124.2021, 5694.956
124.6843, 6098.481
125.1664, 6558.091
125.6485, 7115.646
126.1306, 7652.670
126.6127, 8163.227
127.0948, 8662.479
127.5770, 9163.664
128.0591, 9666.797
128.5412, 10172.13
129.0233, 10671.04
129.5054, 11153.71
129.9875, 11644.90
130.4697, 12157.59
130.9518, 12670.58
131.4339, 13169.12
131.9160, 13647.68
132.3981, 14097.76
132.8802, 14501.44
133.3624, 14839.29
133.8445, 15152.58
134.3266, 15432.40
134.8087, 15690.68
135.2908, 15929.75
135.7729, 16146.73
136.2551, 16367.73
136.7372, 16657.73
137.2193, 17020.82
137.7014, 17435.43
138.1835, 17887.63
138.6656, 18391.35
139.1478, 18974.46
139.6299, 19649.96
140.1120, 20407.51
140.5941, 21226.09
141.0762, 22091.31
141.5583, 23014.94
142.0405, 24008.32
142.5226, 25059.00
143.0047, 26141.53
143.4868, 27261.26
143.9689, 28394.22
144.4510, 29504.81
144.9332, 30592.83
145.4153, 31657.27
145.8974, 32707.55
146.3795, 33737.05
146.8616, 34721.59
147.3438, 35657.79
147.8259, 36529.22
148.3080, 37337.42
148.7901, 38100.69
149.2722, 38767.96
149.7543, 39290.78
150.2365, 39680.54
150.7186, 40012.41
151.2007, 40312.72
151.6828, 40567.18
152.1649, 40763.22
152.6470, 40886.47
153.1292, 40984.09
153.6113, 41093.14
154.0934, 41213.45
154.5755, 41329.37
155.0576, 41416.95
155.5397, 41509.75
156.0219, 41646.17
156.5040, 41838.53
156.9861, 42053.62
157.4682, 42247.61
157.9503, 42413.81
158.4324, 42622.80
158.9146, 42924.66
159.3967, 43270.13
159.8788, 43618.63
160.3609, 43956.86
160.8430, 44309.92
161.3251, 44709.17
161.8073, 45159.20
162.2894, 45623.45
162.7715, 46100.82
163.2536, 46581.90
163.7357, 47075.49
164.2178, 47583.96
164.7000, 48077.09
165.1821, 48504.97
165.6642, 48854.06
166.1463, 49182.98
166.6284, 49470.73
167.1105, 49764.70
167.5927, 50118.34
168.0748, 50551.83
168.5569, 50995.56
169.0390, 51337.78
169.5211, 51547.59
170.0032, 51744.75
170.4854, 51973.34
170.9675, 52188.59
171.4496, 52351.07
171.9317, 52448.88
172.4138, 52509.86
172.8959, 52578.70
173.3781, 52662.64
173.8602, 52736.17
174.3423, 52770.59
174.8244, 52809.43
175.3065, 52896.97
175.7886, 53044.84
176.2708, 53208.03
176.7529, 53305.44
177.2350, 53292.05
177.7171, 53313.16
178.1992, 53397.61
178.6813, 53507.29
179.1635, 53614.40
179.6456, 53712.05
180.1277, 53810.40
180.6098, 53929.16
181.0919, 54082.43
181.5740, 54226.59
182.0562, 54353.22
182.5383, 54475.39
183.0204, 54601.57
183.5025, 54734.12
183.9846, 54869.90
184.4667, 55004.59
184.9489, 55138.26
185.4310, 55268.63
185.9131, 55394.88
186.3952, 55518.48
186.8773, 55644.09
187.3594, 55771.64
187.8416, 55892.96
188.3237, 55995.03
188.8058, 56058.01
189.2879, 56141.41
189.7700, 56245.86
190.2521, 56365.11
190.7343, 56500.41
191.2164, 56649.42
191.6985, 56805.20
192.1806, 56963.39
192.6627, 57149.25
193.1448, 57272.15
193.6270, 57286.09
194.1091, 57284.54
194.5912, 57327.91
195.0733, 57423.12
195.5554, 57536.50
196.0375, 57624.50
196.5197, 57671.48
197.0018, 57742.43
197.4839, 57866.02
197.9660, 57986.15
198.4481, 58074.04
198.9302, 58125.67
199.4124, 58148.36
199.8945, 58147.12
200.3766, 58113.70
200.8587, 58088.87
201.3408, 58068.44
201.8229, 58057.86
202.3051, 58074.96
202.7872, 58110.38
203.2693, 58128.04
203.7514, 58087.75
204.2335, 57974.10
204.7156, 57904.57
205.1978, 57922.05
205.6799, 57935.70
206.1620, 57891.13
206.6441, 57801.71
207.1262, 57724.64
207.6083, 57715.10
208.0905, 57782.44
208.5726, 57774.26
209.0547, 57635.90
209.5368, 57487.84
210.0189, 57364.08
210.5010, 57267.16
210.9832, 57191.70
211.4653, 57136.59
211.9474, 57101.14
212.4295, 57049.92
212.9116, 56959.34
213.3937, 56879.49
213.8759, 56842.07
214.3580, 56825.72
214.8401, 56786.89
215.3222, 56695.91
215.8043, 56560.94
216.2864, 56444.39
216.7686, 56356.95
217.2507, 56275.05
217.7328, 56189.26
218.2149, 56106.80
218.6970, 56041.38
219.1791, 56001.16
219.6613, 55978.59
220.1434, 55944.11
220.6255, 55884.65
221.1076, 55827.57
221.5897, 55773.25
222.0718, 55723.35
222.5540, 55684.41
223.0361, 55659.65
223.5182, 55636.96
224.0003, 55586.35
224.4824, 55489.66
224.9645, 55384.27
225.4467, 55259.83
225.9288, 55132.54
226.4109, 55024.08
226.8930, 54940.46
227.3751, 54860.56
227.8572, 54744.07
228.3394, 54543.50
228.8215, 54384.66
229.3036, 54282.89
229.7857, 54209.54
230.2678, 54152.30
230.7499, 54104.30
231.2321, 54052.21
231.7142, 53977.26
232.1963, 53872.82
232.6784, 53760.44
233.1605, 53620.51
233.6426, 53489.47
234.1248, 53387.20
234.6069, 53315.82
235.0890, 53265.48
235.5711, 53226.54
236.0532, 53198.60
236.5353, 53184.93
237.0175, 53206.28
237.4996, 53220.77
237.9817, 53206.52
238.4638, 53167.93
238.9459, 53122.46
239.4280, 53082.74
239.9102, 53048.51
240.3923, 53027.37
240.8744, 53026.38
241.3565, 53031.36
241.8386, 53040.63
242.3207, 53053.07
242.8029, 53070.17
243.2850, 53095.14
243.7671, 53123.37
244.2492, 53122.79
244.7313, 53049.61
245.2134, 52997.09
245.6956, 52996.45
246.1777, 53020.20
246.6598, 53032.60
247.1419, 53016.25
247.6240, 52979.07
248.1061, 52942.61
248.5883, 52893.82
249.0704, 52868.56
249.5525, 52913.45
250.0346, 52959.27
250.5167, 52928.14
250.9988, 52796.54
251.4810, 52627.36
251.9631, 52534.29
252.4452, 52560.13
252.9273, 52559.74
253.4094, 52499.25
253.8915, 52428.14
254.3737, 52377.46
254.8558, 52352.46
255.3379, 52339.30
255.8200, 52325.53
256.3021, 52314.00
256.7842, 52288.48
257.2664, 52221.38
257.7485, 52162.73
258.2306, 52151.61
258.7127, 52174.77
259.1948, 52178.11
259.6769, 52104.96
260.1591, 51957.19
260.6412, 51840.92
261.1233, 51777.75
261.6054, 51722.13
262.0875, 51658.16
262.5696, 51587.79
263.0518, 51516.55
263.5339, 51448.30
264.0160, 51380.93
264.4981, 51307.57
264.9802, 51227.07
265.4623, 51142.39
265.9445, 51055.21
266.4266, 50964.74
266.9087, 50867.45
267.3908, 50757.70
267.8729, 50650.40
268.3550, 50573.88
268.8372, 50535.50
269.3193, 50497.58
269.8014, 50458.20
270.2835, 50407.94
270.7656, 50334.93
271.2477, 50235.37
271.7299, 50124.95
272.2120, 50016.50
272.6941, 49909.80
273.1762, 49806.12
273.6583, 49704.11
274.1404, 49607.55
274.6226, 49527.88
275.1047, 49464.17
275.5868, 49382.57
276.0689, 49252.66
276.5510, 49086.79
277.0331, 48921.91
277.5153, 48753.42
277.9974, 48605.12
278.4795, 48515.41
278.9616, 48467.34
279.4437, 48395.97
279.9258, 48248.55
280.4080, 48075.60
280.8901, 47963.02
281.3722, 47921.63
281.8543, 47882.16
282.3364, 47793.16
282.8185, 47669.52
283.3007, 47553.05
283.7828, 47435.39
284.2649, 47337.93
284.7470, 47289.96
285.2291, 47284.19
285.7112, 47268.48
286.1934, 47211.45
286.6755, 47133.23
287.1576, 47087.35
287.6397, 47098.30
288.1218, 47092.69
288.6039, 47024.86
289.0861, 46920.83
289.5682, 46832.77
290.0503, 46777.52
290.5324, 46743.24
291.0145, 46714.86
291.4966, 46696.33
291.9788, 46669.36
292.4609, 46641.67
292.9430, 46598.93
293.4251, 46513.16
293.9072, 46383.84
294.3893, 46257.13
294.8715, 46181.05
295.3536, 46163.61
295.8357, 46148.27
296.3178, 46156.76
296.7999, 46148.01
297.2820, 46095.42
297.7642, 46005.18
298.2463, 45895.53
298.7284, 45772.93
299.2105, 45643.94
299.6926, 45567.45
300.1747, 45616.27
300.6569, 45630.76
301.1390, 45550.65
301.6211, 45428.66
302.1032, 45339.48
302.5853, 45314.77
303.0674, 45325.87
303.5496, 45310.24
304.0317, 45252.77
304.5138, 45191.88
304.9959, 45128.09
305.4780, 45062.28
305.9601, 44995.91
306.4423, 44928.71
306.9244, 44858.45
307.4065, 44783.95
307.8886, 44707.30
308.3707, 44616.06
308.8528, 44478.09
309.3350, 44355.09
309.8171, 44265.47
310.2992, 44209.86
310.7813, 44190.66
311.2634, 44225.99
311.7455, 44293.07
312.2277, 44275.52
312.7098, 44111.52
313.1919, 43969.66
313.6740, 43929.05
314.1561, 43928.96
314.6382, 43897.18
315.1204, 43804.77
315.6025, 43686.09
316.0846, 43583.61
316.5667, 43496.79
317.0488, 43431.16
317.5309, 43390.90
318.0131, 43373.52
318.4952, 43390.20
318.9773, 43441.86
319.4594, 43474.91
319.9415, 43426.47
320.4236, 43324.30
320.9058, 43279.16
321.3879, 43324.73
321.8700, 43389.20
322.3521, 43417.52
322.8342, 43414.95
323.3163, 43392.41
323.7985, 43311.70
324.2806, 43236.24
324.7627, 43260.13
325.2448, 43383.77
325.7269, 43490.67
326.2090, 43502.51
326.6912, 43445.65
327.1733, 43425.42
327.6554, 43473.48
328.1375, 43515.88
328.6196, 43498.38
329.1017, 43452.20
329.5839, 43450.08
330.0660, 43521.78
330.5481, 43630.11
331.0302, 43709.85
331.5123, 43757.43
331.9944, 43784.05
332.4766, 43766.31
332.9587, 43743.38
333.4408, 43745.01
333.9229, 43776.31
334.4050, 43834.45
334.8871, 43924.98
335.3693, 44055.07
335.8514, 44121.51
336.3335, 44062.60
336.8156, 44013.71
337.2977, 44025.20
337.7798, 44078.83
338.2620, 44140.75
338.7441, 44193.53
339.2262, 44235.19
339.7083, 44255.70
340.1904, 44220.65
340.6725, 44224.59
341.1547, 44304.54
341.6368, 44404.89
342.1189, 44480.46
342.6010, 44522.29
343.0831, 44550.76
343.5652, 44587.93
344.0474, 44634.75
344.5295, 44682.41
345.0116, 44729.65
345.4937, 44779.16
345.9758, 44832.99
346.4579, 44890.30
346.9401, 44948.82
347.4222, 45010.63
347.9043, 45071.08
348.3864, 45112.91
348.8685, 45125.95
349.3506, 45158.96
349.8328, 45259.39
350.3149, 45383.41
350.7970, 45473.54
351.2791, 45510.53
351.7612, 45544.58
352.2433, 45621.61
352.7255, 45730.57
353.2076, 45823.55
353.6897, 45883.48
354.1718, 45932.42
354.6539, 46008.79
355.1360, 46113.32
355.6182, 46184.82
356.1003, 46183.24
356.5824, 46157.91
357.0645, 46153.24
357.5466, 46173.58
358.0287, 46213.84
358.5109, 46274.76
358.9930, 46353.49
359.4751, 46417.09
359.9572, 46468.82
360.4393, 46504.46
360.9214, 46512.04
361.4036, 46505.45
361.8857, 46501.00
362.3678, 46505.06
362.8499, 46524.26
363.3320, 46573.97
363.8141, 46684.75
364.2963, 46763.93
364.7784, 46796.99
365.2605, 46814.93
365.7426, 46833.53
366.2247, 46854.82
366.7068, 46873.15
367.1890, 46878.11
367.6711, 46873.73
368.1532, 46913.50
368.6353, 47035.05
369.1174, 47149.22
369.5995, 47238.28
370.0817, 47304.18
370.5638, 47345.56
371.0459, 47359.74
371.5280, 47363.16
372.0101, 47382.68
372.4922, 47420.80
372.9744, 47439.19
373.4565, 47419.33
373.9386, 47386.12
374.4207, 47363.11
374.9028, 47349.16
375.3849, 47326.79
375.8671, 47277.90
376.3492, 47217.88
376.8313, 47174.04
377.3134, 47148.68
377.7955, 47134.75
378.2776, 47138.14
378.7598, 47148.38
379.2419, 47127.60
379.7240, 47036.09
380.2061, 46959.20
380.6882, 46944.42
381.1703, 46974.01
381.6525, 47022.48
382.1346, 47084.67
382.6167, 47131.78
383.0988, 47114.02
383.5809, 46988.50
384.0630, 46903.61
384.5452, 46871.54
385.0273, 46869.10
385.5094, 46890.34
385.9915, 46928.87
386.4736, 46974.40
386.9557, 47021.88
387.4379, 47068.02
387.9200, 47087.88
388.4021, 47032.41
388.8842, 47017.30
389.3663, 47094.50
389.8484, 47201.38
390.3306, 47260.73
390.8127, 47254.21
391.2948, 47251.48
391.7769, 47367.86
392.2590, 47619.04
392.7411, 47776.21
393.2233, 47754.64
393.7054, 47708.98
394.1875, 47734.20
394.6696, 47809.87
395.1517, 47873.00
395.6339, 47877.78
396.1160, 47865.75
396.5981, 47911.60
397.0802, 48018.29
397.5623, 48104.89
398.0444, 48135.13
398.5266, 48123.04
399.0087, 48096.18
399.4908, 48047.81
399.9729, 48006.95
400.4550, 48000.98
400.9371, 48003.00
401.4193, 47966.02
401.9014, 47882.24
402.3835, 47796.36
402.8656, 47750.44
403.3477, 47747.31
403.8298, 47747.54
404.3120, 47765.05
404.7941, 47770.59
405.2762, 47746.84
405.7583, 47704.89
406.2404, 47665.71
406.7225, 47638.60
407.2047, 47612.39
407.6868, 47558.58
408.1689, 47442.89
408.6510, 47380.07
409.1331, 47416.13
409.6152, 47465.38
410.0974, 47475.34
410.5795, 47452.66
411.0616, 47440.62
411.5437, 47479.18
412.0258, 47549.74
412.5079, 47583.02
412.9901, 47570.55
413.4722, 47543.92
413.9543, 47482.34
414.4364, 47429.22
414.9185, 47441.15
415.4006, 47537.74
415.8828, 47648.86
416.3649, 47726.50
416.8470, 47781.04
417.3291, 47850.54
417.8112, 47950.86
418.2933, 48021.59
418.7755, 47985.37
419.2576, 47843.91
419.7397, 47759.64
420.2218, 47759.93
420.7039, 47798.60
421.1860, 47873.19
421.6682, 47965.29
422.1503, 48036.23
422.6324, 48068.38
423.1145, 48076.74
423.5966, 48093.95
424.0787, 48138.05
424.5609, 48155.99
425.0430, 48126.27
425.5251, 48091.43
426.0072, 48065.15
426.4893, 48056.20
426.9714, 48083.60
427.4536, 48173.00
427.9357, 48302.13
428.4178, 48359.02
428.8999, 48296.39
429.3820, 48266.77
429.8641, 48356.03
430.3463, 48476.74
430.8284, 48550.38
431.3105, 48562.10
431.7926, 48552.10
432.2747, 48539.23
432.7568, 48528.48
433.2390, 48539.75
433.7211, 48580.32
434.2032, 48622.78
434.6853, 48644.38
435.1674, 48648.81
435.6495, 48657.94
436.1317, 48677.80
436.6138, 48697.54
437.0959, 48705.66
437.5780, 48710.66
438.0601, 48738.06
438.5422, 48797.63
439.0244, 48853.73
439.5065, 48846.96
439.9886, 48742.66
440.4707, 48684.63
440.9528, 48685.73
441.4349, 48712.46
441.9171, 48763.77
442.3992, 48826.57
442.8813, 48878.00
443.3634, 48903.50
443.8455, 48914.78
444.3276, 48945.40
444.8098, 49009.54
445.2919, 49047.42
445.7740, 49008.08
446.2561, 48967.53
446.7382, 48984.81
447.2203, 49056.58
447.7025, 49123.03
448.1846, 49146.52
448.6667, 49142.59
449.1488, 49136.61
449.6309, 49128.88
450.1130, 49128.73
450.5952, 49148.07
451.0773, 49174.78
451.5594, 49174.89
452.0415, 49132.86
452.5236, 49098.56
453.0057, 49088.50
453.4879, 49092.99
453.9700, 49104.29
454.4521, 49119.68
454.9342, 49133.45
455.4163, 49139.35
455.8984, 49137.52
456.3806, 49144.24
456.8627, 49184.30
457.3448, 49203.89
457.8269, 49172.07
458.3090, 49125.20
458.7911, 49104.54
459.2733, 49121.78
459.7554, 49156.26
460.2375, 49184.82
460.7196, 49207.41
461.2017, 49238.91
461.6838, 49297.50
462.1660, 49336.44
462.6481, 49298.46
463.1302, 49225.18
463.6123, 49205.32
464.0944, 49296.66
464.5765, 49395.08
465.0587, 49400.86
465.5408, 49341.41
466.0229, 49305.05
466.5050, 49317.97
466.9871, 49355.86
467.4692, 49393.53
467.9514, 49434.29
468.4335, 49450.70
468.9156, 49419.91
469.3977, 49388.05
469.8798, 49383.34
470.3619, 49394.32
470.8441, 49397.74
471.3262, 49382.95
471.8083, 49353.25
472.2904, 49310.75
472.7725, 49246.02
473.2546, 49198.04
473.7368, 49184.07
474.2189, 49174.98
474.7010, 49166.04
475.1831, 49151.61
475.6652, 49118.31
476.1473, 49049.84
476.6295, 48969.77
477.1116, 48904.22
477.5937, 48853.77
478.0758, 48848.46
478.5579, 48919.45
479.0400, 49012.22
479.5222, 49040.19
480.0043, 48998.59
480.4864, 48977.96
480.9685, 49020.53
481.4506, 49070.89
481.9327, 49087.38
482.4149, 49071.64
482.8970, 49034.75
483.3791, 48979.02
483.8612, 48922.30
484.3433, 48916.37
484.8254, 49013.29
485.3076, 49067.38
485.7897, 49032.02
486.2718, 48994.66
486.7539, 49009.17
487.2360, 49071.39
487.7181, 49152.02
488.2003, 49249.34
488.6824, 49335.61
489.1645, 49328.07
489.6466, 49210.27
490.1287, 49112.59
490.6108, 49070.90
491.0930, 49078.06
491.5751, 49136.44
492.0572, 49250.47
492.5393, 49332.04
493.0214, 49326.00
493.5035, 49290.03
493.9857, 49294.25
494.4678, 49329.76
494.9499, 49323.30
495.4320, 49224.19
495.9141, 49079.08
496.3962, 49019.73
496.8784, 49126.76
497.3605, 49200.33
497.8426, 49222.50
498.3247, 49228.32
498.8068, 49241.30
499.2889, 49259.56
499.7711, 49266.75
500.2532, 49249.63
500.7353, 49217.11
501.2174, 49191.23
501.6995, 49171.34
502.1816, 49161.42
502.6638, 49165.97
503.1459, 49178.53
503.6280, 49196.20
504.1101, 49218.62
504.5922, 49230.22
505.0743, 49199.39
505.5565, 49172.46
506.0386, 49218.76
506.5207, 49322.84
507.0028, 49392.80
507.4849, 49377.93
507.9670, 49318.79
508.4492, 49309.66
508.9313, 49396.57
509.4134, 49448.54
509.8955, 49444.10
510.3776, 49426.27
510.8597, 49415.52
511.3419, 49413.07
511.8240, 49414.70
512.3061, 49418.78
512.7882, 49423.26
513.2703, 49429.95
513.7524, 49443.47
514.2346, 49422.70
514.7167, 49331.94
515.1988, 49233.43
515.6809, 49180.49
516.1630, 49168.88
516.6451, 49172.46
517.1273, 49232.99
517.6094, 49264.29
518.0915, 49153.64
518.5736, 48948.36
519.0557, 48801.44
519.5378, 48775.70
520.0200, 48811.68
520.5021, 48817.25
520.9842, 48783.34
521.4663, 48748.00
521.9484, 48734.81
522.4305, 48696.11
522.9127, 48577.47
523.3948, 48427.68
523.8769, 48335.98
524.3590, 48341.77
524.8411, 48385.35
525.3232, 48387.08
525.8054, 48347.81
526.2875, 48300.89
526.7696, 48243.78
527.2517, 48192.13
527.7338, 48157.81
528.2159, 48138.57
528.6981, 48131.28
529.1802, 48149.25
529.6623, 48162.46
530.1444, 48142.98
530.6265, 48112.16
531.1086, 48113.00
531.5908, 48153.14
532.0729, 48194.15
532.5550, 48197.17
533.0371, 48161.87
533.5192, 48108.80
534.0013, 48007.14
534.4835, 47926.45
534.9656, 47897.49
535.4477, 47885.61
535.9298, 47846.99
536.4119, 47775.62
536.8940, 47718.97
537.3762, 47733.61
537.8583, 47793.57
538.3404, 47820.99
538.8225, 47810.87
539.3046, 47785.36
539.7867, 47753.19
540.2689, 47714.91
540.7510, 47672.92
541.2331, 47629.24
541.7152, 47576.78
542.1973, 47491.01
542.6794, 47413.21
543.1616, 47387.10
543.6437, 47403.82
544.1258, 47422.34
544.6079, 47417.66
545.0900, 47393.96
545.5721, 47354.27
546.0543, 47275.24
546.5364, 47250.56
547.0185, 47350.78
547.5006, 47458.52
547.9827, 47512.36
548.4648, 47516.29
548.9470, 47493.13
549.4291, 47423.64
549.9112, 47361.43
550.3933, 47383.38
550.8754, 47463.22
551.3575, 47498.75
551.8397, 47455.87
552.3218, 47391.23
552.8039, 47372.56
553.2860, 47407.35
553.7681, 47426.81
554.2502, 47409.26
554.7324, 47404.04
555.2145, 47445.40
555.6966, 47498.62
556.1787, 47507.60
556.6608, 47462.75
557.1429, 47427.55
557.6251, 47478.64
558.1072, 47603.91
558.5893, 47727.73
559.0714, 47865.64
559.5535, 47942.08
560.0356, 47871.61
560.5178, 47738.56
560.9999, 47709.61
561.4820, 47823.49
561.9641, 47910.40
562.4462, 47899.77
562.9283, 47850.63
563.4105, 47804.52
563.8926, 47771.89
564.3747, 47772.66
564.8568, 47823.20
565.3389, 47891.14
565.8210, 47888.57
566.3032, 47788.38
566.7853, 47691.26
567.2674, 47575.04
567.7495, 47491.43
568.2316, 47488.87
568.7137, 47538.39
569.1959, 47567.63
569.6780, 47543.53
570.1601, 47501.47
570.6422, 47472.20
571.1243, 47452.60
571.6064, 47428.27
572.0886, 47394.51
572.5707, 47378.16
573.0528, 47412.05
573.5349, 47493.51
574.0170, 47532.24
574.4991, 47482.59
574.9813, 47451.38
575.4634, 47481.03
575.9455, 47521.09
576.4276, 47513.98
576.9097, 47460.50
577.3918, 47417.17
577.8740, 47435.51
578.3561, 47493.60
578.8382, 47529.71
579.3203, 47541.78
579.8024, 47551.36
580.2845, 47559.59
580.7667, 47575.92
581.2488, 47627.74
581.7309, 47718.83
582.2130, 47763.81
582.6951, 47703.15
583.1772, 47639.97
583.6594, 47638.34
584.1415, 47676.75
584.6236, 47716.32
585.1057, 47741.93
585.5878, 47752.40
586.0699, 47740.66
586.5521, 47705.07
587.0342, 47686.84
587.5163, 47689.26
587.9984, 47703.14
588.4805, 47741.60
588.9626, 47781.39
589.4448, 47790.05
589.9269, 47758.88
590.4090, 47730.13
590.8911, 47722.71
591.3732, 47728.89
591.8553, 47741.32
592.3375, 47758.91
592.8196, 47785.65
593.3017, 47826.32
593.7838, 47863.20
594.2659, 47850.43
594.7480, 47746.18
595.2302, 47698.98
595.7123, 47752.98
596.1944, 47822.04
596.6765, 47882.96
597.1586, 47933.30
597.6407, 47973.34
598.1229, 48004.48
598.6050, 48019.35
599.0871, 48000.60
599.5692, 47962.51
600.0513, 47935.41
600.5334, 47923.30
601.0156, 47934.35
601.4977, 47980.57
601.9798, 48049.02
602.4619, 48088.82
602.9440, 48079.85
603.4261, 48069.64
603.9083, 48047.70
604.3904, 48034.44
604.8725, 48057.34
605.3546, 48100.11
605.8367, 48113.69
606.3188, 48062.77
606.8010, 48002.86
607.2831, 48024.19
607.7652, 48137.91
608.2473, 48194.36
608.7294, 48227.83
609.2115, 48239.55
609.6937, 48164.38
610.1758, 48201.41
610.6579, 48193.48
611.1400, 48183.70
611.6221, 48236.52
612.1042, 48173.98
612.5864, 48225.82
613.0685, 48232.00
613.5506, 48259.07
614.0327, 48240.90
614.5148, 48236.70
614.9969, 48277.77
615.4791, 48293.77
615.9612, 48270.39
616.4433, 48298.79
616.9254, 48234.68
617.4075, 48251.75
617.8896, 48303.84
618.3718, 48282.74
618.8539, 48170.08
619.3360, 48214.05
619.8181, 48260.85
620.3002, 48284.70
620.7823, 48301.83
621.2645, 48342.51
621.7466, 48401.41
622.2287, 48430.45
622.7108, 48381.53
623.1929, 48290.41
623.6750, 48274.96
624.1572, 48348.55
624.6393, 48414.15
625.1214, 48456.17
625.6035, 48475.07
626.0856, 48457.06
626.5677, 48410.94
627.0499, 48384.21
627.5320, 48389.06
628.0141, 48408.18
628.4962, 48458.19
628.9783, 48506.27
629.4604, 48496.48
629.9426, 48428.95
630.4247, 48364.64
630.9068, 48358.11
631.3889, 48392.54
631.8710, 48396.82
632.3531, 48359.66
632.8353, 48340.75
633.3174, 48367.65
633.7995, 48401.88
634.2816, 48401.70
634.7637, 48375.25
635.2458, 48367.64
635.7280, 48430.56
636.2101, 48466.73
636.6922, 48389.89
637.1743, 48272.45
637.6564, 48222.82
638.1385, 48254.92
638.6207, 48303.17
639.1028, 48311.35
639.5849, 48290.13
640.0670, 48287.61
640.5491, 48312.87
641.0313, 48321.42
641.5134, 48289.69
641.9955, 48253.21
642.4776, 48241.38
642.9597, 48250.81
643.4418, 48265.98
643.9240, 48299.65
644.4061, 48320.45
644.8882, 48307.64
645.3703, 48274.73
645.8524, 48231.00
646.3345, 48183.70
646.8167, 48156.88
647.2988, 48176.15
647.7809, 48221.65
648.2630, 48208.38
648.7451, 48108.28
649.2272, 48072.86
649.7094, 48168.75
650.1915, 48292.16
650.6736, 48385.63
651.1557, 48441.68
651.6378, 48424.95
652.1199, 48238.11
652.6021, 48094.46
653.0842, 48119.68
653.5663, 48222.02
654.0484, 48311.98
654.5305, 48365.30
655.0126, 48359.33
655.4948, 48266.38
655.9769, 48133.89
656.4590, 48105.75
656.9411, 48203.41
657.4232, 48261.45
657.9053, 48238.29
658.3875, 48195.51
658.8696, 48164.05
659.3517, 48149.48
659.8338, 48174.85
660.3159, 48287.88
660.7980, 48367.11
661.2802, 48361.54
661.7623, 48310.57
662.2444, 48234.77
662.7265, 48149.46
663.2086, 48080.37
663.6907, 48041.65
664.1729, 48033.08
664.6550, 48070.02
665.1371, 48154.45
665.6192, 48188.98
666.1013, 48147.50
666.5834, 48094.06
667.0656, 48061.67
667.5477, 48050.19
668.0298, 48059.55
668.5119, 48111.75
668.9940, 48136.89
669.4761, 48098.81
669.9583, 48048.99
670.4404, 48016.57
670.9225, 48004.59
671.4046, 48012.95
671.8867, 48042.09
672.3688, 48079.53
672.8510, 48110.50
673.3331, 48135.67
673.8152, 48161.72
674.2973, 48191.54
674.7794, 48205.77
675.2615, 48188.46
675.7437, 48155.46
676.2258, 48139.49
676.7079, 48146.39
677.1900, 48153.54
677.6721, 48160.55
678.1542, 48167.55
678.6364, 48161.61
679.1185, 48160.90
679.6006, 48210.87
680.0827, 48318.05
680.5648, 48392.51
681.0469, 48305.73
681.5291, 48140.64
682.0112, 48103.48
682.4933, 48190.35
682.9754, 48278.07
683.4575, 48324.19
683.9396, 48337.45
684.4218, 48322.95
684.9039, 48273.45
685.3860, 48259.93
685.8681, 48309.36
686.3502, 48361.75
686.8323, 48408.05
687.3145, 48450.40
687.7966, 48492.86
688.2787, 48534.82
688.7608, 48569.07
689.2429, 48590.20
689.7250, 48603.16
690.2072, 48601.95
690.6893, 48597.59
691.1714, 48627.66
691.6535, 48699.65
692.1356, 48777.11
692.6177, 48831.14
693.0999, 48859.23
693.5820, 48837.01
694.0641, 48719.76
694.5462, 48655.24
695.0283, 48722.60
695.5104, 48792.77
695.9926, 48770.99
696.4747, 48688.95
696.9568, 48644.13
697.4389, 48684.93
697.9210, 48717.04
698.4031, 48682.75
698.8853, 48617.36
699.3674, 48554.64
699.8495, 48501.84
700.3316, 48467.86
700.8137, 48459.61
701.2958, 48453.77
701.7780, 48390.41
702.2601, 48264.11
702.7422, 48215.42
703.2243, 48285.00
703.7064, 48345.80
704.1885, 48324.12
704.6707, 48253.79
705.1528, 48202.55
705.6349, 48174.38
706.1170, 48147.77
706.5991, 48134.59
707.0812, 48106.81
707.5634, 48013.73
708.0455, 47909.20
708.5276, 47895.58
709.0097, 47991.76
709.4918, 48084.38
709.9739, 48058.09
710.4561, 47954.46
710.9382, 47876.39
711.4203, 47821.57
711.9024, 47749.82
712.3845, 47643.37
712.8666, 47537.24
713.3488, 47467.55
713.8309, 47434.34
714.3130, 47439.02
714.7951, 47529.25
715.2772, 47590.61
715.7593, 47604.42
716.2415, 47588.73
716.7236, 47560.95
717.2057, 47516.76
717.6878, 47430.18
718.1699, 47253.24
718.6520, 47098.15
719.1342, 47085.76
719.6163, 47140.26
720.0984, 47132.11
720.5805, 47053.23
721.0626, 46970.32
721.5447, 46925.17
722.0269, 46901.25
722.5090, 46860.69
722.9911, 46799.44
723.4732, 46752.43
723.9553, 46731.11
724.4374, 46704.24
724.9196, 46649.37
725.4017, 46581.95
725.8838, 46529.72
726.3659, 46495.60
726.8480, 46465.30
727.3301, 46434.41
727.8123, 46408.45
728.2944, 46400.82
728.7765, 46395.80
729.2586, 46368.07
729.7407, 46312.96
730.2228, 46248.61
730.7050, 46182.75
731.1871, 46123.49
731.6692, 46093.66
732.1513, 46090.10
732.6334, 46089.55
733.1155, 46089.20
733.5977, 46063.84
734.0798, 45978.63
734.5619, 45845.49
735.0440, 45773.73
735.5261, 45813.70
736.0082, 45829.18
736.4904, 45785.04
736.9725, 45735.56
737.4546, 45714.00
737.9367, 45711.59
738.4188, 45698.67
738.9009, 45652.78
739.3831, 45638.17
739.8652, 45738.29
740.3473, 45855.88
740.8294, 45870.80
741.3115, 45800.06
741.7936, 45718.23
742.2758, 45659.13
742.7579, 45626.46
743.2400, 45646.18
743.7221, 45709.54
744.2042, 45687.64
744.6863, 45559.70
745.1685, 45465.36
745.6506, 45469.04
746.1327, 45506.25
746.6148, 45496.04
747.0969, 45433.99
747.5790, 45376.02
748.0612, 45306.75
748.5433, 45260.76
749.0254, 45264.01
749.5075, 45279.25
749.9896, 45272.33
750.4717, 45246.45
750.9539, 45229.67
751.4360, 45245.97
751.9181, 45251.77
752.4002, 45192.62
752.8823, 45100.18
753.3644, 45034.87
753.8466, 45000.32
754.3287, 44966.43
754.8108, 44915.88
755.2929, 44861.41
755.7750, 44831.52
756.2571, 44831.12
756.7393, 44802.91
757.2214, 44727.04
757.7035, 44674.07
758.1856, 44690.77
758.6677, 44732.14
759.1498, 44728.90
759.6320, 44677.84
760.1141, 44636.64
760.5962, 44609.19
761.0783, 44593.10
761.5604, 44600.44
762.0425, 44610.09
762.5247, 44591.17
763.0068, 44549.75
763.4889, 44529.55
763.9710, 44568.16
764.4531, 44613.20
764.9352, 44594.85
765.4174, 44538.05
765.8995, 44511.81
766.3816, 44520.80
766.8637, 44507.53
767.3458, 44433.23
767.8279, 44335.84
768.3101, 44304.55
768.7922, 44358.14
769.2743, 44358.80
769.7564, 44275.85
770.2385, 44204.41
770.7206, 44199.52
771.2028, 44217.34
771.6849, 44191.08
772.1670, 44117.52
772.6491, 44058.44
773.1312, 44034.66
773.6133, 44010.25
774.0955, 43954.84
774.5776, 43903.09
775.0597, 43895.71
775.5418, 43930.52
776.0239, 43979.25
776.5060, 44042.40
776.9882, 44078.64
777.4703, 44016.29
777.9524, 43897.93
778.4345, 43815.41
778.9166, 43780.24
779.3987, 43781.83
779.8809, 43817.64
780.3630, 43863.77
780.8451, 43871.85
781.3272, 43836.19
781.8093, 43823.51
782.2914, 43849.40
782.7736, 43856.10
783.2557, 43814.06
783.7378, 43749.43
784.2199, 43685.61
784.7020, 43621.59
785.1841, 43596.22
785.6663, 43660.34
786.1484, 43699.82
786.6305, 43663.75
787.1126, 43606.62
787.5947, 43571.55
788.0768, 43559.13
788.5590, 43552.21
789.0411, 43543.65
789.5232, 43538.17
790.0053, 43553.30
790.4874, 43567.09
790.9695, 43535.85
791.4517, 43467.10
791.9338, 43407.13
792.4159, 43375.59
792.8980, 43349.26
793.3801, 43288.59
793.8622, 43200.52
794.3444, 43162.83
794.8265, 43184.50
795.3086, 43199.40
795.7907, 43186.37
796.2728, 43164.80
796.7549, 43155.12
797.2371, 43155.43
797.7192, 43143.62
798.2013, 43134.30
798.6834, 43091.06
799.1655, 42967.19
799.6476, 42853.00
800.1298, 42808.47
800.6119, 42810.27
801.0940, 42808.52
801.5761, 42791.03
802.0582, 42774.92
802.5403, 42796.69
803.0225, 42799.14
803.5046, 42691.17
803.9867, 42535.54
804.4688, 42465.65
804.9509, 42508.39
805.4330, 42570.65
805.9152, 42574.42
806.3973, 42541.48
806.8794, 42517.26
807.3615, 42500.27
807.8436, 42480.13
808.3257, 42454.98
808.8079, 42425.32
809.2900, 42390.45
809.7721, 42352.95
810.2542, 42315.95
810.7363, 42264.96
811.2184, 42268.10
811.7006, 42374.38
812.1827, 42455.92
812.6648, 42451.48
813.1469, 42401.41
813.6290, 42353.99
814.1111, 42310.36
814.5933, 42244.04
815.0754, 42102.40
815.5575, 41999.18
816.0396, 41993.88
816.5217, 42030.13
817.0038, 42069.24
817.4860, 42099.94
817.9681, 42111.04
818.4502, 42094.09
818.9323, 42071.18
819.4144, 42067.85
819.8965, 42067.09
820.3787, 42035.10
820.8608, 41979.76
821.3429, 41937.61
821.8250, 41921.69
822.3071, 41914.10
822.7892, 41890.04
823.2714, 41858.11
823.7535, 41868.17
824.2356, 41923.92
824.7177, 41946.13
825.1998, 41910.18
825.6819, 41864.33
826.1641, 41844.89
826.6462, 41847.12
827.1283, 41854.98
827.6104, 41880.91
828.0925, 41885.99
828.5746, 41856.01
829.0568, 41821.92
829.5389, 41788.89
830.0210, 41762.20
830.5031, 41747.72
830.9852, 41745.83
831.4673, 41756.93
831.9495, 41791.61
832.4316, 41826.73
832.9137, 41848.00
833.3958, 41867.31
833.8779, 41903.18
834.3600, 41950.06
834.8422, 41981.81
835.3243, 41982.37
835.8064, 41980.86
836.2885, 41999.04
836.7706, 42036.45
837.2527, 42108.03
837.7349, 42199.88
838.2170, 42254.58
838.6991, 42252.82
839.1812, 42244.29
839.6633, 42286.34
840.1454, 42366.29
840.6276, 42430.61
841.1097, 42478.63
841.5918, 42541.15
842.0739, 42626.52
842.5560, 42716.25
843.0381, 42794.99
843.5203, 42871.13
844.0024, 42968.68
844.4845, 43083.63
844.9666, 43237.05
845.4487, 43502.20
845.9308, 43698.97
846.4130, 43687.06
846.8951, 43621.37
847.3772, 43685.21
847.8593, 43876.09
848.3414, 44003.27
848.8235, 43981.11
849.3057, 43971.72
849.7878, 44026.07
850.2699, 44109.25
850.7520, 44232.10
851.2341, 44353.25
851.7162, 44371.05
852.1984, 44239.32
852.6805, 44109.04
853.1626, 44117.01
853.6447, 44148.07
854.1268, 44068.29
854.6089, 43912.44
855.0911, 43765.78
855.5732, 43647.36
856.0553, 43523.60
856.5374, 43365.21
857.0195, 43192.89
857.5016, 43049.59
857.9838, 42927.78
858.4659, 42786.38
858.9480, 42621.52
859.4301, 42464.16
859.9122, 42328.86
860.3943, 42213.18
860.8765, 42111.39
861.3586, 42024.02
861.8407, 41968.98
862.3228, 41960.56
862.8049, 41928.17
863.2870, 41843.25
863.7692, 41748.17
864.2513, 41678.19
864.7334, 41628.76
865.2155, 41580.10
865.6976, 41553.24
866.1797, 41489.53
866.6619, 41333.77
867.1440, 41205.73
867.6261, 41177.84
868.1082, 41190.10
868.5903, 41175.96
869.0724, 41128.85
869.5546, 41045.79
870.0367, 40890.14
870.5188, 40744.05
871.0009, 40650.56
871.4830, 40575.52
871.9651, 40485.74
872.4473, 40385.61
872.9294, 40305.55
873.4115, 40262.35
873.8936, 40189.08
874.3757, 39983.30
874.8578, 39761.55
875.3400, 39674.80
875.8221, 39677.71
876.3042, 39662.00
876.7863, 39602.65
877.2684, 39532.63
877.7505, 39472.30
878.2327, 39426.81
878.7148, 39429.78
879.1969, 39456.71
879.6790, 39391.38
880.1611, 39232.14
880.6432, 39098.49
881.1254, 39046.36
881.6075, 39040.18
882.0896, 39038.93
882.5717, 39040.22
883.0538, 39016.27
883.5359, 38961.35
884.0181, 38926.07
884.5002, 38930.11
884.9823, 38923.52
885.4644, 38859.68
885.9465, 38768.95
886.4286, 38741.65
886.9108, 38819.21
887.3929, 38822.54
887.8750, 38693.38
888.3571, 38580.34
888.8392, 38535.88
889.3214, 38524.38
889.8035, 38509.77
890.2856, 38494.57
890.7677, 38499.32
891.2498, 38553.14
891.7319, 38586.34
892.2141, 38597.06
892.6962, 38576.44
893.1783, 38485.35
893.6604, 38374.32
894.1425, 38327.02
894.6246, 38356.99
895.1068, 38390.35
895.5889, 38408.64
896.0710, 38408.63
896.5531, 38380.86
897.0352, 38339.09
897.5173, 38293.98
897.9995, 38249.71
898.4816, 38208.79
898.9637, 38171.09
899.4458, 38148.34
899.9279, 38172.88
900.4100, 38201.50
900.8922, 38165.86
901.3743, 38091.63
901.8564, 38041.40
902.3385, 38027.67
902.8206, 38024.49
903.3027, 38013.69
903.7849, 38002.84
904.2670, 38000.77
904.7491, 38009.12
905.2312, 38042.47
905.7133, 38096.63
906.1954, 38130.45
906.6776, 38127.91
907.1597, 38109.46
907.6418, 38097.09
908.1239, 38088.34
908.6060, 38071.90
909.0881, 38047.66
909.5703, 38022.21
910.0524, 37994.46
910.5345, 37982.03
911.0166, 37997.94
911.4987, 38027.34
911.9808, 38043.58
912.4630, 38045.49
912.9451, 38051.43
913.4272, 38056.98
913.9093, 38083.68
914.3914, 38156.82
914.8735, 38215.05
915.3557, 38197.76
915.8378, 38133.39
916.3199, 38117.16
916.8020, 38179.73
917.2841, 38211.43
917.7662, 38187.20
918.2484, 38165.73
918.7305, 38151.64
919.2126, 38157.91
919.6947, 38205.98
920.1768, 38289.23
920.6589, 38363.12
921.1411, 38416.36
921.6232, 38472.68
922.1053, 38556.23
922.5874, 38621.14
923.0695, 38635.02
923.5516, 38619.68
924.0338, 38600.43
924.5159, 38581.75
924.9980, 38573.14
925.4801, 38588.13
925.9622, 38600.18
926.4443, 38600.95
926.9265, 38591.36
927.4086, 38548.67
927.8907, 38502.94
928.3728, 38525.67
928.8549, 38636.50
929.3370, 38732.32
929.8192, 38705.05
930.3013, 38688.96
930.7834, 38829.44
931.2655, 39025.62
931.7476, 39125.14
932.2297, 39140.25
932.7119, 39181.94
933.1940, 39299.63
933.6761, 39450.61
934.1582, 39609.53
934.6403, 39767.89
935.1224, 39886.97
935.6046, 40002.36
936.0867, 40205.95
936.5688, 40501.11
937.0509, 40802.18
937.5330, 41053.20
938.0151, 41288.03
938.4973, 41556.83
938.9794, 41844.83
939.4615, 42107.24
939.9436, 42353.57
940.4257, 42638.47
940.9078, 42976.63
941.3900, 43325.69
941.8721, 43650.18
942.3542, 43962.52
942.8363, 44300.15
943.3184, 44652.36
943.8005, 44965.73
944.2827, 45233.61
944.7648, 45431.55
945.2469, 45547.34
945.7290, 45642.24
946.2111, 45800.58
946.6932, 45973.79
947.1754, 45956.29
947.6575, 45746.46
948.1396, 45530.12
948.6217, 45332.33
949.1038, 45085.36
949.5859, 44754.61
950.0681, 44368.35
950.5502, 43969.17
951.0323, 43554.32
951.5144, 43076.60
951.9965, 42517.06
952.4786, 42014.61
952.9608, 41605.34
953.4429, 41214.81
953.9250, 40796.06
954.4071, 40376.36
954.8892, 39992.51
955.3713, 39644.26
955.8535, 39381.67
956.3356, 39254.38
956.8177, 39063.86
957.2998, 38725.58
957.7819, 38404.20
958.2640, 38229.53
958.7462, 38134.95
959.2283, 37957.89
959.7104, 37661.83
960.1925, 37461.18
960.6746, 37412.74
961.1567, 37353.28
961.6389, 37245.96
962.1210, 37115.02
962.6031, 36969.98
963.0852, 36818.38
963.5673, 36680.63
964.0494, 36553.49
964.5316, 36449.35
965.0137, 36376.38
965.4958, 36315.35
965.9779, 36262.11
966.4600, 36217.88
966.9421, 36193.73
967.4243, 36180.20
967.9064, 36139.03
968.3885, 36050.04
968.8706, 35976.52
969.3527, 35935.04
969.8348, 35892.17
970.3170, 35836.42
970.7991, 35774.08
971.2812, 35703.07
971.7633, 35629.26
972.2454, 35582.47
972.7275, 35591.87
973.2097, 35575.28
973.6918, 35501.89
974.1739, 35423.04
974.6560, 35353.92
975.1381, 35296.85
975.6202, 35248.44
976.1024, 35211.87
976.5845, 35210.05
977.0666, 35294.91
977.5487, 35325.71
978.0308, 35229.06
978.5129, 35117.19
978.9951, 35029.05
979.4772, 34974.20
979.9593, 34974.54
980.4414, 35021.46
980.9235, 35051.56
981.4056, 35053.02
981.8878, 35028.63
982.3699, 34967.49
982.8520, 34893.40
983.3341, 34801.74
983.8162, 34716.68
984.2983, 34671.38
984.7805, 34666.52
985.2626, 34675.65
985.7447, 34712.32
986.2268, 34725.84
986.7089, 34688.81
987.1910, 34631.58
987.6732, 34552.80
988.1553, 34479.55
988.6374, 34460.60
989.1195, 34494.38
989.6016, 34509.30
990.0837, 34465.70
990.5659, 34421.20
991.0480, 34404.10
991.5301, 34391.00
992.0122, 34361.19
992.4943, 34324.98
992.9764, 34299.23
993.4586, 34286.21
993.9407, 34276.87
994.4228, 34269.27
994.9049, 34262.25
995.3870, 34269.96
995.8691, 34263.80
996.3513, 34207.93
996.8334, 34128.76
997.3155, 34059.92
997.7976, 34010.77
998.2797, 33997.79
998.7618, 34052.01
999.2440, 34105.48
999.7261, 34136.55
1000.208, 34144.12
1000.690, 34113.10
1001.172, 34064.61
1001.655, 34035.30
1002.137, 34027.70
1002.619, 34004.73
1003.101, 33924.09
1003.583, 33867.69
1004.065, 33898.23
1004.547, 33945.92
1005.029, 33963.54
1005.511, 33954.54
1005.994, 33930.58
1006.476, 33893.97
1006.958, 33841.20
1007.440, 33751.82
1007.922, 33678.18
1008.404, 33645.98
1008.886, 33637.75
1009.368, 33658.68
1009.851, 33684.98
1010.333, 33674.41
1010.815, 33627.98
1011.297, 33603.09
1011.779, 33644.44
1012.261, 33669.25
1012.743, 33622.42
1013.225, 33565.05
1013.707, 33538.23
1014.190, 33532.13
1014.672, 33539.71
1015.154, 33553.14
1015.636, 33536.80
1016.118, 33453.72
1016.600, 33387.51
1017.082, 33375.31
1017.564, 33385.92
1018.047, 33416.89
1018.529, 33446.55
1019.011, 33438.01
1019.493, 33397.89
1019.975, 33387.16
1020.457, 33449.59
1020.939, 33486.54
1021.421, 33452.96
1021.903, 33398.62
1022.386, 33333.66
1022.868, 33277.19
1023.350, 33254.65
1023.832, 33261.33
1024.314, 33264.71
1024.796, 33253.59
1025.278, 33248.17
1025.760, 33256.42
1026.242, 33268.45
1026.725, 33300.24
1027.207, 33317.69
1027.689, 33268.93
1028.171, 33172.24
1028.653, 33108.66
1029.135, 33104.42
1029.617, 33097.36
1030.099, 33073.00
1030.582, 33047.83
1031.064, 33030.45
1031.546, 33012.95
1032.028, 32980.21
1032.510, 32941.52
1032.992, 32930.14
1033.474, 32963.75
1033.956, 32975.85
1034.438, 32924.62
1034.921, 32898.15
1035.403, 32945.50
1035.885, 33003.57
1036.367, 33043.01
1036.849, 33052.44
1037.331, 32987.65
1037.813, 32801.96
1038.295, 32727.52
1038.778, 32886.90
1039.260, 32977.31
1039.742, 32903.84
1040.224, 32797.56
1040.706, 32734.30
1041.188, 32696.78
1041.670, 32646.37
1042.152, 32575.65
1042.635, 32562.44
1043.117, 32651.63
1043.599, 32705.83
1044.081, 32685.70
1044.563, 32663.48
1045.045, 32685.22
1045.527, 32718.79
1046.009, 32710.06
1046.491, 32660.42
1046.974, 32649.14
1047.456, 32696.61
1047.938, 32719.22
1048.420, 32707.38
1048.902, 32669.22
1049.384, 32594.31
1049.866, 32526.43
1050.348, 32527.25
1050.830, 32581.09
1051.313, 32584.97
1051.795, 32529.12
1052.277, 32487.96
1052.759, 32467.87
1053.241, 32453.92
1053.723, 32438.84
1054.205, 32440.39
1054.687, 32484.08
1055.169, 32542.82
1055.652, 32515.31
1056.134, 32402.92
1056.616, 32386.02
1057.098, 32472.99
1057.580, 32528.54
1058.062, 32513.82
1058.544, 32475.02
1059.026, 32446.80
1059.509, 32417.52
1059.991, 32347.61
1060.473, 32255.25
1060.955, 32261.59
1061.437, 32346.79
1061.919, 32349.15
1062.401, 32245.46
1062.883, 32168.21
1063.365, 32194.18
1063.848, 32258.69
1064.330, 32287.39
1064.812, 32284.30
1065.294, 32240.74
1065.776, 32176.82
1066.258, 32149.68
1066.740, 32162.72
1067.222, 32196.10
1067.705, 32240.03
1068.187, 32269.32
1068.669, 32261.31
1069.151, 32225.04
1069.633, 32137.10
1070.115, 32050.41
1070.597, 32071.73
1071.079, 32165.89
1071.562, 32225.79
1072.044, 32223.36
1072.526, 32201.80
1073.008, 32187.67
1073.490, 32161.93
1073.972, 32088.15
1074.454, 32014.84
1074.936, 31999.81
1075.418, 32013.68
1075.901, 32005.29
1076.383, 31971.22
1076.865, 31939.15
1077.347, 31912.16
1077.829, 31910.36
1078.311, 31971.74
1078.793, 32027.33
1079.275, 32039.30
1079.757, 32022.60
1080.240, 31974.87
1080.722, 31916.11
1081.204, 31902.56
1081.686, 31956.99
1082.168, 31985.79
1082.650, 31954.72
1083.132, 31919.54
1083.614, 31893.32
1084.096, 31870.51
1084.579, 31846.80
1085.061, 31824.11
1085.543, 31808.37
1086.025, 31800.33
1086.507, 31781.80
1086.989, 31718.53
1087.471, 31718.67
1087.953, 31850.28
1088.436, 31934.28
1088.918, 31864.73
1089.400, 31757.03
1089.882, 31742.79
1090.364, 31803.91
1090.846, 31847.72
1091.328, 31874.50
1091.810, 31884.19
1092.292, 31879.34
1092.775, 31833.41
1093.257, 31727.65
1093.739, 31641.08
1094.221, 31638.27
1094.703, 31681.68
1095.185, 31691.15
1095.667, 31672.29
1096.149, 31686.28
1096.632, 31727.58
1097.114, 31727.90
1097.596, 31679.49
1098.078, 31657.26
1098.560, 31700.02
1099.042, 31738.28
1099.524, 31677.68
1100.006, 31572.24
1100.489, 31526.51
1100.971, 31523.63
1101.453, 31526.53
1101.935, 31533.57
1102.417, 31560.76
1102.899, 31608.83
1103.381, 31650.67
1103.863, 31675.27
1104.345, 31666.86
1104.828, 31583.12
1105.310, 31483.30
1105.792, 31418.09
1106.274, 31390.34
1106.756, 31414.82
1107.238, 31474.93
1107.720, 31509.09
1108.202, 31491.52
1108.684, 31474.41
1109.167, 31478.11
1109.649, 31491.47
1110.131, 31520.12
1110.613, 31545.58
1111.095, 31555.21
1111.577, 31548.75
1112.059, 31521.20
1112.541, 31469.94
1113.023, 31441.46
1113.506, 31461.31
1113.988, 31471.87
1114.470, 31462.00
1114.952, 31450.67
1115.434, 31456.38
1115.916, 31450.39
1116.398, 31388.06
1116.880, 31290.63
1117.363, 31261.87
1117.845, 31326.73
1118.327, 31349.37
1118.809, 31320.75
1119.291, 31285.65
1119.773, 31250.77
1120.255, 31236.66
1120.737, 31258.38
1121.219, 31305.11
1121.702, 31367.96
1122.184, 31437.09
1122.666, 31453.89
1123.148, 31425.36
1123.630, 31392.58
1124.112, 31362.84
1124.594, 31339.81
1125.076, 31325.77
1125.559, 31332.43
1126.041, 31380.92
1126.523, 31428.75
1127.005, 31403.80
1127.487, 31345.83
1127.969, 31314.56
1128.451, 31303.97
1128.933, 31299.18
1129.416, 31292.32
1129.898, 31264.61
1130.380, 31202.14
1130.862, 31157.63
1131.344, 31194.27
1131.826, 31220.22
1132.308, 31144.02
1132.790, 31059.72
1133.272, 31060.52
1133.755, 31120.12
1134.237, 31187.13
1134.719, 31254.39
1135.201, 31277.47
1135.683, 31200.34
1136.165, 31155.95
1136.647, 31182.47
1137.129, 31215.11
1137.611, 31246.27
1138.094, 31254.21
1138.576, 31200.44
1139.058, 31116.70
1139.540, 31111.83
1140.022, 31200.20
1140.504, 31264.66
1140.986, 31308.23
1141.468, 31295.72
1141.950, 31209.38
1142.433, 31172.98
1142.915, 31262.11
1143.397, 31367.09
1143.879, 31342.60
1144.361, 31233.75
1144.843, 31148.06
1145.325, 31092.62
1145.807, 31109.39
1146.290, 31183.36
1146.772, 31253.51
1147.254, 31299.29
1147.736, 31306.65
1148.218, 31258.02
1148.700, 31219.24
1149.182, 31273.12
1149.664, 31347.47
1150.146, 31378.33
1150.629, 31375.97
1151.111, 31337.53
1151.593, 31285.72
1152.075, 31272.80
1152.557, 31309.95
1153.039, 31332.16
1153.521, 31299.89
1154.003, 31277.38
1154.486, 31297.62
1154.968, 31311.64
1155.450, 31286.42
1155.932, 31248.70
1156.414, 31226.93
1156.896, 31216.31
1157.378, 31195.97
1157.860, 31153.67
1158.343, 31173.51
1158.825, 31284.45
1159.307, 31334.67
1159.789, 31279.16
1160.271, 31249.08
1160.753, 31320.15
1161.235, 31411.78
1161.717, 31421.25
1162.199, 31379.39
1162.682, 31377.47
1163.164, 31406.07
1163.646, 31424.27
1164.128, 31434.28
1164.610, 31464.98
1165.092, 31516.55
1165.574, 31544.74
1166.056, 31523.17
1166.538, 31493.90
1167.021, 31499.21
1167.503, 31510.59
1167.985, 31493.36
1168.467, 31473.07
1168.949, 31485.14
1169.431, 31516.20
1169.913, 31529.23
1170.395, 31521.75
1170.877, 31539.38
1171.360, 31621.41
1171.842, 31678.69
1172.324, 31685.99
1172.806, 31678.97
1173.288, 31651.68
1173.770, 31636.99
1174.252, 31668.47
1174.734, 31721.92
1175.217, 31744.33
1175.699, 31735.84
1176.181, 31763.29
1176.663, 31837.02
1177.145, 31825.63
1177.627, 31707.11
1178.109, 31678.81
1178.591, 31816.04
1179.073, 31963.95
1179.556, 31993.38
1180.038, 31955.10
1180.520, 31905.90
1181.002, 31866.09
1181.484, 31899.77
1181.966, 31967.70
1182.448, 31973.05
1182.930, 31926.76
1183.413, 31909.44
1183.895, 31945.05
1184.377, 31983.29
1184.859, 31974.24
1185.341, 31996.59
1185.823, 32143.02
1186.305, 32271.08
1186.787, 32260.64
1187.270, 32205.46
1187.752, 32217.68
1188.234, 32280.40
1188.716, 32311.59
1189.198, 32301.41
1189.680, 32315.08
1190.162, 32369.27
1190.644, 32392.71
1191.126, 32359.97
1191.609, 32361.67
1192.091, 32443.82
1192.573, 32543.02
1193.055, 32595.11
1193.537, 32617.27
1194.019, 32647.10
1194.501, 32681.64
1194.983, 32711.06
1195.465, 32735.34
1195.948, 32749.03
1196.430, 32758.02
1196.912, 32794.16
1197.394, 32867.46
1197.876, 32925.78
1198.358, 32918.36
1198.840, 32907.60
1199.322, 32946.66
1199.804, 32989.62
1200.287, 32991.14
1200.769, 32981.59
1201.251, 32998.19
1201.733, 33039.71
1202.215, 33092.21
1202.697, 33159.74
1203.179, 33211.82
1203.661, 33239.48
1204.144, 33270.45
1204.626, 33306.54
1205.108, 33351.61
1205.590, 33410.49
1206.072, 33466.97
1206.554, 33502.22
1207.036, 33531.25
1207.518, 33598.98
1208.000, 33691.26
1208.483, 33731.43
1208.965, 33736.63
1209.447, 33778.29
1209.929, 33856.42
1210.411, 33916.26
1210.893, 33941.43
1211.375, 33979.84
1211.857, 34071.88
1212.340, 34168.13
1212.822, 34252.46
1213.304, 34307.87
1213.786, 34288.54
1214.268, 34260.79
1214.750, 34294.60
1215.232, 34381.14
1215.714, 34493.70
1216.197, 34636.70
1216.679, 34726.53
1217.161, 34740.98
1217.643, 34755.61
1218.125, 34766.21
1218.607, 34816.21
1219.089, 34926.68
1219.571, 35049.64
1220.053, 35151.14
1220.536, 35228.46
1221.018, 35257.16
1221.500, 35268.75
1221.982, 35371.70
1222.464, 35529.86
1222.946, 35658.57
1223.428, 35753.53
1223.910, 35837.77
1224.392, 35913.71
1224.875, 35949.01
1225.357, 35904.64
1225.839, 35905.96
1226.321, 36064.79
1226.803, 36222.64
1227.285, 36304.16
1227.767, 36351.75
1228.249, 36367.48
1228.731, 36393.80
1229.214, 36504.41
1229.696, 36682.60
1230.178, 36806.44
1230.660, 36862.87
1231.142, 36947.45
1231.624, 37064.79
1232.106, 37171.23
1232.588, 37257.48
1233.071, 37337.47
1233.553, 37417.91
1234.035, 37507.04
1234.517, 37615.20
1234.999, 37734.09
1235.481, 37857.18
1235.963, 37979.45
1236.445, 38096.45
1236.927, 38207.53
1237.410, 38308.84
1237.892, 38403.11
1238.374, 38486.37
1238.856, 38552.61
1239.338, 38683.03
1239.820, 39002.52
1240.302, 39209.00
1240.784, 39173.70
1241.267, 39184.00
1241.749, 39350.59
1242.231, 39572.76
1242.713, 39778.94
1243.195, 39964.69
1243.677, 40121.93
##END=



