##NAMES=Yugawaralite
##RRUFFID=R060568
##IDEAL CHEMISTRY=Ca(Si_6_Al_2_)O_16_&#183;4H_2_O
##LOCALITY=Khandivali Quarry, near Bombay, India
##OWNER=RRUFF
##SOURCE=Michael Scott
##DESCRIPTION=Colorless fragment
##STATUS=The identification of this mineral is confirmed by single-crystal X-ray diffraction and chemical analysis.
##URL=rruff.info/R060568
##MEASURED CHEMISTRY=Ca_1.00_(Si_6.00_Al_2.00_)O_16_Â·4H_2_O; H_2_O estimated by difference
8.930109e+001, 0.000000e+000
8.978320e+001, 2.257978e+003
9.026532e+001, 2.230893e+003
9.074744e+001, 2.227984e+003
9.122955e+001, 2.255635e+003
9.171167e+001, 2.301215e+003
9.219379e+001, 2.354033e+003
9.267590e+001, 2.413586e+003
9.315802e+001, 2.466405e+003
9.364014e+001, 2.499446e+003
9.412225e+001, 2.517858e+003
9.460437e+001, 2.534542e+003
9.508649e+001, 2.554627e+003
9.556860e+001, 2.573444e+003
9.605072e+001, 2.584222e+003
9.653284e+001, 2.589663e+003
9.701495e+001, 2.586587e+003
9.749707e+001, 2.569423e+003
9.797919e+001, 2.538487e+003
9.846130e+001, 2.503473e+003
9.894342e+001, 2.465187e+003
9.942554e+001, 2.424046e+003
9.990765e+001, 2.388782e+003
1.003898e+002, 2.360192e+003
1.008719e+002, 2.334695e+003
1.013540e+002, 2.306484e+003
1.018361e+002, 2.273951e+003
1.023182e+002, 2.243741e+003
1.028004e+002, 2.217663e+003
1.032825e+002, 2.195726e+003
1.037646e+002, 2.178246e+003
1.042467e+002, 2.165210e+003
1.047288e+002, 2.156520e+003
1.052109e+002, 2.152082e+003
1.056931e+002, 2.151760e+003
1.061752e+002, 2.155536e+003
1.066573e+002, 2.163443e+003
1.071394e+002, 2.175610e+003
1.076215e+002, 2.191537e+003
1.081036e+002, 2.214168e+003
1.085858e+002, 2.241657e+003
1.090679e+002, 2.263487e+003
1.095500e+002, 2.275619e+003
1.100321e+002, 2.285506e+003
1.105142e+002, 2.297042e+003
1.109963e+002, 2.309227e+003
1.114785e+002, 2.324179e+003
1.119606e+002, 2.342816e+003
1.124427e+002, 2.365011e+003
1.129248e+002, 2.387489e+003
1.134069e+002, 2.409909e+003
1.138890e+002, 2.432337e+003
1.143712e+002, 2.455097e+003
1.148533e+002, 2.477585e+003
1.153354e+002, 2.500848e+003
1.158175e+002, 2.526185e+003
1.162996e+002, 2.554357e+003
1.167817e+002, 2.579955e+003
1.172639e+002, 2.599699e+003
1.177460e+002, 2.616436e+003
1.182281e+002, 2.633763e+003
1.187102e+002, 2.653854e+003
1.191923e+002, 2.674358e+003
1.196744e+002, 2.693510e+003
1.201566e+002, 2.710851e+003
1.206387e+002, 2.728134e+003
1.211208e+002, 2.745712e+003
1.216029e+002, 2.763828e+003
1.220850e+002, 2.782871e+003
1.225671e+002, 2.804200e+003
1.230493e+002, 2.825941e+003
1.235314e+002, 2.847576e+003
1.240135e+002, 2.871227e+003
1.244956e+002, 2.889072e+003
1.249777e+002, 2.892747e+003
1.254598e+002, 2.883741e+003
1.259420e+002, 2.867580e+003
1.264241e+002, 2.846042e+003
1.269062e+002, 2.819923e+003
1.273883e+002, 2.790319e+003
1.278704e+002, 2.756349e+003
1.283525e+002, 2.720395e+003
1.288347e+002, 2.685206e+003
1.293168e+002, 2.650691e+003
1.297989e+002, 2.618146e+003
1.302810e+002, 2.589120e+003
1.307631e+002, 2.563049e+003
1.312452e+002, 2.536283e+003
1.317274e+002, 2.507062e+003
1.322095e+002, 2.477024e+003
1.326916e+002, 2.450478e+003
1.331737e+002, 2.427372e+003
1.336558e+002, 2.407169e+003
1.341379e+002, 2.388707e+003
1.346201e+002, 2.372013e+003
1.351022e+002, 2.357687e+003
1.355843e+002, 2.345639e+003
1.360664e+002, 2.336040e+003
1.365485e+002, 2.330893e+003
1.370306e+002, 2.330577e+003
1.375128e+002, 2.333856e+003
1.379949e+002, 2.338956e+003
1.384770e+002, 2.345534e+003
1.389591e+002, 2.355874e+003
1.394412e+002, 2.371878e+003
1.399233e+002, 2.393906e+003
1.404055e+002, 2.414307e+003
1.408876e+002, 2.432696e+003
1.413697e+002, 2.449835e+003
1.418518e+002, 2.466826e+003
1.423339e+002, 2.482948e+003
1.428160e+002, 2.500267e+003
1.432982e+002, 2.519591e+003
1.437803e+002, 2.540934e+003
1.442624e+002, 2.563725e+003
1.447445e+002, 2.588019e+003
1.452266e+002, 2.613804e+003
1.457087e+002, 2.639862e+003
1.461909e+002, 2.666317e+003
1.466730e+002, 2.693460e+003
1.471551e+002, 2.721742e+003
1.476372e+002, 2.751132e+003
1.481193e+002, 2.781395e+003
1.486014e+002, 2.813694e+003
1.490836e+002, 2.847033e+003
1.495657e+002, 2.879242e+003
1.500478e+002, 2.908124e+003
1.505299e+002, 2.936939e+003
1.510120e+002, 2.967323e+003
1.514941e+002, 2.998493e+003
1.519763e+002, 3.031690e+003
1.524584e+002, 3.069426e+003
1.529405e+002, 3.110188e+003
1.534226e+002, 3.147272e+003
1.539047e+002, 3.176007e+003
1.543868e+002, 3.203594e+003
1.548690e+002, 3.233951e+003
1.553511e+002, 3.271596e+003
1.558332e+002, 3.307646e+003
1.563153e+002, 3.341166e+003
1.567974e+002, 3.372028e+003
1.572795e+002, 3.399349e+003
1.577617e+002, 3.422122e+003
1.582438e+002, 3.441772e+003
1.587259e+002, 3.459334e+003
1.592080e+002, 3.476487e+003
1.596901e+002, 3.490298e+003
1.601722e+002, 3.501027e+003
1.606544e+002, 3.508508e+003
1.611365e+002, 3.509454e+003
1.616186e+002, 3.499740e+003
1.621007e+002, 3.484226e+003
1.625828e+002, 3.467135e+003
1.630649e+002, 3.450716e+003
1.635471e+002, 3.432321e+003
1.640292e+002, 3.410776e+003
1.645113e+002, 3.386007e+003
1.649934e+002, 3.358509e+003
1.654755e+002, 3.325818e+003
1.659576e+002, 3.291042e+003
1.664398e+002, 3.258482e+003
1.669219e+002, 3.228819e+003
1.674040e+002, 3.202070e+003
1.678861e+002, 3.178656e+003
1.683682e+002, 3.158487e+003
1.688503e+002, 3.141107e+003
1.693325e+002, 3.125181e+003
1.698146e+002, 3.111940e+003
1.702967e+002, 3.103552e+003
1.707788e+002, 3.102439e+003
1.712609e+002, 3.105682e+003
1.717430e+002, 3.110817e+003
1.722252e+002, 3.117692e+003
1.727073e+002, 3.126614e+003
1.731894e+002, 3.136579e+003
1.736715e+002, 3.148816e+003
1.741536e+002, 3.165560e+003
1.746357e+002, 3.189535e+003
1.751179e+002, 3.218160e+003
1.756000e+002, 3.248951e+003
1.760821e+002, 3.281644e+003
1.765642e+002, 3.315208e+003
1.770463e+002, 3.348252e+003
1.775284e+002, 3.381314e+003
1.780106e+002, 3.415460e+003
1.784927e+002, 3.451740e+003
1.789748e+002, 3.489560e+003
1.794569e+002, 3.526753e+003
1.799390e+002, 3.563132e+003
1.804211e+002, 3.600267e+003
1.809033e+002, 3.641367e+003
1.813854e+002, 3.685933e+003
1.818675e+002, 3.730281e+003
1.823496e+002, 3.773184e+003
1.828317e+002, 3.814315e+003
1.833138e+002, 3.855252e+003
1.837960e+002, 3.895901e+003
1.842781e+002, 3.935950e+003
1.847602e+002, 3.974877e+003
1.852423e+002, 4.012791e+003
1.857244e+002, 4.047601e+003
1.862065e+002, 4.079084e+003
1.866887e+002, 4.106794e+003
1.871708e+002, 4.130065e+003
1.876529e+002, 4.149140e+003
1.881350e+002, 4.162910e+003
1.886171e+002, 4.168930e+003
1.890992e+002, 4.167271e+003
1.895814e+002, 4.159552e+003
1.900635e+002, 4.146879e+003
1.905456e+002, 4.128950e+003
1.910277e+002, 4.104864e+003
1.915098e+002, 4.073792e+003
1.919919e+002, 4.037545e+003
1.924741e+002, 4.000555e+003
1.929562e+002, 3.963087e+003
1.934383e+002, 3.922798e+003
1.939204e+002, 3.876622e+003
1.944025e+002, 3.825044e+003
1.948846e+002, 3.777036e+003
1.953668e+002, 3.734668e+003
1.958489e+002, 3.695263e+003
1.963310e+002, 3.651916e+003
1.968131e+002, 3.604097e+003
1.972952e+002, 3.556491e+003
1.977773e+002, 3.511542e+003
1.982595e+002, 3.469495e+003
1.987416e+002, 3.428982e+003
1.992237e+002, 3.390603e+003
1.997058e+002, 3.353565e+003
2.001879e+002, 3.316020e+003
2.006700e+002, 3.277327e+003
2.011522e+002, 3.239537e+003
2.016343e+002, 3.204225e+003
2.021164e+002, 3.171633e+003
2.025985e+002, 3.138999e+003
2.030806e+002, 3.106003e+003
2.035627e+002, 3.073051e+003
2.040449e+002, 3.041966e+003
2.045270e+002, 3.012922e+003
2.050091e+002, 2.985091e+003
2.054912e+002, 2.958078e+003
2.059733e+002, 2.931980e+003
2.064554e+002, 2.905914e+003
2.069376e+002, 2.879274e+003
2.074197e+002, 2.852814e+003
2.079018e+002, 2.828482e+003
2.083839e+002, 2.806513e+003
2.088660e+002, 2.786036e+003
2.093481e+002, 2.766852e+003
2.098303e+002, 2.749032e+003
2.103124e+002, 2.731789e+003
2.107945e+002, 2.714745e+003
2.112766e+002, 2.698369e+003
2.117587e+002, 2.683846e+003
2.122408e+002, 2.671208e+003
2.127230e+002, 2.660340e+003
2.132051e+002, 2.651004e+003
2.136872e+002, 2.643103e+003
2.141693e+002, 2.637070e+003
2.146514e+002, 2.633440e+003
2.151335e+002, 2.631655e+003
2.156157e+002, 2.629249e+003
2.160978e+002, 2.625479e+003
2.165799e+002, 2.622273e+003
2.170620e+002, 2.620764e+003
2.175441e+002, 2.620971e+003
2.180262e+002, 2.622767e+003
2.185084e+002, 2.626283e+003
2.189905e+002, 2.631429e+003
2.194726e+002, 2.637486e+003
2.199547e+002, 2.644613e+003
2.204368e+002, 2.652593e+003
2.209189e+002, 2.661150e+003
2.214011e+002, 2.670161e+003
2.218832e+002, 2.680468e+003
2.223653e+002, 2.692594e+003
2.228474e+002, 2.706128e+003
2.233295e+002, 2.719949e+003
2.238116e+002, 2.734375e+003
2.242938e+002, 2.748157e+003
2.247759e+002, 2.760227e+003
2.252580e+002, 2.769256e+003
2.257401e+002, 2.779744e+003
2.262222e+002, 2.793465e+003
2.267043e+002, 2.808871e+003
2.271865e+002, 2.819979e+003
2.276686e+002, 2.825432e+003
2.281507e+002, 2.828245e+003
2.286328e+002, 2.830275e+003
2.291149e+002, 2.832829e+003
2.295970e+002, 2.831450e+003
2.300792e+002, 2.825184e+003
2.305613e+002, 2.814796e+003
2.310434e+002, 2.803344e+003
2.315255e+002, 2.790857e+003
2.320076e+002, 2.777588e+003
2.324897e+002, 2.763676e+003
2.329719e+002, 2.748550e+003
2.334540e+002, 2.734209e+003
2.339361e+002, 2.720481e+003
2.344182e+002, 2.707578e+003
2.349003e+002, 2.695992e+003
2.353824e+002, 2.685848e+003
2.358646e+002, 2.676831e+003
2.363467e+002, 2.668735e+003
2.368288e+002, 2.661321e+003
2.373109e+002, 2.655351e+003
2.377930e+002, 2.651347e+003
2.382751e+002, 2.648639e+003
2.387573e+002, 2.645258e+003
2.392394e+002, 2.640264e+003
2.397215e+002, 2.635828e+003
2.402036e+002, 2.633045e+003
2.406857e+002, 2.632998e+003
2.411678e+002, 2.632106e+003
2.416500e+002, 2.630589e+003
2.421321e+002, 2.628143e+003
2.426142e+002, 2.623788e+003
2.430963e+002, 2.616560e+003
2.435784e+002, 2.608867e+003
2.440605e+002, 2.602151e+003
2.445427e+002, 2.598042e+003
2.450248e+002, 2.590545e+003
2.455069e+002, 2.578509e+003
2.459890e+002, 2.563534e+003
2.464711e+002, 2.549425e+003
2.469532e+002, 2.537073e+003
2.474354e+002, 2.523970e+003
2.479175e+002, 2.509010e+003
2.483996e+002, 2.491098e+003
2.488817e+002, 2.474810e+003
2.493638e+002, 2.460723e+003
2.498459e+002, 2.447991e+003
2.503281e+002, 2.434862e+003
2.508102e+002, 2.420284e+003
2.512923e+002, 2.407186e+003
2.517744e+002, 2.396708e+003
2.522565e+002, 2.389650e+003
2.527386e+002, 2.382181e+003
2.532208e+002, 2.373460e+003
2.537029e+002, 2.364959e+003
2.541850e+002, 2.358971e+003
2.546671e+002, 2.356375e+003
2.551492e+002, 2.354513e+003
2.556313e+002, 2.352626e+003
2.561135e+002, 2.350642e+003
2.565956e+002, 2.348804e+003
2.570777e+002, 2.346722e+003
2.575598e+002, 2.345091e+003
2.580419e+002, 2.344844e+003
2.585240e+002, 2.346018e+003
2.590062e+002, 2.348443e+003
2.594883e+002, 2.352534e+003
2.599704e+002, 2.358398e+003
2.604525e+002, 2.362923e+003
2.609346e+002, 2.365324e+003
2.614167e+002, 2.367304e+003
2.618989e+002, 2.370930e+003
2.623810e+002, 2.376773e+003
2.628631e+002, 2.382777e+003
2.633452e+002, 2.388495e+003
2.638273e+002, 2.394033e+003
2.643094e+002, 2.399508e+003
2.647916e+002, 2.405098e+003
2.652737e+002, 2.410590e+003
2.657558e+002, 2.415789e+003
2.662379e+002, 2.420528e+003
2.667200e+002, 2.425618e+003
2.672021e+002, 2.431810e+003
2.676843e+002, 2.438751e+003
2.681664e+002, 2.443103e+003
2.686485e+002, 2.444355e+003
2.691306e+002, 2.444022e+003
2.696127e+002, 2.442839e+003
2.700948e+002, 2.440262e+003
2.705770e+002, 2.439326e+003
2.710591e+002, 2.441431e+003
2.715412e+002, 2.445448e+003
2.720233e+002, 2.445787e+003
2.725054e+002, 2.441614e+003
2.729875e+002, 2.435875e+003
2.734697e+002, 2.430265e+003
2.739518e+002, 2.424557e+003
2.744339e+002, 2.420135e+003
2.749160e+002, 2.417332e+003
2.753981e+002, 2.415834e+003
2.758802e+002, 2.414862e+003
2.763624e+002, 2.414617e+003
2.768445e+002, 2.414247e+003
2.773266e+002, 2.413244e+003
2.778087e+002, 2.411601e+003
2.782908e+002, 2.409554e+003
2.787729e+002, 2.406978e+003
2.792551e+002, 2.404219e+003
2.797372e+002, 2.402506e+003
2.802193e+002, 2.402135e+003
2.807014e+002, 2.400880e+003
2.811835e+002, 2.397115e+003
2.816656e+002, 2.390887e+003
2.821478e+002, 2.384974e+003
2.826299e+002, 2.379359e+003
2.831120e+002, 2.374359e+003
2.835941e+002, 2.370957e+003
2.840762e+002, 2.369238e+003
2.845583e+002, 2.367099e+003
2.850405e+002, 2.363225e+003
2.855226e+002, 2.357843e+003
2.860047e+002, 2.353111e+003
2.864868e+002, 2.349133e+003
2.869689e+002, 2.345478e+003
2.874510e+002, 2.341157e+003
2.879332e+002, 2.336251e+003
2.884153e+002, 2.332557e+003
2.888974e+002, 2.331355e+003
2.893795e+002, 2.331973e+003
2.898616e+002, 2.331932e+003
2.903438e+002, 2.331141e+003
2.908259e+002, 2.330287e+003
2.913080e+002, 2.329808e+003
2.917901e+002, 2.329795e+003
2.922722e+002, 2.330817e+003
2.927543e+002, 2.333265e+003
2.932365e+002, 2.336762e+003
2.937186e+002, 2.340403e+003
2.942007e+002, 2.344152e+003
2.946828e+002, 2.348410e+003
2.951649e+002, 2.354080e+003
2.956470e+002, 2.360621e+003
2.961292e+002, 2.366388e+003
2.966113e+002, 2.370667e+003
2.970934e+002, 2.374201e+003
2.975755e+002, 2.378125e+003
2.980576e+002, 2.382441e+003
2.985397e+002, 2.386905e+003
2.990219e+002, 2.391207e+003
2.995040e+002, 2.395612e+003
2.999861e+002, 2.400658e+003
3.004682e+002, 2.406574e+003
3.009503e+002, 2.412951e+003
3.014324e+002, 2.419649e+003
3.019146e+002, 2.426521e+003
3.023967e+002, 2.433190e+003
3.028788e+002, 2.438580e+003
3.033609e+002, 2.443848e+003
3.038430e+002, 2.450677e+003
3.043251e+002, 2.459484e+003
3.048073e+002, 2.469110e+003
3.052894e+002, 2.478769e+003
3.057715e+002, 2.488428e+003
3.062536e+002, 2.498304e+003
3.067357e+002, 2.508409e+003
3.072178e+002, 2.518691e+003
3.077000e+002, 2.528575e+003
3.081821e+002, 2.537829e+003
3.086642e+002, 2.548196e+003
3.091463e+002, 2.561027e+003
3.096284e+002, 2.575700e+003
3.101105e+002, 2.591474e+003
3.105927e+002, 2.608173e+003
3.110748e+002, 2.625502e+003
3.115569e+002, 2.643378e+003
3.120390e+002, 2.661811e+003
3.125211e+002, 2.681017e+003
3.130032e+002, 2.701226e+003
3.134854e+002, 2.722501e+003
3.139675e+002, 2.744650e+003
3.144496e+002, 2.768256e+003
3.149317e+002, 2.792136e+003
3.154138e+002, 2.816619e+003
3.158959e+002, 2.841371e+003
3.163781e+002, 2.864967e+003
3.168602e+002, 2.886753e+003
3.173423e+002, 2.906975e+003
3.178244e+002, 2.925813e+003
3.183065e+002, 2.944036e+003
3.187886e+002, 2.959851e+003
3.192708e+002, 2.973483e+003
3.197529e+002, 2.984262e+003
3.202350e+002, 2.990330e+003
3.207171e+002, 2.989551e+003
3.211992e+002, 2.984989e+003
3.216813e+002, 2.978194e+003
3.221635e+002, 2.969917e+003
3.226456e+002, 2.958015e+003
3.231277e+002, 2.940753e+003
3.236098e+002, 2.919768e+003
3.240919e+002, 2.897728e+003
3.245740e+002, 2.873573e+003
3.250562e+002, 2.850014e+003
3.255383e+002, 2.827902e+003
3.260204e+002, 2.807428e+003
3.265025e+002, 2.787830e+003
3.269846e+002, 2.768496e+003
3.274667e+002, 2.750344e+003
3.279489e+002, 2.734120e+003
3.284310e+002, 2.721142e+003
3.289131e+002, 2.708653e+003
3.293952e+002, 2.695830e+003
3.298773e+002, 2.682641e+003
3.303594e+002, 2.671344e+003
3.308416e+002, 2.662168e+003
3.313237e+002, 2.654826e+003
3.318058e+002, 2.649197e+003
3.322879e+002, 2.645652e+003
3.327700e+002, 2.643146e+003
3.332521e+002, 2.641467e+003
3.337343e+002, 2.640682e+003
3.342164e+002, 2.641112e+003
3.346985e+002, 2.642450e+003
3.351806e+002, 2.645396e+003
3.356627e+002, 2.650736e+003
3.361448e+002, 2.659554e+003
3.366270e+002, 2.666954e+003
3.371091e+002, 2.671667e+003
3.375912e+002, 2.675675e+003
3.380733e+002, 2.683370e+003
3.385554e+002, 2.695421e+003
3.390375e+002, 2.708789e+003
3.395197e+002, 2.722441e+003
3.400018e+002, 2.736259e+003
3.404839e+002, 2.750562e+003
3.409660e+002, 2.764920e+003
3.414481e+002, 2.780117e+003
3.419302e+002, 2.796730e+003
3.424124e+002, 2.814896e+003
3.428945e+002, 2.834387e+003
3.433766e+002, 2.855616e+003
3.438587e+002, 2.878114e+003
3.443408e+002, 2.900886e+003
3.448229e+002, 2.923859e+003
3.453051e+002, 2.946800e+003
3.457872e+002, 2.969558e+003
3.462693e+002, 2.992025e+003
3.467514e+002, 3.014387e+003
3.472335e+002, 3.036629e+003
3.477156e+002, 3.058577e+003
3.481978e+002, 3.080007e+003
3.486799e+002, 3.100823e+003
3.491620e+002, 3.119516e+003
3.496441e+002, 3.135324e+003
3.501262e+002, 3.148294e+003
3.506083e+002, 3.158741e+003
3.510905e+002, 3.167103e+003
3.515726e+002, 3.171922e+003
3.520547e+002, 3.171047e+003
3.525368e+002, 3.165165e+003
3.530189e+002, 3.156354e+003
3.535010e+002, 3.145603e+003
3.539832e+002, 3.132501e+003
3.544653e+002, 3.115576e+003
3.549474e+002, 3.094469e+003
3.554295e+002, 3.073492e+003
3.559116e+002, 3.053754e+003
3.563937e+002, 3.036652e+003
3.568759e+002, 3.024527e+003
3.573580e+002, 3.019323e+003
3.578401e+002, 3.018260e+003
3.583222e+002, 3.019391e+003
3.588043e+002, 3.022916e+003
3.592864e+002, 3.029997e+003
3.597686e+002, 3.042281e+003
3.602507e+002, 3.057913e+003
3.607328e+002, 3.075267e+003
3.612149e+002, 3.094554e+003
3.616970e+002, 3.114722e+003
3.621791e+002, 3.136442e+003
3.626613e+002, 3.158726e+003
3.631434e+002, 3.179335e+003
3.636255e+002, 3.196872e+003
3.641076e+002, 3.213057e+003
3.645897e+002, 3.229660e+003
3.650718e+002, 3.248210e+003
3.655540e+002, 3.261200e+003
3.660361e+002, 3.266125e+003
3.665182e+002, 3.265173e+003
3.670003e+002, 3.260975e+003
3.674824e+002, 3.253345e+003
3.679645e+002, 3.243058e+003
3.684467e+002, 3.230086e+003
3.689288e+002, 3.214656e+003
3.694109e+002, 3.197013e+003
3.698930e+002, 3.176361e+003
3.703751e+002, 3.154213e+003
3.708572e+002, 3.131475e+003
3.713394e+002, 3.108548e+003
3.718215e+002, 3.084819e+003
3.723036e+002, 3.059871e+003
3.727857e+002, 3.034085e+003
3.732678e+002, 3.008669e+003
3.737499e+002, 2.983914e+003
3.742321e+002, 2.958507e+003
3.747142e+002, 2.931665e+003
3.751963e+002, 2.902387e+003
3.756784e+002, 2.875057e+003
3.761605e+002, 2.849969e+003
3.766426e+002, 2.826605e+003
3.771248e+002, 2.805357e+003
3.776069e+002, 2.786280e+003
3.780890e+002, 2.767476e+003
3.785711e+002, 2.748188e+003
3.790532e+002, 2.728569e+003
3.795353e+002, 2.710959e+003
3.800175e+002, 2.695247e+003
3.804996e+002, 2.681358e+003
3.809817e+002, 2.669018e+003
3.814638e+002, 2.658339e+003
3.819459e+002, 2.649709e+003
3.824280e+002, 2.643072e+003
3.829102e+002, 2.638839e+003
3.833923e+002, 2.638257e+003
3.838744e+002, 2.641166e+003
3.843565e+002, 2.646168e+003
3.848386e+002, 2.652674e+003
3.853207e+002, 2.660546e+003
3.858029e+002, 2.668796e+003
3.862850e+002, 2.677029e+003
3.867671e+002, 2.687648e+003
3.872492e+002, 2.704792e+003
3.877313e+002, 2.726355e+003
3.882134e+002, 2.747229e+003
3.886956e+002, 2.762681e+003
3.891777e+002, 2.777726e+003
3.896598e+002, 2.797195e+003
3.901419e+002, 2.820974e+003
3.906240e+002, 2.846438e+003
3.911061e+002, 2.873772e+003
3.915883e+002, 2.901514e+003
3.920704e+002, 2.928192e+003
3.925525e+002, 2.952733e+003
3.930346e+002, 2.977081e+003
3.935167e+002, 3.001933e+003
3.939988e+002, 3.027549e+003
3.944810e+002, 3.054893e+003
3.949631e+002, 3.084664e+003
3.954452e+002, 3.115979e+003
3.959273e+002, 3.148670e+003
3.964094e+002, 3.183234e+003
3.968915e+002, 3.217530e+003
3.973737e+002, 3.250008e+003
3.978558e+002, 3.282354e+003
3.983379e+002, 3.316642e+003
3.988200e+002, 3.355170e+003
3.993021e+002, 3.393330e+003
3.997842e+002, 3.430807e+003
4.002664e+002, 3.467542e+003
4.007485e+002, 3.502001e+003
4.012306e+002, 3.534202e+003
4.017127e+002, 3.563597e+003
4.021948e+002, 3.589663e+003
4.026769e+002, 3.611849e+003
4.031591e+002, 3.631902e+003
4.036412e+002, 3.650580e+003
4.041233e+002, 3.666807e+003
4.046054e+002, 3.678353e+003
4.050875e+002, 3.684815e+003
4.055696e+002, 3.687506e+003
4.060518e+002, 3.686748e+003
4.065339e+002, 3.682549e+003
4.070160e+002, 3.675789e+003
4.074981e+002, 3.666617e+003
4.079802e+002, 3.654881e+003
4.084623e+002, 3.639969e+003
4.089445e+002, 3.621890e+003
4.094266e+002, 3.602658e+003
4.099087e+002, 3.582442e+003
4.103908e+002, 3.561839e+003
4.108729e+002, 3.542508e+003
4.113550e+002, 3.524372e+003
4.118372e+002, 3.506699e+003
4.123193e+002, 3.487646e+003
4.128014e+002, 3.468589e+003
4.132835e+002, 3.452587e+003
4.137656e+002, 3.439995e+003
4.142477e+002, 3.430068e+003
4.147299e+002, 3.422323e+003
4.152120e+002, 3.416625e+003
4.156941e+002, 3.412921e+003
4.161762e+002, 3.412137e+003
4.166583e+002, 3.412531e+003
4.171404e+002, 3.411994e+003
4.176226e+002, 3.410538e+003
4.181047e+002, 3.410729e+003
4.185868e+002, 3.414014e+003
4.190689e+002, 3.419593e+003
4.195510e+002, 3.426809e+003
4.200331e+002, 3.435748e+003
4.205153e+002, 3.445877e+003
4.209974e+002, 3.456857e+003
4.214795e+002, 3.468848e+003
4.219616e+002, 3.481817e+003
4.224437e+002, 3.496794e+003
4.229258e+002, 3.512135e+003
4.234080e+002, 3.526616e+003
4.238901e+002, 3.539246e+003
4.243722e+002, 3.555152e+003
4.248543e+002, 3.578744e+003
4.253364e+002, 3.603992e+003
4.258185e+002, 3.624743e+003
4.263007e+002, 3.637001e+003
4.267828e+002, 3.651059e+003
4.272649e+002, 3.669394e+003
4.277470e+002, 3.691009e+003
4.282291e+002, 3.710175e+003
4.287112e+002, 3.727008e+003
4.291934e+002, 3.740851e+003
4.296755e+002, 3.751020e+003
4.301576e+002, 3.756621e+003
4.306397e+002, 3.762486e+003
4.311218e+002, 3.768633e+003
4.316039e+002, 3.775150e+003
4.320861e+002, 3.782089e+003
4.325682e+002, 3.789405e+003
4.330503e+002, 3.797845e+003
4.335324e+002, 3.807278e+003
4.340145e+002, 3.818188e+003
4.344966e+002, 3.832434e+003
4.349788e+002, 3.850082e+003
4.354609e+002, 3.869949e+003
4.359430e+002, 3.890092e+003
4.364251e+002, 3.911914e+003
4.369072e+002, 3.939464e+003
4.373893e+002, 3.974604e+003
4.378715e+002, 4.013246e+003
4.383536e+002, 4.050949e+003
4.388357e+002, 4.088386e+003
4.393178e+002, 4.127425e+003
4.397999e+002, 4.169188e+003
4.402820e+002, 4.213004e+003
4.407642e+002, 4.259002e+003
4.412463e+002, 4.307535e+003
4.417284e+002, 4.353396e+003
4.422105e+002, 4.393032e+003
4.426926e+002, 4.429316e+003
4.431747e+002, 4.465044e+003
4.436569e+002, 4.502355e+003
4.441390e+002, 4.537551e+003
4.446211e+002, 4.570753e+003
4.451032e+002, 4.601100e+003
4.455853e+002, 4.625042e+003
4.460674e+002, 4.639345e+003
4.465496e+002, 4.649797e+003
4.470317e+002, 4.658728e+003
4.475138e+002, 4.667087e+003
4.479959e+002, 4.671269e+003
4.484780e+002, 4.669771e+003
4.489601e+002, 4.665394e+003
4.494423e+002, 4.661022e+003
4.499244e+002, 4.658378e+003
4.504065e+002, 4.652391e+003
4.508886e+002, 4.641673e+003
4.513707e+002, 4.627146e+003
4.518528e+002, 4.613031e+003
4.523350e+002, 4.600626e+003
4.528171e+002, 4.584122e+003
4.532992e+002, 4.559831e+003
4.537813e+002, 4.527493e+003
4.542634e+002, 4.491042e+003
4.547455e+002, 4.450037e+003
4.552277e+002, 4.405250e+003
4.557098e+002, 4.356107e+003
4.561919e+002, 4.303305e+003
4.566740e+002, 4.248143e+003
4.571561e+002, 4.190536e+003
4.576382e+002, 4.132570e+003
4.581204e+002, 4.079364e+003
4.586025e+002, 4.030318e+003
4.590846e+002, 3.984537e+003
4.595667e+002, 3.938877e+003
4.600488e+002, 3.896588e+003
4.605309e+002, 3.861836e+003
4.610131e+002, 3.835742e+003
4.614952e+002, 3.815249e+003
4.619773e+002, 3.799387e+003
4.624594e+002, 3.787854e+003
4.629415e+002, 3.780020e+003
4.634236e+002, 3.775369e+003
4.639058e+002, 3.774778e+003
4.643879e+002, 3.779952e+003
4.648700e+002, 3.790306e+003
4.653521e+002, 3.800926e+003
4.658342e+002, 3.810507e+003
4.663163e+002, 3.820165e+003
4.667985e+002, 3.830894e+003
4.672806e+002, 3.845783e+003
4.677627e+002, 3.855975e+003
4.682448e+002, 3.859009e+003
4.687269e+002, 3.858180e+003
4.692090e+002, 3.858138e+003
4.696912e+002, 3.859559e+003
4.701733e+002, 3.860430e+003
4.706554e+002, 3.859718e+003
4.711375e+002, 3.857789e+003
4.716196e+002, 3.858565e+003
4.721017e+002, 3.862753e+003
4.725839e+002, 3.867633e+003
4.730660e+002, 3.871044e+003
4.735481e+002, 3.872950e+003
4.740302e+002, 3.876620e+003
4.745123e+002, 3.882315e+003
4.749944e+002, 3.889916e+003
4.754766e+002, 3.899696e+003
4.759587e+002, 3.911483e+003
4.764408e+002, 3.924056e+003
4.769229e+002, 3.937383e+003
4.774050e+002, 3.950888e+003
4.778871e+002, 3.963156e+003
4.783693e+002, 3.974392e+003
4.788514e+002, 3.986144e+003
4.793335e+002, 4.002396e+003
4.798156e+002, 4.018620e+003
4.802977e+002, 4.029246e+003
4.807798e+002, 4.032866e+003
4.812620e+002, 4.032217e+003
4.817441e+002, 4.029202e+003
4.822262e+002, 4.022749e+003
4.827083e+002, 4.011292e+003
4.831904e+002, 3.994292e+003
4.836725e+002, 3.971983e+003
4.841547e+002, 3.944629e+003
4.846368e+002, 3.912285e+003
4.851189e+002, 3.874216e+003
4.856010e+002, 3.827662e+003
4.860831e+002, 3.777103e+003
4.865652e+002, 3.725124e+003
4.870474e+002, 3.670803e+003
4.875295e+002, 3.616112e+003
4.880116e+002, 3.560736e+003
4.884937e+002, 3.505853e+003
4.889758e+002, 3.452466e+003
4.894579e+002, 3.400314e+003
4.899401e+002, 3.349966e+003
4.904222e+002, 3.300524e+003
4.909043e+002, 3.252973e+003
4.913864e+002, 3.210453e+003
4.918685e+002, 3.173294e+003
4.923506e+002, 3.137831e+003
4.928328e+002, 3.100374e+003
4.933149e+002, 3.062256e+003
4.937970e+002, 3.029116e+003
4.942791e+002, 3.001644e+003
4.947612e+002, 2.977489e+003
4.952433e+002, 2.954173e+003
4.957255e+002, 2.931800e+003
4.962076e+002, 2.910314e+003
4.966897e+002, 2.889346e+003
4.971718e+002, 2.869635e+003
4.976539e+002, 2.852294e+003
4.981360e+002, 2.837176e+003
4.986182e+002, 2.823300e+003
4.991003e+002, 2.811166e+003
4.995824e+002, 2.799508e+003
5.000645e+002, 2.787650e+003
5.005466e+002, 2.775129e+003
5.010287e+002, 2.763219e+003
5.015109e+002, 2.751953e+003
5.019930e+002, 2.741549e+003
5.024751e+002, 2.732375e+003
5.029572e+002, 2.725978e+003
5.034393e+002, 2.718960e+003
5.039214e+002, 2.710317e+003
5.044036e+002, 2.700805e+003
5.048857e+002, 2.692823e+003
5.053678e+002, 2.686590e+003
5.058499e+002, 2.681404e+003
5.063320e+002, 2.677209e+003
5.068141e+002, 2.674104e+003
5.072963e+002, 2.670721e+003
5.077784e+002, 2.667001e+003
5.082605e+002, 2.663084e+003
5.087426e+002, 2.658876e+003
5.092247e+002, 2.654418e+003
5.097068e+002, 2.650389e+003
5.101890e+002, 2.646963e+003
5.106711e+002, 2.643905e+003
5.111532e+002, 2.640746e+003
5.116353e+002, 2.637580e+003
5.121174e+002, 2.634979e+003
5.125995e+002, 2.633155e+003
5.130817e+002, 2.632049e+003
5.135638e+002, 2.632438e+003
5.140459e+002, 2.634168e+003
5.145280e+002, 2.634273e+003
5.150101e+002, 2.629607e+003
5.154922e+002, 2.623090e+003
5.159744e+002, 2.617345e+003
5.164565e+002, 2.612490e+003
5.169386e+002, 2.609291e+003
5.174207e+002, 2.609144e+003
5.179028e+002, 2.610619e+003
5.183849e+002, 2.611353e+003
5.188671e+002, 2.610052e+003
5.193492e+002, 2.608966e+003
5.198313e+002, 2.608510e+003
5.203134e+002, 2.608664e+003
5.207955e+002, 2.609292e+003
5.212776e+002, 2.610884e+003
5.217598e+002, 2.612171e+003
5.222419e+002, 2.612111e+003
5.227240e+002, 2.610171e+003
5.232061e+002, 2.609749e+003
5.236882e+002, 2.611214e+003
5.241703e+002, 2.613499e+003
5.246525e+002, 2.615182e+003
5.251346e+002, 2.616333e+003
5.256167e+002, 2.617831e+003
5.260988e+002, 2.620070e+003
5.265809e+002, 2.622644e+003
5.270630e+002, 2.624747e+003
5.275452e+002, 2.626476e+003
5.280273e+002, 2.628311e+003
5.285094e+002, 2.630430e+003
5.289915e+002, 2.632895e+003
5.294736e+002, 2.635910e+003
5.299557e+002, 2.639512e+003
5.304379e+002, 2.643131e+003
5.309200e+002, 2.646064e+003
5.314021e+002, 2.649024e+003
5.318842e+002, 2.652723e+003
5.323663e+002, 2.657470e+003
5.328484e+002, 2.662679e+003
5.333306e+002, 2.667986e+003
5.338127e+002, 2.673628e+003
5.342948e+002, 2.680020e+003
5.347769e+002, 2.688426e+003
5.352590e+002, 2.696225e+003
5.357411e+002, 2.702339e+003
5.362233e+002, 2.706856e+003
5.367054e+002, 2.713487e+003
5.371875e+002, 2.723063e+003
5.376696e+002, 2.733149e+003
5.381517e+002, 2.741935e+003
5.386339e+002, 2.749146e+003
5.391160e+002, 2.758377e+003
5.395981e+002, 2.770158e+003
5.400802e+002, 2.782988e+003
5.405623e+002, 2.795318e+003
5.410444e+002, 2.807205e+003
5.415266e+002, 2.819240e+003
5.420087e+002, 2.831484e+003
5.424908e+002, 2.844071e+003
5.429729e+002, 2.856450e+003
5.434550e+002, 2.868907e+003
5.439371e+002, 2.883022e+003
5.444193e+002, 2.902298e+003
5.449014e+002, 2.921982e+003
5.453835e+002, 2.937563e+003
5.458656e+002, 2.948437e+003
5.463477e+002, 2.959660e+003
5.468298e+002, 2.973762e+003
5.473120e+002, 2.988995e+003
5.477941e+002, 3.003853e+003
5.482762e+002, 3.019604e+003
5.487583e+002, 3.033003e+003
5.492404e+002, 3.043797e+003
5.497225e+002, 3.052117e+003
5.502047e+002, 3.057999e+003
5.506868e+002, 3.060685e+003
5.511689e+002, 3.062428e+003
5.516510e+002, 3.064039e+003
5.521331e+002, 3.065239e+003
5.526152e+002, 3.064374e+003
5.530974e+002, 3.061688e+003
5.535795e+002, 3.055944e+003
5.540616e+002, 3.045470e+003
5.545437e+002, 3.030984e+003
5.550258e+002, 3.015939e+003
5.555079e+002, 3.000286e+003
5.559901e+002, 2.985631e+003
5.564722e+002, 2.975210e+003
5.569543e+002, 2.966725e+003
5.574364e+002, 2.955082e+003
5.579185e+002, 2.937137e+003
5.584006e+002, 2.918243e+003
5.588828e+002, 2.902469e+003
5.593649e+002, 2.888867e+003
5.598470e+002, 2.874915e+003
5.603291e+002, 2.858536e+003
5.608112e+002, 2.842457e+003
5.612933e+002, 2.827990e+003
5.617755e+002, 2.815158e+003
5.622576e+002, 2.801801e+003
5.627397e+002, 2.786146e+003
5.632218e+002, 2.771210e+003
5.637039e+002, 2.758491e+003
5.641860e+002, 2.748814e+003
5.646682e+002, 2.739203e+003
5.651503e+002, 2.729552e+003
5.656324e+002, 2.720062e+003
5.661145e+002, 2.711304e+003
5.665966e+002, 2.703373e+003
5.670787e+002, 2.694952e+003
5.675609e+002, 2.685587e+003
5.680430e+002, 2.675914e+003
5.685251e+002, 2.667063e+003
5.690072e+002, 2.659085e+003
5.694893e+002, 2.652846e+003
5.699714e+002, 2.650368e+003
5.704536e+002, 2.649115e+003
5.709357e+002, 2.644764e+003
5.714178e+002, 2.637485e+003
5.718999e+002, 2.630974e+003
5.723820e+002, 2.628249e+003
5.728641e+002, 2.627027e+003
5.733463e+002, 2.625249e+003
5.738284e+002, 2.622019e+003
5.743105e+002, 2.619514e+003
5.747926e+002, 2.619494e+003
5.752747e+002, 2.620119e+003
5.757568e+002, 2.619043e+003
5.762390e+002, 2.613778e+003
5.767211e+002, 2.609836e+003
5.772032e+002, 2.608296e+003
5.776853e+002, 2.608469e+003
5.781674e+002, 2.608126e+003
5.786495e+002, 2.607296e+003
5.791317e+002, 2.605860e+003
5.796138e+002, 2.603273e+003
5.800959e+002, 2.599862e+003
5.805780e+002, 2.598602e+003
5.810601e+002, 2.599648e+003
5.815422e+002, 2.601186e+003
5.820244e+002, 2.601872e+003
5.825065e+002, 2.601884e+003
5.829886e+002, 2.601614e+003
5.834707e+002, 2.601101e+003
5.839528e+002, 2.600422e+003
5.844349e+002, 2.598961e+003
5.849171e+002, 2.597545e+003
5.853992e+002, 2.597414e+003
5.858813e+002, 2.600630e+003
5.863634e+002, 2.603430e+003
5.868455e+002, 2.604076e+003
5.873276e+002, 2.603067e+003
5.878098e+002, 2.601755e+003
5.882919e+002, 2.598666e+003
5.887740e+002, 2.597070e+003
5.892561e+002, 2.598580e+003
5.897382e+002, 2.603267e+003
5.902203e+002, 2.606031e+003
5.907025e+002, 2.606350e+003
5.911846e+002, 2.605621e+003
5.916667e+002, 2.604115e+003
5.921488e+002, 2.601624e+003
5.926309e+002, 2.601793e+003
5.931130e+002, 2.605140e+003
5.935952e+002, 2.609738e+003
5.940773e+002, 2.614262e+003
5.945594e+002, 2.618290e+003
5.950415e+002, 2.619719e+003
5.955236e+002, 2.617038e+003
5.960057e+002, 2.613578e+003
5.964879e+002, 2.612679e+003
5.969700e+002, 2.613896e+003
5.974521e+002, 2.616205e+003
5.979342e+002, 2.620729e+003
5.984163e+002, 2.624810e+003
5.988984e+002, 2.626450e+003
5.993806e+002, 2.625937e+003
5.998627e+002, 2.626166e+003
6.003448e+002, 2.627666e+003
6.008269e+002, 2.630165e+003
6.013090e+002, 2.633790e+003
6.017911e+002, 2.639109e+003
6.022733e+002, 2.643164e+003
6.027554e+002, 2.645378e+003
6.032375e+002, 2.647120e+003
6.037196e+002, 2.649447e+003
6.042017e+002, 2.652353e+003
6.046838e+002, 2.656210e+003
6.051660e+002, 2.661135e+003
6.056481e+002, 2.666965e+003
6.061302e+002, 2.673652e+003
6.066123e+002, 2.681056e+003
6.070944e+002, 2.688477e+003
6.075765e+002, 2.695863e+003
6.080587e+002, 2.702992e+003
6.085408e+002, 2.709634e+003
6.090229e+002, 2.715822e+003
6.095050e+002, 2.721946e+003
6.099871e+002, 2.727568e+003
6.104692e+002, 2.733589e+003
6.109514e+002, 2.740575e+003
6.114335e+002, 2.748633e+003
6.119156e+002, 2.757001e+003
6.123977e+002, 2.765940e+003
6.128798e+002, 2.774808e+003
6.133619e+002, 2.782838e+003
6.138441e+002, 2.788480e+003
6.143262e+002, 2.797635e+003
6.148083e+002, 2.811714e+003
6.152904e+002, 2.827489e+003
6.157725e+002, 2.840243e+003
6.162546e+002, 2.849723e+003
6.167368e+002, 2.861031e+003
6.172189e+002, 2.875586e+003
6.177010e+002, 2.892035e+003
6.181831e+002, 2.907905e+003
6.186652e+002, 2.923396e+003
6.191473e+002, 2.939439e+003
6.196295e+002, 2.956039e+003
6.201116e+002, 2.973538e+003
6.205937e+002, 2.993231e+003
6.210758e+002, 3.014427e+003
6.215579e+002, 3.034318e+003
6.220400e+002, 3.049538e+003
6.225222e+002, 3.064121e+003
6.230043e+002, 3.080849e+003
6.234864e+002, 3.100742e+003
6.239685e+002, 3.118239e+003
6.244506e+002, 3.132593e+003
6.249327e+002, 3.144585e+003
6.254149e+002, 3.154632e+003
6.258970e+002, 3.162427e+003
6.263791e+002, 3.169020e+003
6.268612e+002, 3.174732e+003
6.273433e+002, 3.178752e+003
6.278254e+002, 3.179967e+003
6.283076e+002, 3.178400e+003
6.287897e+002, 3.174497e+003
6.292718e+002, 3.168311e+003
6.297539e+002, 3.159913e+003
6.302360e+002, 3.148902e+003
6.307181e+002, 3.135751e+003
6.312003e+002, 3.122071e+003
6.316824e+002, 3.107116e+003
6.321645e+002, 3.093143e+003
6.326466e+002, 3.082739e+003
6.331287e+002, 3.075330e+003
6.336108e+002, 3.067640e+003
6.340930e+002, 3.057300e+003
6.345751e+002, 3.047308e+003
6.350572e+002, 3.039157e+003
6.355393e+002, 3.032904e+003
6.360214e+002, 3.028173e+003
6.365035e+002, 3.024940e+003
6.369857e+002, 3.023232e+003
6.374678e+002, 3.023349e+003
6.379499e+002, 3.025523e+003
6.384320e+002, 3.027590e+003
6.389141e+002, 3.029174e+003
6.393962e+002, 3.031233e+003
6.398784e+002, 3.035282e+003
6.403605e+002, 3.040973e+003
6.408426e+002, 3.046857e+003
6.413247e+002, 3.052115e+003
6.418068e+002, 3.058117e+003
6.422889e+002, 3.067728e+003
6.427711e+002, 3.079249e+003
6.432532e+002, 3.089060e+003
6.437353e+002, 3.093908e+003
6.442174e+002, 3.098136e+003
6.446995e+002, 3.104488e+003
6.451816e+002, 3.112406e+003
6.456638e+002, 3.118004e+003
6.461459e+002, 3.119857e+003
6.466280e+002, 3.120116e+003
6.471101e+002, 3.119696e+003
6.475922e+002, 3.118714e+003
6.480743e+002, 3.114509e+003
6.485565e+002, 3.106365e+003
6.490386e+002, 3.096784e+003
6.495207e+002, 3.087710e+003
6.500028e+002, 3.079036e+003
6.504849e+002, 3.069953e+003
6.509670e+002, 3.060440e+003
6.514492e+002, 3.050645e+003
6.519313e+002, 3.040058e+003
6.524134e+002, 3.029504e+003
6.528955e+002, 3.020787e+003
6.533776e+002, 3.014517e+003
6.538597e+002, 3.009453e+003
6.543419e+002, 3.005551e+003
6.548240e+002, 3.002179e+003
6.553061e+002, 2.998423e+003
6.557882e+002, 2.991634e+003
6.562703e+002, 2.987297e+003
6.567524e+002, 2.987340e+003
6.572346e+002, 2.990765e+003
6.577167e+002, 2.994738e+003
6.581988e+002, 2.999084e+003
6.586809e+002, 3.004570e+003
6.591630e+002, 3.012045e+003
6.596451e+002, 3.020919e+003
6.601273e+002, 3.026844e+003
6.606094e+002, 3.029647e+003
6.610915e+002, 3.033830e+003
6.615736e+002, 3.043726e+003
6.620557e+002, 3.056746e+003
6.625378e+002, 3.068302e+003
6.630200e+002, 3.078114e+003
6.635021e+002, 3.086031e+003
6.639842e+002, 3.091576e+003
6.644663e+002, 3.095365e+003
6.649484e+002, 3.097904e+003
6.654305e+002, 3.099304e+003
6.659127e+002, 3.099493e+003
6.663948e+002, 3.098744e+003
6.668769e+002, 3.096608e+003
6.673590e+002, 3.092716e+003
6.678411e+002, 3.086907e+003
6.683232e+002, 3.079821e+003
6.688054e+002, 3.071586e+003
6.692875e+002, 3.062145e+003
6.697696e+002, 3.051161e+003
6.702517e+002, 3.038603e+003
6.707338e+002, 3.025746e+003
6.712159e+002, 3.013030e+003
6.716981e+002, 3.000304e+003
6.721802e+002, 2.987050e+003
6.726623e+002, 2.973618e+003
6.731444e+002, 2.960800e+003
6.736265e+002, 2.949335e+003
6.741086e+002, 2.938582e+003
6.745908e+002, 2.928415e+003
6.750729e+002, 2.918781e+003
6.755550e+002, 2.908791e+003
6.760371e+002, 2.896584e+003
6.765192e+002, 2.885496e+003
6.770013e+002, 2.877088e+003
6.774835e+002, 2.871581e+003
6.779656e+002, 2.866090e+003
6.784477e+002, 2.860385e+003
6.789298e+002, 2.855043e+003
6.794119e+002, 2.850365e+003
6.798940e+002, 2.846283e+003
6.803762e+002, 2.843892e+003
6.808583e+002, 2.843512e+003
6.813404e+002, 2.842590e+003
6.818225e+002, 2.837699e+003
6.823046e+002, 2.830412e+003
6.827867e+002, 2.823681e+003
6.832689e+002, 2.817948e+003
6.837510e+002, 2.813629e+003
6.842331e+002, 2.812717e+003
6.847152e+002, 2.812923e+003
6.851973e+002, 2.811361e+003
6.856794e+002, 2.804452e+003
6.861616e+002, 2.799096e+003
6.866437e+002, 2.797449e+003
6.871258e+002, 2.797885e+003
6.876079e+002, 2.797621e+003
6.880900e+002, 2.796387e+003
6.885721e+002, 2.795196e+003
6.890543e+002, 2.794411e+003
6.895364e+002, 2.793733e+003
6.900185e+002, 2.791922e+003
6.905006e+002, 2.789024e+003
6.909827e+002, 2.786746e+003
6.914648e+002, 2.786512e+003
6.919470e+002, 2.787092e+003
6.924291e+002, 2.786458e+003
6.929112e+002, 2.784811e+003
6.933933e+002, 2.783287e+003
6.938754e+002, 2.782162e+003
6.943575e+002, 2.781661e+003
6.948397e+002, 2.782130e+003
6.953218e+002, 2.783694e+003
6.958039e+002, 2.785187e+003
6.962860e+002, 2.786875e+003
6.967681e+002, 2.788134e+003
6.972502e+002, 2.788517e+003
6.977324e+002, 2.787738e+003
6.982145e+002, 2.787694e+003
6.986966e+002, 2.788536e+003
6.991787e+002, 2.789728e+003
6.996608e+002, 2.790920e+003
7.001429e+002, 2.792033e+003
7.006251e+002, 2.792670e+003
7.011072e+002, 2.792707e+003
7.015893e+002, 2.792544e+003
7.020714e+002, 2.792497e+003
7.025535e+002, 2.792493e+003
7.030356e+002, 2.792465e+003
7.035178e+002, 2.792572e+003
7.039999e+002, 2.792267e+003
7.044820e+002, 2.790425e+003
7.049641e+002, 2.788274e+003
7.054462e+002, 2.787812e+003
7.059283e+002, 2.790651e+003
7.064105e+002, 2.792698e+003
7.068926e+002, 2.793210e+003
7.073747e+002, 2.792804e+003
7.078568e+002, 2.793041e+003
7.083389e+002, 2.794013e+003
7.088210e+002, 2.794544e+003
7.093032e+002, 2.793959e+003
7.097853e+002, 2.792983e+003
7.102674e+002, 2.793448e+003
7.107495e+002, 2.794959e+003
7.112316e+002, 2.795813e+003
7.117137e+002, 2.794330e+003
7.121959e+002, 2.792461e+003
7.126780e+002, 2.791532e+003
7.131601e+002, 2.791502e+003
7.136422e+002, 2.791789e+003
7.141243e+002, 2.792218e+003
7.146064e+002, 2.792940e+003
7.150886e+002, 2.793922e+003
7.155707e+002, 2.795161e+003
7.160528e+002, 2.797316e+003
7.165349e+002, 2.801004e+003
7.170170e+002, 2.804104e+003
7.174991e+002, 2.804974e+003
7.179813e+002, 2.803908e+003
7.184634e+002, 2.803152e+003
7.189455e+002, 2.802757e+003
7.194276e+002, 2.802740e+003
7.199097e+002, 2.803022e+003
7.203918e+002, 2.803730e+003
7.208740e+002, 2.805189e+003
7.213561e+002, 2.807599e+003
7.218382e+002, 2.809808e+003
7.223203e+002, 2.810436e+003
7.228024e+002, 2.811091e+003
7.232845e+002, 2.813317e+003
7.237667e+002, 2.819561e+003
7.242488e+002, 2.823128e+003
7.247309e+002, 2.822881e+003
7.252130e+002, 2.821166e+003
7.256951e+002, 2.820513e+003
7.261772e+002, 2.820934e+003
7.266594e+002, 2.822496e+003
7.271415e+002, 2.825646e+003
7.276236e+002, 2.828645e+003
7.281057e+002, 2.828174e+003
7.285878e+002, 2.825638e+003
7.290699e+002, 2.824833e+003
7.295521e+002, 2.828242e+003
7.300342e+002, 2.831783e+003
7.305163e+002, 2.832019e+003
7.309984e+002, 2.830620e+003
7.314805e+002, 2.830558e+003
7.319626e+002, 2.833888e+003
7.324448e+002, 2.837083e+003
7.329269e+002, 2.839716e+003
7.334090e+002, 2.841759e+003
7.338911e+002, 2.842707e+003
7.343732e+002, 2.841974e+003
7.348553e+002, 2.842626e+003
7.353375e+002, 2.846115e+003
7.358196e+002, 2.851227e+003
7.363017e+002, 2.854873e+003
7.367838e+002, 2.857223e+003
7.372659e+002, 2.859314e+003
7.377480e+002, 2.861254e+003
7.382302e+002, 2.863521e+003
7.387123e+002, 2.866840e+003
7.391944e+002, 2.870990e+003
7.396765e+002, 2.874901e+003
7.401586e+002, 2.879095e+003
7.406407e+002, 2.882094e+003
7.411229e+002, 2.882548e+003
7.416050e+002, 2.880644e+003
7.420871e+002, 2.880113e+003
7.425692e+002, 2.881286e+003
7.430513e+002, 2.883066e+003
7.435334e+002, 2.884967e+003
7.440156e+002, 2.887013e+003
7.444977e+002, 2.889729e+003
7.449798e+002, 2.893133e+003
7.454619e+002, 2.895372e+003
7.459440e+002, 2.893404e+003
7.464261e+002, 2.890247e+003
7.469083e+002, 2.890073e+003
7.473904e+002, 2.893286e+003
7.478725e+002, 2.896254e+003
7.483546e+002, 2.897545e+003
7.488367e+002, 2.897729e+003
7.493188e+002, 2.896690e+003
7.498010e+002, 2.893461e+003
7.502831e+002, 2.892886e+003
7.507652e+002, 2.896630e+003
7.512473e+002, 2.900397e+003
7.517294e+002, 2.900633e+003
7.522115e+002, 2.897379e+003
7.526937e+002, 2.893511e+003
7.531758e+002, 2.889013e+003
7.536579e+002, 2.885165e+003
7.541400e+002, 2.883629e+003
7.546221e+002, 2.883552e+003
7.551042e+002, 2.883696e+003
7.555864e+002, 2.884048e+003
7.560685e+002, 2.883852e+003
7.565506e+002, 2.881961e+003
7.570327e+002, 2.879747e+003
7.575148e+002, 2.878626e+003
7.579969e+002, 2.878853e+003
7.584791e+002, 2.880141e+003
7.589612e+002, 2.882815e+003
7.594433e+002, 2.886164e+003
7.599254e+002, 2.889532e+003
7.604075e+002, 2.892963e+003
7.608896e+002, 2.895226e+003
7.613718e+002, 2.895870e+003
7.618539e+002, 2.896021e+003
7.623360e+002, 2.897285e+003
7.628181e+002, 2.899143e+003
7.633002e+002, 2.900407e+003
7.637823e+002, 2.900013e+003
7.642645e+002, 2.900289e+003
7.647466e+002, 2.903677e+003
7.652287e+002, 2.908203e+003
7.657108e+002, 2.910941e+003
7.661929e+002, 2.909209e+003
7.666750e+002, 2.908884e+003
7.671572e+002, 2.910933e+003
7.676393e+002, 2.914310e+003
7.681214e+002, 2.917098e+003
7.686035e+002, 2.919248e+003
7.690856e+002, 2.921652e+003
7.695677e+002, 2.924786e+003
7.700499e+002, 2.927813e+003
7.705320e+002, 2.928738e+003
7.710141e+002, 2.928462e+003
7.714962e+002, 2.929343e+003
7.719783e+002, 2.933434e+003
7.724604e+002, 2.937799e+003
7.729426e+002, 2.940929e+003
7.734247e+002, 2.943174e+003
7.739068e+002, 2.945281e+003
7.743889e+002, 2.946547e+003
7.748710e+002, 2.948933e+003
7.753531e+002, 2.953433e+003
7.758353e+002, 2.958996e+003
7.763174e+002, 2.962345e+003
7.767995e+002, 2.963374e+003
7.772816e+002, 2.964474e+003
7.777637e+002, 2.966304e+003
7.782458e+002, 2.968996e+003
7.787280e+002, 2.973045e+003
7.792101e+002, 2.978216e+003
7.796922e+002, 2.983616e+003
7.801743e+002, 2.989688e+003
7.806564e+002, 2.995102e+003
7.811385e+002, 2.997751e+003
7.816207e+002, 2.998849e+003
7.821028e+002, 3.003887e+003
7.825849e+002, 3.016838e+003
7.830670e+002, 3.027714e+003
7.835491e+002, 3.032988e+003
7.840313e+002, 3.034402e+003
7.845134e+002, 3.039560e+003
7.849955e+002, 3.048547e+003
7.854776e+002, 3.056573e+003
7.859597e+002, 3.060864e+003
7.864418e+002, 3.063297e+003
7.869240e+002, 3.066778e+003
7.874061e+002, 3.070967e+003
7.878882e+002, 3.074610e+003
7.883703e+002, 3.077224e+003
7.888524e+002, 3.078922e+003
7.893345e+002, 3.080027e+003
7.898167e+002, 3.080360e+003
7.902988e+002, 3.078721e+003
7.907809e+002, 3.074418e+003
7.912630e+002, 3.069458e+003
7.917451e+002, 3.064201e+003
7.922272e+002, 3.058927e+003
7.927094e+002, 3.054988e+003
7.931915e+002, 3.052324e+003
7.936736e+002, 3.048224e+003
7.941557e+002, 3.040158e+003
7.946378e+002, 3.030429e+003
7.951199e+002, 3.021345e+003
7.956021e+002, 3.013183e+003
7.960842e+002, 3.006503e+003
7.965663e+002, 3.003308e+003
7.970484e+002, 3.000051e+003
7.975305e+002, 2.994879e+003
7.980126e+002, 2.988059e+003
7.984948e+002, 2.981838e+003
7.989769e+002, 2.976022e+003
7.994590e+002, 2.971434e+003
7.999411e+002, 2.968845e+003
8.004232e+002, 2.967693e+003
8.009053e+002, 2.965737e+003
8.013875e+002, 2.963113e+003
8.018696e+002, 2.961077e+003
8.023517e+002, 2.961104e+003
8.028338e+002, 2.961549e+003
8.033159e+002, 2.960673e+003
8.037980e+002, 2.958647e+003
8.042802e+002, 2.956764e+003
8.047623e+002, 2.955591e+003
8.052444e+002, 2.954396e+003
8.057265e+002, 2.952498e+003
8.062086e+002, 2.950118e+003
8.066907e+002, 2.949665e+003
8.071729e+002, 2.951489e+003
8.076550e+002, 2.953618e+003
8.081371e+002, 2.955948e+003
8.086192e+002, 2.957546e+003
8.091013e+002, 2.954677e+003
8.095834e+002, 2.948219e+003
8.100656e+002, 2.943149e+003
8.105477e+002, 2.943703e+003
8.110298e+002, 2.945620e+003
8.115119e+002, 2.945844e+003
8.119940e+002, 2.944619e+003
8.124761e+002, 2.944497e+003
8.129583e+002, 2.947639e+003
8.134404e+002, 2.949747e+003
8.139225e+002, 2.949208e+003
8.144046e+002, 2.946549e+003
8.148867e+002, 2.944486e+003
8.153688e+002, 2.943006e+003
8.158510e+002, 2.942816e+003
8.163331e+002, 2.945186e+003
8.168152e+002, 2.948515e+003
8.172973e+002, 2.950044e+003
8.177794e+002, 2.950080e+003
8.182615e+002, 2.949896e+003
8.187437e+002, 2.949510e+003
8.192258e+002, 2.949579e+003
8.197079e+002, 2.950960e+003
8.201900e+002, 2.953274e+003
8.206721e+002, 2.953830e+003
8.211542e+002, 2.951379e+003
8.216364e+002, 2.949978e+003
8.221185e+002, 2.951631e+003
8.226006e+002, 2.954972e+003
8.230827e+002, 2.955118e+003
8.235648e+002, 2.952461e+003
8.240469e+002, 2.950076e+003
8.245291e+002, 2.950454e+003
8.250112e+002, 2.951219e+003
8.254933e+002, 2.949651e+003
8.259754e+002, 2.946547e+003
8.264575e+002, 2.944360e+003
8.269396e+002, 2.945365e+003
8.274218e+002, 2.945680e+003
8.279039e+002, 2.943650e+003
8.283860e+002, 2.940280e+003
8.288681e+002, 2.938962e+003
8.293502e+002, 2.939832e+003
8.298323e+002, 2.942018e+003
8.303145e+002, 2.945816e+003
8.307966e+002, 2.950015e+003
8.312787e+002, 2.952675e+003
8.317608e+002, 2.953819e+003
8.322429e+002, 2.953477e+003
8.327250e+002, 2.949621e+003
8.332072e+002, 2.946332e+003
8.336893e+002, 2.946352e+003
8.341714e+002, 2.948578e+003
8.346535e+002, 2.950087e+003
8.351356e+002, 2.950665e+003
8.356177e+002, 2.950537e+003
8.360999e+002, 2.949393e+003
8.365820e+002, 2.947914e+003
8.370641e+002, 2.947450e+003
8.375462e+002, 2.948004e+003
8.380283e+002, 2.949836e+003
8.385104e+002, 2.953997e+003
8.389926e+002, 2.957663e+003
8.394747e+002, 2.956182e+003
8.399568e+002, 2.952292e+003
8.404389e+002, 2.950764e+003
8.409210e+002, 2.956839e+003
8.414031e+002, 2.960971e+003
8.418853e+002, 2.958802e+003
8.423674e+002, 2.954626e+003
8.428495e+002, 2.955000e+003
8.433316e+002, 2.961219e+003
8.438137e+002, 2.965099e+003
8.442958e+002, 2.964777e+003
8.447780e+002, 2.963078e+003
8.452601e+002, 2.965041e+003
8.457422e+002, 2.968827e+003
8.462243e+002, 2.969651e+003
8.467064e+002, 2.964856e+003
8.471885e+002, 2.960385e+003
8.476707e+002, 2.960064e+003
8.481528e+002, 2.961774e+003
8.486349e+002, 2.963162e+003
8.491170e+002, 2.965210e+003
8.495991e+002, 2.964410e+003
8.500812e+002, 2.959289e+003
8.505634e+002, 2.953675e+003
8.510455e+002, 2.951688e+003
8.515276e+002, 2.953122e+003
8.520097e+002, 2.957180e+003
8.524918e+002, 2.964376e+003
8.529739e+002, 2.969907e+003
8.534561e+002, 2.967893e+003
8.539382e+002, 2.962573e+003
8.544203e+002, 2.958408e+003
8.549024e+002, 2.956099e+003
8.553845e+002, 2.955299e+003
8.558666e+002, 2.956832e+003
8.563488e+002, 2.958949e+003
8.568309e+002, 2.960292e+003
8.573130e+002, 2.960546e+003
8.577951e+002, 2.962719e+003
8.582772e+002, 2.967159e+003
8.587593e+002, 2.970678e+003
8.592415e+002, 2.969257e+003
8.597236e+002, 2.965469e+003
8.602057e+002, 2.963974e+003
8.606878e+002, 2.965154e+003
8.611699e+002, 2.965721e+003
8.616520e+002, 2.963043e+003
8.621342e+002, 2.960145e+003
8.626163e+002, 2.959081e+003
8.630984e+002, 2.959970e+003
8.635805e+002, 2.960576e+003
8.640626e+002, 2.961108e+003
8.645447e+002, 2.960910e+003
8.650269e+002, 2.959143e+003
8.655090e+002, 2.956477e+003
8.659911e+002, 2.955326e+003
8.664732e+002, 2.955556e+003
8.669553e+002, 2.956005e+003
8.674374e+002, 2.955907e+003
8.679196e+002, 2.955831e+003
8.684017e+002, 2.956351e+003
8.688838e+002, 2.957322e+003
8.693659e+002, 2.957634e+003
8.698480e+002, 2.956263e+003
8.703301e+002, 2.955715e+003
8.708123e+002, 2.956967e+003
8.712944e+002, 2.959360e+003
8.717765e+002, 2.960836e+003
8.722586e+002, 2.961379e+003
8.727407e+002, 2.961299e+003
8.732228e+002, 2.960466e+003
8.737050e+002, 2.959319e+003
8.741871e+002, 2.957858e+003
8.746692e+002, 2.956491e+003
8.751513e+002, 2.956091e+003
8.756334e+002, 2.958851e+003
8.761155e+002, 2.960262e+003
8.765977e+002, 2.959427e+003
8.770798e+002, 2.957046e+003
8.775619e+002, 2.953993e+003
8.780440e+002, 2.950180e+003
8.785261e+002, 2.947142e+003
8.790082e+002, 2.944973e+003
8.794904e+002, 2.944244e+003
8.799725e+002, 2.947163e+003
8.804546e+002, 2.951621e+003
8.809367e+002, 2.953730e+003
8.814188e+002, 2.951272e+003
8.819009e+002, 2.948887e+003
8.823831e+002, 2.948672e+003
8.828652e+002, 2.948963e+003
8.833473e+002, 2.947896e+003
8.838294e+002, 2.944656e+003
8.843115e+002, 2.943469e+003
8.847936e+002, 2.944906e+003
8.852758e+002, 2.946915e+003
8.857579e+002, 2.947387e+003
8.862400e+002, 2.946882e+003
8.867221e+002, 2.946647e+003
8.872042e+002, 2.946866e+003
8.876863e+002, 2.946988e+003
8.881685e+002, 2.946461e+003
8.886506e+002, 2.945893e+003
8.891327e+002, 2.945582e+003
8.896148e+002, 2.945452e+003
8.900969e+002, 2.946254e+003
8.905790e+002, 2.948325e+003
8.910612e+002, 2.950293e+003
8.915433e+002, 2.951100e+003
8.920254e+002, 2.951082e+003
8.925075e+002, 2.951563e+003
8.929896e+002, 2.952474e+003
8.934717e+002, 2.953487e+003
8.939539e+002, 2.954931e+003
8.944360e+002, 2.955935e+003
8.949181e+002, 2.955600e+003
8.954002e+002, 2.954183e+003
8.958823e+002, 2.953438e+003
8.963644e+002, 2.954169e+003
8.968466e+002, 2.954334e+003
8.973287e+002, 2.953193e+003
8.978108e+002, 2.951397e+003
8.982929e+002, 2.950246e+003
8.987750e+002, 2.949867e+003
8.992571e+002, 2.951078e+003
8.997393e+002, 2.956047e+003
9.002214e+002, 2.959927e+003
9.007035e+002, 2.956806e+003
9.011856e+002, 2.950204e+003
9.016677e+002, 2.946100e+003
9.021498e+002, 2.948061e+003
9.026320e+002, 2.949326e+003
9.031141e+002, 2.948965e+003
9.035962e+002, 2.948256e+003
9.040783e+002, 2.949360e+003
9.045604e+002, 2.952044e+003
9.050425e+002, 2.953247e+003
9.055247e+002, 2.952412e+003
9.060068e+002, 2.950760e+003
9.064889e+002, 2.948955e+003
9.069710e+002, 2.947271e+003
9.074531e+002, 2.945859e+003
9.079352e+002, 2.944465e+003
9.084174e+002, 2.944655e+003
9.088995e+002, 2.947957e+003
9.093816e+002, 2.951353e+003
9.098637e+002, 2.953036e+003
9.103458e+002, 2.953036e+003
9.108279e+002, 2.952291e+003
9.113101e+002, 2.950768e+003
9.117922e+002, 2.949509e+003
9.122743e+002, 2.949954e+003
9.127564e+002, 2.950557e+003
9.132385e+002, 2.949050e+003
9.137206e+002, 2.945754e+003
9.142028e+002, 2.943600e+003
9.146849e+002, 2.944607e+003
9.151670e+002, 2.945595e+003
9.156491e+002, 2.945707e+003
9.161312e+002, 2.945105e+003
9.166133e+002, 2.944163e+003
9.170955e+002, 2.942891e+003
9.175776e+002, 2.942146e+003
9.180597e+002, 2.942347e+003
9.185418e+002, 2.943115e+003
9.190239e+002, 2.944720e+003
9.195060e+002, 2.946425e+003
9.199882e+002, 2.946765e+003
9.204703e+002, 2.942287e+003
9.209524e+002, 2.940399e+003
9.214345e+002, 2.944262e+003
9.219166e+002, 2.949534e+003
9.223987e+002, 2.950304e+003
9.228809e+002, 2.946137e+003
9.233630e+002, 2.943920e+003
9.238451e+002, 2.944535e+003
9.243272e+002, 2.946270e+003
9.248093e+002, 2.948489e+003
9.252914e+002, 2.950160e+003
9.257736e+002, 2.949431e+003
9.262557e+002, 2.945565e+003
9.267378e+002, 2.942586e+003
9.272199e+002, 2.942586e+003
9.277020e+002, 2.943007e+003
9.281841e+002, 2.942414e+003
9.286663e+002, 2.940839e+003
9.291484e+002, 2.940957e+003
9.296305e+002, 2.942859e+003
9.301126e+002, 2.944691e+003
9.305947e+002, 2.944989e+003
9.310768e+002, 2.944737e+003
9.315590e+002, 2.945446e+003
9.320411e+002, 2.946785e+003
9.325232e+002, 2.947309e+003
9.330053e+002, 2.946721e+003
9.334874e+002, 2.944864e+003
9.339695e+002, 2.940738e+003
9.344517e+002, 2.935860e+003
9.349338e+002, 2.934175e+003
9.354159e+002, 2.935769e+003
9.358980e+002, 2.937579e+003
9.363801e+002, 2.938883e+003
9.368622e+002, 2.939840e+003
9.373444e+002, 2.940095e+003
9.378265e+002, 2.940297e+003
9.383086e+002, 2.941558e+003
9.387907e+002, 2.945502e+003
9.392728e+002, 2.947763e+003
9.397549e+002, 2.946262e+003
9.402371e+002, 2.944188e+003
9.407192e+002, 2.944132e+003
9.412013e+002, 2.946132e+003
9.416834e+002, 2.948462e+003
9.421655e+002, 2.951081e+003
9.426476e+002, 2.953125e+003
9.431298e+002, 2.952902e+003
9.436119e+002, 2.952288e+003
9.440940e+002, 2.953749e+003
9.445761e+002, 2.957321e+003
9.450582e+002, 2.959807e+003
9.455403e+002, 2.960292e+003
9.460225e+002, 2.959670e+003
9.465046e+002, 2.957627e+003
9.469867e+002, 2.954836e+003
9.474688e+002, 2.954228e+003
9.479509e+002, 2.955700e+003
9.484330e+002, 2.957431e+003
9.489152e+002, 2.958617e+003
9.493973e+002, 2.959781e+003
9.498794e+002, 2.961598e+003
9.503615e+002, 2.963708e+003
9.508436e+002, 2.965483e+003
9.513257e+002, 2.966933e+003
9.518079e+002, 2.967592e+003
9.522900e+002, 2.966644e+003
9.527721e+002, 2.965974e+003
9.532542e+002, 2.968496e+003
9.537363e+002, 2.973682e+003
9.542184e+002, 2.977198e+003
9.547006e+002, 2.978422e+003
9.551827e+002, 2.979937e+003
9.556648e+002, 2.985020e+003
9.561469e+002, 2.990591e+003
9.566290e+002, 2.993374e+003
9.571111e+002, 2.992576e+003
9.575933e+002, 2.994089e+003
9.580754e+002, 2.999108e+003
9.585575e+002, 3.004429e+003
9.590396e+002, 3.008078e+003
9.595217e+002, 3.010976e+003
9.600038e+002, 3.016471e+003
9.604860e+002, 3.024310e+003
9.609681e+002, 3.033227e+003
9.614502e+002, 3.042937e+003
9.619323e+002, 3.053021e+003
9.624144e+002, 3.062997e+003
9.628965e+002, 3.073138e+003
9.633787e+002, 3.083786e+003
9.638608e+002, 3.094920e+003
9.643429e+002, 3.106759e+003
9.648250e+002, 3.119484e+003
9.653071e+002, 3.132714e+003
9.657892e+002, 3.145513e+003
9.662714e+002, 3.158288e+003
9.667535e+002, 3.173070e+003
9.672356e+002, 3.190634e+003
9.677177e+002, 3.205816e+003
9.681998e+002, 3.215411e+003
9.686819e+002, 3.221624e+003
9.691641e+002, 3.225959e+003
9.696462e+002, 3.228664e+003
9.701283e+002, 3.228318e+003
9.706104e+002, 3.224864e+003
9.710925e+002, 3.218704e+003
9.715746e+002, 3.209830e+003
9.720568e+002, 3.198443e+003
9.725389e+002, 3.183637e+003
9.730210e+002, 3.166365e+003
9.735031e+002, 3.150233e+003
9.739852e+002, 3.137034e+003
9.744673e+002, 3.124865e+003
9.749495e+002, 3.113103e+003
9.754316e+002, 3.102024e+003
9.759137e+002, 3.092835e+003
9.763958e+002, 3.085772e+003
9.768779e+002, 3.076831e+003
9.773600e+002, 3.064709e+003
9.778422e+002, 3.053679e+003
9.783243e+002, 3.049342e+003
9.788064e+002, 3.048184e+003
9.792885e+002, 3.045963e+003
9.797706e+002, 3.041809e+003
9.802527e+002, 3.037365e+003
9.807349e+002, 3.032022e+003
9.812170e+002, 3.027607e+003
9.816991e+002, 3.025440e+003
9.821812e+002, 3.025159e+003
9.826633e+002, 3.024249e+003
9.831454e+002, 3.022733e+003
9.836276e+002, 3.021218e+003
9.841097e+002, 3.019934e+003
9.845918e+002, 3.018830e+003
9.850739e+002, 3.018237e+003
9.855560e+002, 3.017756e+003
9.860381e+002, 3.016244e+003
9.865203e+002, 3.012734e+003
9.870024e+002, 3.010156e+003
9.874845e+002, 3.009030e+003
9.879666e+002, 3.008728e+003
9.884487e+002, 3.009146e+003
9.889308e+002, 3.009640e+003
9.894130e+002, 3.007723e+003
9.898951e+002, 3.002605e+003
9.903772e+002, 2.998315e+003
9.908593e+002, 2.997452e+003
9.913414e+002, 2.998150e+003
9.918235e+002, 2.999252e+003
9.923057e+002, 3.000723e+003
9.927878e+002, 3.002402e+003
9.932699e+002, 3.004491e+003
9.937520e+002, 3.005604e+003
9.942341e+002, 3.004125e+003
9.947162e+002, 3.001833e+003
9.951984e+002, 3.002224e+003
9.956805e+002, 3.004364e+003
9.961626e+002, 3.005715e+003
9.966447e+002, 3.003406e+003
9.971268e+002, 3.002752e+003
9.976089e+002, 3.005822e+003
9.980911e+002, 3.010275e+003
9.985732e+002, 3.012789e+003
9.990553e+002, 3.013388e+003
9.995374e+002, 3.014027e+003
1.000020e+003, 3.014923e+003
1.000502e+003, 3.015896e+003
1.000984e+003, 3.016725e+003
1.001466e+003, 3.017554e+003
1.001948e+003, 3.018261e+003
1.002430e+003, 3.018732e+003
1.002912e+003, 3.020833e+003
1.003394e+003, 3.026237e+003
1.003876e+003, 3.030007e+003
1.004359e+003, 3.029281e+003
1.004841e+003, 3.025991e+003
1.005323e+003, 3.025983e+003
1.005805e+003, 3.028730e+003
1.006287e+003, 3.032084e+003
1.006769e+003, 3.036244e+003
1.007251e+003, 3.039383e+003
1.007733e+003, 3.039240e+003
1.008216e+003, 3.038124e+003
1.008698e+003, 3.039498e+003
1.009180e+003, 3.044659e+003
1.009662e+003, 3.047139e+003
1.010144e+003, 3.046203e+003
1.010626e+003, 3.044521e+003
1.011108e+003, 3.045112e+003
1.011590e+003, 3.046464e+003
1.012072e+003, 3.045663e+003
1.012555e+003, 3.042704e+003
1.013037e+003, 3.041463e+003
1.013519e+003, 3.045475e+003
1.014001e+003, 3.048893e+003
1.014483e+003, 3.050020e+003
1.014965e+003, 3.049100e+003
1.015447e+003, 3.046495e+003
1.015929e+003, 3.042385e+003
1.016411e+003, 3.038674e+003
1.016894e+003, 3.035878e+003
1.017376e+003, 3.033970e+003
1.017858e+003, 3.032855e+003
1.018340e+003, 3.032696e+003
1.018822e+003, 3.033991e+003
1.019304e+003, 3.038452e+003
1.019786e+003, 3.039879e+003
1.020268e+003, 3.037461e+003
1.020751e+003, 3.034267e+003
1.021233e+003, 3.032205e+003
1.021715e+003, 3.031300e+003
1.022197e+003, 3.031805e+003
1.022679e+003, 3.033600e+003
1.023161e+003, 3.035982e+003
1.023643e+003, 3.039728e+003
1.024125e+003, 3.042694e+003
1.024607e+003, 3.043328e+003
1.025090e+003, 3.042833e+003
1.025572e+003, 3.044123e+003
1.026054e+003, 3.047418e+003
1.026536e+003, 3.048493e+003
1.027018e+003, 3.046140e+003
1.027500e+003, 3.043284e+003
1.027982e+003, 3.043256e+003
1.028464e+003, 3.044351e+003
1.028947e+003, 3.044829e+003
1.029429e+003, 3.044556e+003
1.029911e+003, 3.042540e+003
1.030393e+003, 3.037476e+003
1.030875e+003, 3.033316e+003
1.031357e+003, 3.032542e+003
1.031839e+003, 3.034104e+003
1.032321e+003, 3.034134e+003
1.032803e+003, 3.033133e+003
1.033286e+003, 3.033115e+003
1.033768e+003, 3.036104e+003
1.034250e+003, 3.039141e+003
1.034732e+003, 3.041334e+003
1.035214e+003, 3.042581e+003
1.035696e+003, 3.042346e+003
1.036178e+003, 3.039872e+003
1.036660e+003, 3.040271e+003
1.037143e+003, 3.044224e+003
1.037625e+003, 3.048578e+003
1.038107e+003, 3.050562e+003
1.038589e+003, 3.051195e+003
1.039071e+003, 3.051131e+003
1.039553e+003, 3.050554e+003
1.040035e+003, 3.051502e+003
1.040517e+003, 3.056070e+003
1.041000e+003, 3.059509e+003
1.041482e+003, 3.059932e+003
1.041964e+003, 3.058988e+003
1.042446e+003, 3.061487e+003
1.042928e+003, 3.066294e+003
1.043410e+003, 3.068249e+003
1.043892e+003, 3.064796e+003
1.044374e+003, 3.061487e+003
1.044856e+003, 3.062088e+003
1.045339e+003, 3.064179e+003
1.045821e+003, 3.065626e+003
1.046303e+003, 3.066309e+003
1.046785e+003, 3.067080e+003
1.047267e+003, 3.068010e+003
1.047749e+003, 3.068448e+003
1.048231e+003, 3.066442e+003
1.048713e+003, 3.064732e+003
1.049195e+003, 3.068121e+003
1.049677e+003, 3.074794e+003
1.050160e+003, 3.079459e+003
1.050642e+003, 3.077207e+003
1.051124e+003, 3.077862e+003
1.051606e+003, 3.083791e+003
1.052088e+003, 3.090996e+003
1.052570e+003, 3.093776e+003
1.053052e+003, 3.093153e+003
1.053534e+003, 3.092753e+003
1.054017e+003, 3.092988e+003
1.054499e+003, 3.093749e+003
1.054981e+003, 3.095248e+003
1.055463e+003, 3.097012e+003
1.055945e+003, 3.099007e+003
1.056427e+003, 3.101087e+003
1.056909e+003, 3.102254e+003
1.057391e+003, 3.102488e+003
1.057874e+003, 3.102360e+003
1.058356e+003, 3.102013e+003
1.058838e+003, 3.101595e+003
1.059320e+003, 3.100756e+003
1.059802e+003, 3.100209e+003
1.060284e+003, 3.101174e+003
1.060766e+003, 3.105536e+003
1.061248e+003, 3.107320e+003
1.061730e+003, 3.105167e+003
1.062213e+003, 3.102769e+003
1.062695e+003, 3.103643e+003
1.063177e+003, 3.106301e+003
1.063659e+003, 3.104408e+003
1.064141e+003, 3.098984e+003
1.064623e+003, 3.095047e+003
1.065105e+003, 3.095479e+003
1.065587e+003, 3.097420e+003
1.066070e+003, 3.101387e+003
1.066552e+003, 3.105284e+003
1.067034e+003, 3.105422e+003
1.067516e+003, 3.101628e+003
1.067998e+003, 3.099172e+003
1.068480e+003, 3.098785e+003
1.068962e+003, 3.098631e+003
1.069444e+003, 3.097332e+003
1.069927e+003, 3.095326e+003
1.070409e+003, 3.092820e+003
1.070891e+003, 3.089915e+003
1.071373e+003, 3.087240e+003
1.071855e+003, 3.084770e+003
1.072337e+003, 3.082730e+003
1.072819e+003, 3.081140e+003
1.073301e+003, 3.080107e+003
1.073783e+003, 3.080042e+003
1.074266e+003, 3.080607e+003
1.074748e+003, 3.081176e+003
1.075230e+003, 3.081904e+003
1.075712e+003, 3.081684e+003
1.076194e+003, 3.078976e+003
1.076676e+003, 3.076615e+003
1.077158e+003, 3.076513e+003
1.077640e+003, 3.078406e+003
1.078122e+003, 3.079348e+003
1.078604e+003, 3.079520e+003
1.079087e+003, 3.080515e+003
1.079569e+003, 3.084959e+003
1.080051e+003, 3.088646e+003
1.080533e+003, 3.087691e+003
1.081015e+003, 3.084737e+003
1.081497e+003, 3.084923e+003
1.081979e+003, 3.089335e+003
1.082461e+003, 3.091355e+003
1.082944e+003, 3.090094e+003
1.083426e+003, 3.089092e+003
1.083908e+003, 3.093210e+003
1.084390e+003, 3.098572e+003
1.084872e+003, 3.099619e+003
1.085354e+003, 3.096598e+003
1.085836e+003, 3.096363e+003
1.086318e+003, 3.101853e+003
1.086801e+003, 3.106374e+003
1.087283e+003, 3.108015e+003
1.087765e+003, 3.108465e+003
1.088247e+003, 3.110770e+003
1.088729e+003, 3.114417e+003
1.089211e+003, 3.118034e+003
1.089693e+003, 3.121323e+003
1.090175e+003, 3.124682e+003
1.090657e+003, 3.129194e+003
1.091140e+003, 3.132766e+003
1.091622e+003, 3.133509e+003
1.092104e+003, 3.132107e+003
1.092586e+003, 3.135001e+003
1.093068e+003, 3.141801e+003
1.093550e+003, 3.147692e+003
1.094032e+003, 3.150386e+003
1.094514e+003, 3.151743e+003
1.094997e+003, 3.152005e+003
1.095479e+003, 3.152280e+003
1.095961e+003, 3.154211e+003
1.096443e+003, 3.158562e+003
1.096925e+003, 3.162139e+003
1.097407e+003, 3.164976e+003
1.097889e+003, 3.166868e+003
1.098371e+003, 3.166568e+003
1.098854e+003, 3.165948e+003
1.099336e+003, 3.167881e+003
1.099818e+003, 3.171684e+003
1.100300e+003, 3.174482e+003
1.100782e+003, 3.175125e+003
1.101264e+003, 3.175598e+003
1.101746e+003, 3.176185e+003
1.102228e+003, 3.176578e+003
1.102710e+003, 3.176019e+003
1.103193e+003, 3.175031e+003
1.103675e+003, 3.174790e+003
1.104157e+003, 3.175460e+003
1.104639e+003, 3.176964e+003
1.105121e+003, 3.179525e+003
1.105603e+003, 3.182727e+003
1.106085e+003, 3.186401e+003
1.106567e+003, 3.190597e+003
1.107049e+003, 3.195888e+003
1.107531e+003, 3.202044e+003
1.108014e+003, 3.206410e+003
1.108496e+003, 3.207584e+003
1.108978e+003, 3.209458e+003
1.109460e+003, 3.214787e+003
1.109942e+003, 3.222002e+003
1.110424e+003, 3.229938e+003
1.110906e+003, 3.238594e+003
1.111388e+003, 3.246762e+003
1.111871e+003, 3.254494e+003
1.112353e+003, 3.260668e+003
1.112835e+003, 3.262819e+003
1.113317e+003, 3.265576e+003
1.113799e+003, 3.275038e+003
1.114281e+003, 3.288208e+003
1.114763e+003, 3.300277e+003
1.115245e+003, 3.309156e+003
1.115728e+003, 3.319259e+003
1.116210e+003, 3.330476e+003
1.116692e+003, 3.343369e+003
1.117174e+003, 3.359036e+003
1.117656e+003, 3.376266e+003
1.118138e+003, 3.393165e+003
1.118620e+003, 3.409638e+003
1.119102e+003, 3.425585e+003
1.119584e+003, 3.439086e+003
1.120067e+003, 3.454635e+003
1.120549e+003, 3.472991e+003
1.121031e+003, 3.493280e+003
1.121513e+003, 3.515895e+003
1.121995e+003, 3.539480e+003
1.122477e+003, 3.557767e+003
1.122959e+003, 3.570539e+003
1.123441e+003, 3.585013e+003
1.123924e+003, 3.607234e+003
1.124406e+003, 3.629574e+003
1.124888e+003, 3.648949e+003
1.125370e+003, 3.666044e+003
1.125852e+003, 3.683278e+003
1.126334e+003, 3.700468e+003
1.126816e+003, 3.714199e+003
1.127298e+003, 3.723437e+003
1.127781e+003, 3.730571e+003
1.128263e+003, 3.737435e+003
1.128745e+003, 3.742895e+003
1.129227e+003, 3.745826e+003
1.129709e+003, 3.746392e+003
1.130191e+003, 3.745694e+003
1.130673e+003, 3.743669e+003
1.131155e+003, 3.741277e+003
1.131637e+003, 3.739049e+003
1.132120e+003, 3.736281e+003
1.132602e+003, 3.732613e+003
1.133084e+003, 3.727669e+003
1.133566e+003, 3.720915e+003
1.134048e+003, 3.711859e+003
1.134530e+003, 3.702163e+003
1.135012e+003, 3.691772e+003
1.135494e+003, 3.680675e+003
1.135976e+003, 3.668002e+003
1.136458e+003, 3.655006e+003
1.136941e+003, 3.644954e+003
1.137423e+003, 3.636255e+003
1.137905e+003, 3.625062e+003
1.138387e+003, 3.608176e+003
1.138869e+003, 3.591479e+003
1.139351e+003, 3.574946e+003
1.139833e+003, 3.559599e+003
1.140315e+003, 3.547698e+003
1.140798e+003, 3.537573e+003
1.141280e+003, 3.525409e+003
1.141762e+003, 3.511096e+003
1.142244e+003, 3.495890e+003
1.142726e+003, 3.478318e+003
1.143208e+003, 3.462284e+003
1.143690e+003, 3.448205e+003
1.144172e+003, 3.436302e+003
1.144655e+003, 3.427293e+003
1.145137e+003, 3.420716e+003
1.145619e+003, 3.413993e+003
1.146101e+003, 3.406871e+003
1.146583e+003, 3.400260e+003
1.147065e+003, 3.394368e+003
1.147547e+003, 3.389467e+003
1.148029e+003, 3.385353e+003
1.148511e+003, 3.382364e+003
1.148994e+003, 3.381708e+003
1.149476e+003, 3.383231e+003
1.149958e+003, 3.385293e+003
1.150440e+003, 3.387351e+003
1.150922e+003, 3.390818e+003
1.151404e+003, 3.398819e+003
1.151886e+003, 3.406744e+003
1.152368e+003, 3.409918e+003
1.152851e+003, 3.409178e+003
1.153333e+003, 3.414084e+003
1.153815e+003, 3.424622e+003
1.154297e+003, 3.434248e+003
1.154779e+003, 3.440874e+003
1.155261e+003, 3.444789e+003
1.155743e+003, 3.444920e+003
1.156225e+003, 3.443072e+003
1.156708e+003, 3.441118e+003
1.157190e+003, 3.439163e+003
1.157672e+003, 3.438184e+003
1.158154e+003, 3.438684e+003
1.158636e+003, 3.435939e+003
1.159118e+003, 3.426268e+003
1.159600e+003, 3.413364e+003
1.160082e+003, 3.399949e+003
1.160564e+003, 3.386720e+003
1.161047e+003, 3.374975e+003
1.161529e+003, 3.365645e+003
1.162011e+003, 3.356385e+003
1.162493e+003, 3.347584e+003
1.162975e+003, 3.337197e+003
1.163457e+003, 3.321880e+003
1.163939e+003, 3.305218e+003
1.164421e+003, 3.291993e+003
1.164903e+003, 3.281740e+003
1.165385e+003, 3.272917e+003
1.165868e+003, 3.266520e+003
1.166350e+003, 3.258777e+003
1.166832e+003, 3.248853e+003
1.167314e+003, 3.239113e+003
1.167796e+003, 3.232649e+003
1.168278e+003, 3.227907e+003
1.168760e+003, 3.221879e+003
1.169242e+003, 3.214767e+003
1.169725e+003, 3.209130e+003
1.170207e+003, 3.207071e+003
1.170689e+003, 3.204627e+003
1.171171e+003, 3.201305e+003
1.171653e+003, 3.197290e+003
1.172135e+003, 3.192487e+003
1.172617e+003, 3.187323e+003
1.173099e+003, 3.182483e+003
1.173582e+003, 3.178084e+003
1.174064e+003, 3.174402e+003
1.174546e+003, 3.171649e+003
1.175028e+003, 3.169603e+003
1.175510e+003, 3.168503e+003
1.175992e+003, 3.167713e+003
1.176474e+003, 3.165826e+003
1.176956e+003, 3.163210e+003
1.177438e+003, 3.161022e+003
1.177921e+003, 3.159509e+003
1.178403e+003, 3.158119e+003
1.178885e+003, 3.156499e+003
1.179367e+003, 3.155146e+003
1.179849e+003, 3.154396e+003
1.180331e+003, 3.153983e+003
1.180813e+003, 3.153298e+003
1.181295e+003, 3.152257e+003
1.181778e+003, 3.150217e+003
1.182260e+003, 3.146443e+003
1.182742e+003, 3.143783e+003
1.183224e+003, 3.144412e+003
1.183706e+003, 3.145685e+003
1.184188e+003, 3.146381e+003
1.184670e+003, 3.146433e+003
1.185152e+003, 3.144881e+003
1.185635e+003, 3.142163e+003
1.186117e+003, 3.140741e+003
1.186599e+003, 3.142753e+003
1.187081e+003, 3.143637e+003
1.187563e+003, 3.139311e+003
1.188045e+003, 3.134556e+003
1.188527e+003, 3.132860e+003
1.189009e+003, 3.134084e+003
1.189491e+003, 3.137241e+003
1.189974e+003, 3.141853e+003
1.190456e+003, 3.144344e+003
1.190938e+003, 3.141106e+003
1.191420e+003, 3.137823e+003
1.191902e+003, 3.138144e+003
1.192384e+003, 3.139141e+003
1.192866e+003, 3.137378e+003
1.193348e+003, 3.132736e+003
1.193830e+003, 3.131685e+003
1.194313e+003, 3.133933e+003
1.194795e+003, 3.135853e+003
1.195277e+003, 3.134863e+003
1.195759e+003, 3.133405e+003
1.196241e+003, 3.132180e+003
1.196723e+003, 3.131650e+003
1.197205e+003, 3.133007e+003
1.197687e+003, 3.136384e+003
1.198169e+003, 3.136548e+003
1.198652e+003, 3.133401e+003
1.199134e+003, 3.130078e+003
1.199616e+003, 3.128242e+003
1.200098e+003, 3.127431e+003
1.200580e+003, 3.128376e+003
1.201062e+003, 3.129759e+003
1.201544e+003, 3.129202e+003
1.202026e+003, 3.126643e+003
1.202509e+003, 3.124720e+003
1.202991e+003, 3.123658e+003
1.203473e+003, 3.123549e+003
1.203955e+003, 3.125455e+003
1.204437e+003, 3.127289e+003
1.204919e+003, 3.127485e+003
1.205401e+003, 3.126608e+003
1.205883e+003, 3.125873e+003
1.206365e+003, 3.125242e+003
1.206848e+003, 3.124512e+003
1.207330e+003, 3.123594e+003
1.207812e+003, 3.123282e+003
1.208294e+003, 3.125365e+003
1.208776e+003, 3.127160e+003
1.209258e+003, 3.125979e+003
1.209740e+003, 3.123133e+003
1.210222e+003, 3.122401e+003
1.210705e+003, 3.123828e+003
1.211187e+003, 3.125221e+003
1.211669e+003, 3.126295e+003
1.212151e+003, 3.126699e+003
1.212633e+003, 3.125573e+003
1.213115e+003, 3.124237e+003
1.213597e+003, 3.123941e+003
1.214079e+003, 3.124296e+003
1.214562e+003, 3.123617e+003
1.215044e+003, 3.121945e+003
1.215526e+003, 3.120668e+003
1.216008e+003, 3.120118e+003
1.216490e+003, 3.119829e+003
1.216972e+003, 3.119024e+003
1.217454e+003, 3.118645e+003
1.217936e+003, 3.119469e+003
1.218418e+003, 3.121277e+003
1.218901e+003, 3.123390e+003
1.219383e+003, 3.125764e+003
1.219865e+003, 3.128226e+003
1.220347e+003, 3.131211e+003
1.220829e+003, 3.132197e+003
1.221311e+003, 3.127264e+003
1.221793e+003, 3.121327e+003
1.222275e+003, 3.117753e+003
1.222757e+003, 3.116475e+003
1.223240e+003, 3.117356e+003
1.223722e+003, 3.120195e+003
1.224204e+003, 3.121929e+003
1.224686e+003, 3.121299e+003
1.225168e+003, 3.120211e+003
1.225650e+003, 3.120099e+003
1.226132e+003, 3.119959e+003
1.226614e+003, 3.118882e+003
1.227096e+003, 3.117067e+003
1.227579e+003, 3.115925e+003
1.228061e+003, 3.115502e+003
1.228543e+003, 3.116364e+003
1.229025e+003, 3.119630e+003
1.229507e+003, 3.121997e+003
1.229989e+003, 3.120090e+003
1.230471e+003, 3.117716e+003
1.230953e+003, 3.118186e+003
1.231436e+003, 3.120983e+003
1.231918e+003, 3.121022e+003
1.232400e+003, 3.118725e+003
1.232882e+003, 3.117105e+003
1.233364e+003, 3.117484e+003
1.233846e+003, 3.118633e+003
1.234328e+003, 3.121383e+003
1.234810e+003, 3.123346e+003
1.235292e+003, 3.122254e+003
1.235775e+003, 3.118697e+003
1.236257e+003, 3.117133e+003
1.236739e+003, 3.117442e+003
1.237221e+003, 3.118882e+003
1.237703e+003, 3.121941e+003
1.238185e+003, 3.124799e+003
1.238667e+003, 3.127031e+003
1.239149e+003, 3.128484e+003
1.239632e+003, 3.128968e+003
1.240114e+003, 3.128508e+003
1.240596e+003, 3.126741e+003
1.241078e+003, 3.124099e+003
1.241560e+003, 3.122368e+003
1.242042e+003, 3.122488e+003
1.242524e+003, 3.123554e+003
1.243006e+003, 3.126414e+003
1.243489e+003, 3.128656e+003
1.243971e+003, 3.127621e+003
1.244453e+003, 3.124389e+003
1.244935e+003, 3.123089e+003
1.245417e+003, 3.123644e+003
1.245899e+003, 3.125776e+003
1.246381e+003, 3.132844e+003
1.246863e+003, 3.135958e+003
1.247345e+003, 3.132014e+003
1.247828e+003, 3.127740e+003
1.248310e+003, 3.130519e+003
1.248792e+003, 3.136907e+003
1.249274e+003, 3.136155e+003
1.249756e+003, 3.130603e+003
1.250238e+003, 3.128552e+003
1.250720e+003, 3.138971e+003
1.251202e+003, 3.143299e+003
1.251684e+003, 3.138291e+003
1.252167e+003, 3.131615e+003
1.252649e+003, 3.129338e+003
1.253131e+003, 3.130291e+003
1.253613e+003, 3.133437e+003
1.254095e+003, 3.137807e+003
1.254577e+003, 3.140514e+003
1.255059e+003, 3.140083e+003
1.255541e+003, 3.138980e+003
1.256023e+003, 3.136844e+003
1.256506e+003, 3.135632e+003
1.256988e+003, 3.138746e+003
1.257470e+003, 3.142708e+003
1.257952e+003, 3.141838e+003
1.258434e+003, 3.137696e+003
1.258916e+003, 3.135241e+003
1.259398e+003, 3.135657e+003
1.259880e+003, 3.135970e+003
1.260363e+003, 3.135940e+003
1.260845e+003, 3.136431e+003
1.261327e+003, 3.139549e+003
1.261809e+003, 3.142406e+003
1.262291e+003, 3.141332e+003
1.262773e+003, 3.137664e+003
1.263255e+003, 3.135001e+003
1.263737e+003, 3.133316e+003
1.264219e+003, 3.133958e+003
1.264702e+003, 3.137234e+003
1.265184e+003, 3.139396e+003
1.265666e+003, 3.135761e+003
1.266148e+003, 3.131625e+003
1.266630e+003, 3.131711e+003
1.267112e+003, 3.134125e+003
1.267594e+003, 3.134625e+003
1.268076e+003, 3.133102e+003
1.268559e+003, 3.131482e+003
1.269041e+003, 3.129918e+003
1.269523e+003, 3.129293e+003
1.270005e+003, 3.131299e+003
1.270487e+003, 3.133239e+003
1.270969e+003, 3.133110e+003
1.271451e+003, 3.132174e+003
1.271933e+003, 3.131729e+003
1.272416e+003, 3.131858e+003
1.272898e+003, 3.134660e+003
1.273380e+003, 3.139886e+003
1.273862e+003, 3.143316e+003
1.274344e+003, 3.140834e+003
1.274826e+003, 3.138114e+003
1.275308e+003, 3.136749e+003
1.275790e+003, 3.136566e+003
1.276272e+003, 3.137955e+003
1.276755e+003, 3.140332e+003
1.277237e+003, 3.141356e+003
1.277719e+003, 3.141063e+003
1.278201e+003, 3.140727e+003
1.278683e+003, 3.140878e+003
1.279165e+003, 3.141128e+003
1.279647e+003, 3.141433e+003
1.280129e+003, 3.141761e+003
1.280611e+003, 3.142310e+003
1.281094e+003, 3.142751e+003
1.281576e+003, 3.141716e+003
1.282058e+003, 3.139708e+003
1.282540e+003, 3.139550e+003
1.283022e+003, 3.143817e+003
1.283504e+003, 3.146312e+003
1.283986e+003, 3.146170e+003
1.284468e+003, 3.145003e+003
1.284950e+003, 3.144087e+003
1.285433e+003, 3.143342e+003
1.285915e+003, 3.142594e+003
1.286397e+003, 3.141941e+003
1.286879e+003, 3.141858e+003
1.287361e+003, 3.142701e+003
1.287843e+003, 3.142563e+003
1.288325e+003, 3.141097e+003
1.288807e+003, 3.140316e+003
1.289290e+003, 3.142456e+003
1.289772e+003, 3.145590e+003
1.290254e+003, 3.148890e+003
1.290736e+003, 3.151591e+003
1.291218e+003, 3.151934e+003
1.291700e+003, 3.149596e+003
1.292182e+003, 3.149509e+003
1.292664e+003, 3.151961e+003
1.293146e+003, 3.154115e+003
1.293629e+003, 3.154002e+003
1.294111e+003, 3.152965e+003
1.294593e+003, 3.150766e+003
1.295075e+003, 3.148736e+003
1.295557e+003, 3.149089e+003
1.296039e+003, 3.151392e+003
1.296521e+003, 3.151996e+003
1.297003e+003, 3.150779e+003
1.297486e+003, 3.148982e+003
1.297968e+003, 3.146934e+003
1.298450e+003, 3.145469e+003
1.298932e+003, 3.144902e+003
1.299414e+003, 3.144976e+003
1.299896e+003, 3.146022e+003
1.300378e+003, 3.147410e+003
1.300860e+003, 3.146992e+003
1.301343e+003, 3.145269e+003
1.301825e+003, 3.144459e+003
##END=



