##NAMES=Zanazziite
##RRUFFID=R100220
##IDEAL CHEMISTRY=Ca_2_Mg_5_Be_4_(PO_4_)_6_(OH)_4_&#183;6H_2_O
##LOCALITY=Jenipapo district, Itinga, Minas Gerais, Brazil
##OWNER=RRUFF
##SOURCE=Luiz Menezes
##DESCRIPTION=Pale lilac rectangular blocky crystals on muscovite
##STATUS=The identification of this mineral has been confirmed only by single crystal X-ray diffraction.
##URL=rruff.info/R100220
228.4907, 555.6844
228.9729, 553.9450
229.4550, 550.7480
229.9371, 548.7758
230.4192, 548.9879
230.9013, 548.8398
231.3834, 548.0276
231.8656, 546.6083
232.3477, 544.4598
232.8298, 541.4214
233.3119, 538.0896
233.7940, 535.7786
234.2761, 534.5148
234.7583, 533.8522
235.2404, 533.7773
235.7225, 534.2194
236.2046, 535.3363
236.6867, 537.4777
237.1688, 539.5587
237.6510, 539.2980
238.1331, 536.3875
238.6152, 533.8259
239.0973, 532.8109
239.5794, 532.8373
240.0615, 532.9070
240.5437, 532.8385
241.0258, 532.5593
241.5079, 531.8148
241.9900, 530.5946
242.4721, 529.6699
242.9542, 529.5268
243.4364, 529.9293
243.9185, 530.3246
244.4006, 530.7051
244.8827, 530.8671
245.3648, 530.5640
245.8469, 529.8522
246.3290, 529.0533
246.8112, 528.2574
247.2933, 527.4919
247.7754, 526.8024
248.2575, 526.1371
248.7396, 525.6681
249.2217, 525.6310
249.7039, 525.9055
250.1860, 526.0853
250.6681, 526.0499
251.1502, 525.7625
251.6323, 525.0103
252.1144, 523.4855
252.5966, 521.9813
253.0787, 520.8632
253.5608, 520.1047
254.0429, 519.6473
254.5250, 519.4620
255.0071, 519.5558
255.4893, 520.0621
255.9714, 521.4773
256.4535, 522.4756
256.9356, 522.3908
257.4177, 521.5870
257.8998, 520.5848
258.3820, 519.4819
258.8641, 518.4737
259.3462, 518.3440
259.8283, 519.6977
260.3104, 520.9644
260.7925, 521.8896
261.2747, 522.3752
261.7568, 522.2269
262.2389, 521.2667
262.7210, 519.7671
263.2031, 518.5190
263.6852, 517.7025
264.1674, 516.8371
264.6495, 515.5540
265.1316, 514.2725
265.6137, 513.4556
266.0958, 513.3087
266.5779, 513.6638
267.0601, 514.2281
267.5422, 515.4961
268.0243, 516.0206
268.5064, 514.9749
268.9885, 513.5510
269.4706, 512.9334
269.9528, 513.5165
270.4349, 514.5982
270.9170, 514.8156
271.3991, 513.7039
271.8812, 512.5908
272.3633, 511.6017
272.8455, 510.6339
273.3276, 509.4170
273.8097, 507.9620
274.2918, 506.7632
274.7739, 506.7044
275.2560, 508.6876
275.7382, 509.8895
276.2202, 510.0401
276.7024, 509.7911
277.1845, 509.3536
277.6666, 508.8636
278.1487, 508.5855
278.6308, 508.9466
279.1129, 510.3843
279.5951, 510.8937
280.0772, 510.0280
280.5593, 508.8032
281.0414, 507.6675
281.5235, 506.6731
282.0056, 505.6754
282.4878, 504.5230
282.9699, 503.1656
283.4520, 501.9812
283.9341, 500.6194
284.4162, 499.7253
284.8983, 499.8883
285.3805, 500.7953
285.8626, 501.6066
286.3447, 501.6406
286.8268, 500.9179
287.3089, 500.6208
287.7910, 500.8382
288.2732, 501.3438
288.7553, 502.6408
289.2374, 504.1522
289.7195, 504.7148
290.2016, 503.5429
290.6837, 501.0389
291.1659, 499.4289
291.6480, 499.8088
292.1301, 499.7999
292.6122, 498.4364
293.0943, 496.5949
293.5764, 495.6146
294.0586, 496.1264
294.5407, 497.5695
295.0228, 498.4296
295.5049, 498.5702
295.9870, 498.2333
296.4691, 496.7480
296.9513, 495.0822
297.4334, 494.4029
297.9155, 495.0667
298.3976, 496.3477
298.8797, 497.0219
299.3618, 496.5425
299.8440, 496.4641
300.3261, 497.0070
300.8082, 497.8013
301.2903, 498.8062
301.7724, 499.9095
302.2545, 500.5569
302.7367, 499.9650
303.2188, 497.5645
303.7009, 496.1728
304.1830, 495.9243
304.6651, 496.4448
305.1472, 498.0726
305.6294, 500.4732
306.1115, 502.3857
306.5936, 502.6669
307.0757, 501.2105
307.5578, 499.8996
308.0399, 498.3294
308.5221, 497.2587
309.0042, 497.2570
309.4863, 498.0554
309.9684, 499.0079
310.4505, 499.7496
310.9326, 500.2592
311.4148, 500.3235
311.8969, 499.6790
312.3790, 498.9755
312.8611, 498.2431
313.3432, 497.5766
313.8253, 497.1576
314.3075, 497.0883
314.7896, 497.2049
315.2717, 497.0759
315.7538, 496.3319
316.2359, 495.8826
316.7180, 496.1221
317.2001, 496.5518
317.6823, 496.6380
318.1644, 496.2247
318.6465, 495.4727
319.1286, 494.5639
319.6107, 493.2189
320.0928, 492.4791
320.5750, 492.9108
321.0571, 493.5303
321.5392, 493.5802
322.0213, 492.9836
322.5034, 492.1227
322.9855, 491.3570
323.4677, 490.6826
323.9498, 490.1058
324.4319, 489.7842
324.9140, 489.3940
325.3961, 488.6665
325.8782, 487.7091
326.3604, 486.8599
326.8425, 486.3677
327.3246, 486.2014
327.8067, 485.9814
328.2888, 485.5032
328.7709, 485.2173
329.2531, 485.3968
329.7352, 485.8236
330.2173, 486.1212
330.6994, 486.1050
331.1815, 485.9179
331.6636, 485.9432
332.1458, 486.8848
332.6279, 487.1500
333.1100, 486.3026
333.5921, 484.9511
334.0742, 483.5855
334.5563, 482.3789
335.0385, 481.3485
335.5206, 480.5288
336.0027, 479.9320
336.4848, 479.5529
336.9669, 479.4438
337.4490, 479.4770
337.9312, 479.4893
338.4133, 479.5236
338.8954, 479.8581
339.3775, 480.8345
339.8596, 482.5627
340.3417, 483.5472
340.8239, 483.6430
341.3060, 483.2650
341.7881, 482.0709
342.2702, 480.5273
342.7523, 479.5404
343.2344, 479.7041
343.7166, 480.7773
344.1987, 481.5901
344.6808, 482.3853
345.1629, 482.5773
345.6450, 481.5730
346.1271, 480.1520
346.6093, 479.2743
347.0914, 479.2757
347.5735, 479.6026
348.0556, 479.1705
348.5377, 477.3152
349.0198, 475.8896
349.5020, 474.6475
349.9841, 473.9448
350.4662, 474.4650
350.9483, 476.0151
351.4304, 477.4480
351.9125, 477.4337
352.3947, 475.7018
352.8768, 474.3350
353.3589, 473.1285
353.8410, 472.4823
354.3231, 472.9864
354.8052, 474.1629
355.2874, 475.0945
355.7695, 475.1727
356.2516, 474.4761
356.7337, 473.4109
357.2158, 471.3843
357.6979, 469.8086
358.1800, 469.0733
358.6621, 468.8253
359.1443, 468.7560
359.6264, 468.7438
360.1085, 468.6933
360.5906, 468.3719
361.0727, 467.5646
361.5548, 467.0624
362.0370, 467.1504
362.5191, 467.3919
363.0012, 467.5739
363.4833, 467.6523
363.9654, 467.6456
364.4475, 467.5987
364.9297, 467.5208
365.4118, 467.2171
365.8939, 466.3356
366.3760, 465.6131
366.8581, 465.2009
367.3402, 465.1645
367.8224, 465.6691
368.3045, 467.0060
368.7866, 468.7845
369.2687, 469.8502
369.7508, 470.0572
370.2329, 469.8286
370.7151, 468.6458
371.1972, 467.4496
371.6793, 467.3241
372.1614, 468.6718
372.6435, 470.4596
373.1256, 471.4390
373.6078, 471.5626
374.0899, 471.5519
374.5720, 471.3331
375.0541, 471.2313
375.5362, 471.6557
376.0183, 472.5316
376.5005, 473.1573
376.9826, 472.9445
377.4647, 472.0919
377.9468, 471.2864
378.4289, 470.4842
378.9110, 469.9137
379.3932, 470.2058
379.8753, 470.8008
380.3574, 470.5094
380.8395, 468.3156
381.3216, 465.6660
381.8037, 464.4401
382.2859, 464.6613
382.7680, 464.9351
383.2501, 464.2485
383.7322, 463.6022
384.2143, 464.7442
384.6964, 468.3203
385.1786, 471.4940
385.6607, 472.3093
386.1428, 471.4618
386.6249, 470.8021
387.1070, 470.8046
387.5891, 470.9497
388.0713, 470.4414
388.5534, 469.3563
389.0355, 468.8210
389.5176, 469.5800
389.9997, 470.6717
390.4818, 471.1318
390.9640, 470.9256
391.4461, 470.5491
391.9282, 470.3772
392.4103, 470.2954
392.8924, 469.7541
393.3745, 468.2095
393.8567, 466.8350
394.3388, 466.4278
394.8209, 466.4746
395.3030, 465.8513
395.7851, 464.0612
396.2672, 461.8632
396.7494, 460.6395
397.2315, 461.0140
397.7136, 460.8842
398.1957, 459.5123
398.6778, 458.0320
399.1599, 457.5553
399.6420, 458.0720
400.1241, 458.6449
400.6063, 458.4368
401.0884, 457.4232
401.5705, 456.4457
402.0526, 455.1480
402.5347, 454.2727
403.0168, 454.4999
403.4990, 455.2136
403.9811, 455.3353
404.4632, 454.3397
404.9453, 452.7597
405.4274, 451.8698
405.9095, 451.8614
406.3917, 452.3173
406.8738, 453.4630
407.3559, 454.8358
407.8380, 456.4326
408.3201, 458.0524
408.8022, 459.0475
409.2844, 458.5981
409.7665, 456.5801
410.2486, 455.0702
410.7307, 453.9781
411.2128, 453.5655
411.6949, 454.5649
412.1771, 456.1512
412.6592, 457.0072
413.1413, 456.4263
413.6234, 454.9601
414.1055, 453.7322
414.5876, 452.7500
415.0698, 451.9732
415.5519, 451.7082
416.0340, 451.4395
416.5161, 450.6522
416.9982, 449.3346
417.4803, 448.2054
417.9625, 448.1612
418.4446, 448.9764
418.9267, 448.9898
419.4088, 447.7003
419.8909, 446.3049
420.3730, 445.6182
420.8552, 445.3894
421.3373, 445.1457
421.8194, 444.7525
422.3015, 444.2514
422.7836, 443.6489
423.2657, 442.9474
423.7479, 442.2899
424.2300, 441.7110
424.7121, 441.2339
425.1942, 441.0008
425.6763, 441.1584
426.1584, 440.8418
426.6406, 438.9341
427.1227, 436.5228
427.6048, 435.6839
428.0869, 436.8411
428.5690, 438.4442
429.0511, 439.2124
429.5333, 439.0835
430.0154, 438.5748
430.4975, 436.8436
430.9796, 435.5267
431.4617, 435.9596
431.9438, 437.5635
432.4260, 438.8624
432.9081, 439.1727
433.3902, 438.7081
433.8723, 437.9218
434.3544, 436.2560
434.8365, 435.2101
435.3187, 434.8750
435.8008, 435.1449
436.2829, 436.4994
436.7650, 438.6430
437.2471, 440.0415
437.7292, 439.0003
438.2114, 435.4032
438.6935, 433.8907
439.1756, 436.7604
439.6577, 439.1927
440.1398, 439.8614
440.6219, 439.5264
441.1040, 439.3051
441.5862, 439.6690
442.0683, 440.1875
442.5504, 439.9079
443.0325, 438.2878
443.5146, 437.5514
443.9967, 438.7144
444.4789, 440.1222
444.9610, 441.0893
445.4431, 441.5481
445.9252, 441.6454
446.4073, 441.5492
446.8894, 441.1578
447.3716, 439.8630
447.8537, 437.0868
448.3358, 434.8536
448.8179, 434.4017
449.3000, 434.7993
449.7821, 435.2231
450.2643, 435.5820
450.7464, 435.5821
451.2285, 434.6000
451.7106, 432.9105
452.1927, 432.0779
452.6748, 432.7710
453.1570, 433.6458
453.6391, 433.0016
454.1212, 431.2146
454.6033, 430.0624
455.0854, 430.5405
455.5675, 431.3961
456.0497, 431.4534
456.5318, 430.8073
457.0139, 430.2312
457.4960, 430.1667
457.9781, 430.3652
458.4602, 430.1282
458.9424, 429.3146
459.4245, 428.4557
459.9066, 427.0138
460.3887, 425.9269
460.8708, 426.6465
461.3529, 429.1388
461.8351, 431.5596
462.3172, 432.1299
462.7993, 430.7789
463.2814, 429.6380
463.7635, 428.7867
464.2456, 428.0358
464.7278, 427.6100
465.2099, 427.1573
465.6920, 426.0787
466.1741, 424.1588
466.6562, 421.9801
467.1383, 420.5930
467.6205, 420.3341
468.1026, 419.7811
468.5847, 418.3955
469.0668, 417.1520
469.5489, 416.7724
470.0310, 416.9344
470.5132, 416.7248
470.9953, 415.5094
471.4774, 413.6229
471.9595, 411.9028
472.4416, 410.3945
472.9237, 408.8878
473.4059, 406.8432
473.8880, 405.0838
474.3701, 404.6155
474.8522, 405.5981
475.3343, 406.5483
475.8164, 406.4688
476.2986, 405.6490
476.7807, 404.6552
477.2628, 403.4574
477.7449, 402.6210
478.2270, 402.8913
478.7091, 403.9116
479.1913, 404.1652
479.6734, 402.9774
480.1555, 401.6740
480.6376, 400.9165
481.1197, 400.5387
481.6018, 400.1271
482.0839, 399.5302
482.5660, 399.1059
483.0482, 399.4948
483.5303, 401.2280
484.0124, 401.6981
484.4945, 399.8441
484.9766, 397.8061
485.4587, 396.7151
485.9409, 396.3783
486.4230, 396.0909
486.9051, 395.4493
487.3872, 394.6292
487.8693, 394.1364
488.3514, 394.0182
488.8336, 394.1619
489.3157, 395.0120
489.7978, 395.7260
490.2799, 395.6014
490.7620, 394.7285
491.2441, 393.7950
491.7263, 393.3961
492.2084, 393.3936
492.6905, 393.0331
493.1726, 392.0348
493.6547, 391.3610
494.1368, 391.6518
494.6190, 392.3539
495.1011, 393.0528
495.5832, 393.7270
496.0653, 393.9962
496.5474, 393.3112
497.0295, 391.9794
497.5117, 390.9678
497.9938, 390.4706
498.4759, 390.0407
498.9580, 389.0937
499.4401, 387.8494
499.9222, 387.4344
500.4044, 388.7418
500.8865, 390.0364
501.3686, 390.1182
501.8507, 389.5810
502.3328, 389.8056
502.8149, 391.2879
503.2971, 393.1274
503.7792, 394.1163
504.2613, 394.2378
504.7434, 393.4026
505.2255, 390.1225
505.7076, 387.4598
506.1898, 387.3816
506.6719, 388.9903
507.1540, 390.3159
507.6361, 390.3176
508.1182, 389.5585
508.6003, 389.3524
509.0825, 389.9329
509.5646, 390.4408
510.0467, 391.2969
510.5288, 391.6277
511.0109, 390.5622
511.4930, 388.4427
511.9752, 386.5469
512.4573, 385.8074
512.9394, 385.7350
513.4215, 385.2086
513.9036, 384.1727
514.3857, 382.9789
514.8679, 381.3931
515.3500, 379.9996
515.8321, 379.6600
516.3142, 380.5204
516.7963, 381.2330
517.2784, 381.2419
517.7606, 380.7528
518.2427, 379.9846
518.7248, 378.9712
519.2069, 377.7602
519.6890, 376.2026
520.1711, 374.5338
520.6533, 374.0274
521.1354, 375.8091
521.6175, 377.0583
522.0996, 377.1325
522.5817, 376.5632
523.0638, 375.7206
523.5460, 374.7542
524.0281, 373.8262
524.5102, 373.0624
524.9923, 372.4701
525.4744, 372.3026
525.9565, 372.6955
526.4387, 373.3813
526.9208, 374.6464
527.4029, 375.9861
527.8850, 376.9574
528.3671, 377.4320
528.8492, 377.3830
529.3314, 376.7224
529.8135, 375.4819
530.2956, 373.7875
530.7777, 371.2188
531.2598, 369.0997
531.7419, 368.5354
532.2241, 368.9097
532.7062, 369.3222
533.1883, 369.6568
533.6704, 369.9171
534.1525, 369.9680
534.6346, 369.9591
535.1168, 370.3107
535.5989, 371.1429
536.0810, 372.0672
536.5631, 372.7023
537.0452, 373.0333
537.5273, 373.3068
538.0095, 374.0056
538.4916, 374.1189
538.9737, 372.8154
539.4558, 370.8438
539.9379, 369.3638
540.4200, 368.7360
540.9022, 368.3620
541.3843, 367.3404
541.8664, 365.4533
542.3485, 364.1577
542.8306, 363.7597
543.3127, 363.6761
543.7948, 364.3179
544.2769, 364.9865
544.7590, 364.3705
545.2411, 361.8085
545.7233, 359.1483
546.2054, 359.1730
546.6875, 361.6452
547.1696, 362.8974
547.6517, 361.8345
548.1339, 360.4857
548.6160, 360.8110
549.0981, 362.2406
549.5802, 363.1974
550.0623, 362.8240
550.5444, 362.4984
551.0266, 363.5042
551.5087, 365.1956
551.9908, 365.9700
552.4729, 365.3182
552.9550, 364.1672
553.4371, 363.6308
553.9193, 363.7862
554.4014, 364.1397
554.8835, 364.8935
555.3656, 365.5959
555.8477, 366.1937
556.3298, 366.6057
556.8120, 366.6124
557.2941, 366.1590
557.7762, 365.6625
558.2583, 365.8595
558.7404, 366.9015
559.2225, 367.3255
559.7047, 366.6134
560.1868, 365.8907
560.6689, 365.7425
561.1510, 365.9212
561.6331, 366.0050
562.1152, 365.8518
562.5974, 365.6163
563.0795, 365.4775
563.5616, 365.3797
564.0437, 365.0877
564.5258, 364.5181
565.0079, 363.9121
565.4901, 363.4727
565.9722, 363.2057
566.4543, 363.0063
566.9364, 362.1866
567.4185, 362.2152
567.9006, 364.8292
568.3828, 368.1851
568.8649, 369.4900
569.3470, 368.1163
569.8291, 365.7524
570.3112, 364.3193
570.7933, 363.8703
571.2755, 363.3222
571.7576, 363.0137
572.2397, 362.1362
572.7218, 359.6435
573.2039, 356.9212
573.6860, 355.7009
574.1682, 356.3755
574.6503, 357.4920
575.1324, 357.7927
575.6145, 357.3874
576.0966, 356.6874
576.5787, 355.6273
577.0609, 354.6187
577.5430, 353.8539
578.0251, 353.3531
578.5072, 353.1196
578.9893, 353.1856
579.4714, 353.4468
579.9536, 354.3582
580.4357, 355.1866
580.9178, 354.7920
581.3999, 353.1909
581.8820, 351.5424
582.3641, 350.7471
582.8463, 350.6412
583.3284, 350.2466
583.8105, 349.1407
584.2926, 348.3644
584.7747, 348.1099
585.2568, 348.1069
585.7390, 348.1334
586.2211, 348.1967
586.7032, 348.4957
587.1853, 349.3555
587.6674, 350.4205
588.1495, 350.6908
588.6317, 350.0938
589.1138, 349.0935
589.5959, 347.4399
590.0780, 345.8231
590.5601, 345.1786
591.0422, 345.4845
591.5244, 345.6066
592.0065, 345.1528
592.4886, 344.4048
592.9707, 343.3588
593.4528, 342.2076
593.9349, 341.5744
594.4171, 341.7607
594.8992, 342.4113
595.3813, 342.9454
595.8634, 343.4427
596.3455, 343.5591
596.8276, 342.8416
597.3098, 342.2710
597.7919, 342.5978
598.2740, 343.2652
598.7561, 343.1830
599.2382, 341.8741
599.7203, 340.3110
600.2025, 339.7543
600.6846, 340.1864
601.1667, 341.1217
601.6488, 342.8873
602.1309, 344.3996
602.6130, 344.7983
603.0952, 344.4243
603.5773, 343.8497
604.0594, 342.9853
604.5415, 342.2392
605.0236, 341.7817
605.5057, 341.5873
605.9879, 341.9059
606.4700, 342.6637
606.9521, 342.8007
607.4342, 341.2409
607.9163, 338.3523
608.3984, 336.9426
608.8806, 338.2383
609.3627, 339.3972
609.8448, 340.2629
610.3269, 340.8430
610.8090, 341.1934
611.2911, 341.2825
611.7733, 340.9637
612.2554, 340.0313
612.7375, 338.7157
613.2196, 337.4933
613.7017, 336.3498
614.1838, 335.4139
614.6660, 334.8252
615.1481, 334.3361
615.6302, 333.5080
616.1123, 332.3776
616.5944, 331.7492
617.0765, 332.1183
617.5587, 332.7267
618.0408, 333.2217
618.5229, 333.5443
619.0050, 333.4236
619.4871, 332.7863
619.9692, 332.3850
620.4514, 333.4598
620.9335, 336.4294
621.4156, 337.6745
621.8977, 335.1705
622.3798, 333.3020
622.8619, 333.9119
623.3441, 335.3804
623.8262, 335.7484
624.3083, 334.5685
624.7904, 333.0613
625.2725, 331.9373
625.7546, 331.3145
626.2367, 331.7928
626.7188, 333.5145
627.2009, 335.0534
627.6830, 335.7347
628.1652, 335.7245
628.6473, 335.2025
629.1294, 333.7679
629.6115, 333.1641
630.0936, 334.1796
630.5757, 335.6485
631.0579, 336.8790
631.5400, 337.8332
632.0221, 338.7116
632.5042, 339.6199
632.9863, 340.3338
633.4684, 340.2367
633.9506, 339.0003
634.4327, 338.6077
634.9148, 339.6574
635.3969, 340.9512
635.8790, 342.0705
636.3611, 342.9636
636.8433, 343.5401
637.3254, 343.7582
637.8075, 343.7085
638.2896, 343.3811
638.7717, 342.8522
639.2538, 342.2437
639.7360, 341.5774
640.2181, 340.8889
640.7002, 340.2372
641.1823, 339.5568
641.6644, 338.5665
642.1465, 336.9545
642.6287, 335.4585
643.1108, 333.9332
643.5929, 332.6627
644.0750, 332.1733
644.5571, 332.1110
645.0392, 331.4832
645.5214, 329.6686
646.0035, 327.2742
646.4856, 325.3066
646.9677, 323.7643
647.4498, 322.1219
647.9319, 320.0368
648.4141, 318.3725
648.8962, 318.1613
649.3783, 319.0099
649.8604, 319.4532
650.3425, 319.3704
650.8246, 318.8731
651.3068, 317.4498
651.7889, 315.9217
652.2710, 315.5347
652.7531, 316.2822
653.2352, 317.0040
653.7173, 316.7800
654.1995, 315.8285
654.6816, 315.0285
655.1637, 314.3550
655.6458, 313.9001
656.1279, 314.1373
656.6100, 314.2094
657.0922, 313.3371
657.5743, 311.8314
658.0564, 310.8037
658.5385, 310.8498
659.0206, 311.2966
659.5027, 311.9316
659.9849, 312.4470
660.4670, 311.6015
660.9491, 309.0605
661.4312, 306.7122
661.9133, 306.3872
662.3954, 307.9116
662.8776, 308.7963
663.3597, 308.1804
663.8418, 308.0541
664.3239, 309.2596
664.8060, 310.5399
665.2881, 310.8665
665.7703, 310.2554
666.2524, 309.2939
666.7345, 308.2203
667.2166, 307.2057
667.6987, 306.5172
668.1808, 306.1557
668.6630, 306.2353
669.1451, 306.9868
669.6272, 307.7029
670.1093, 307.6920
670.5914, 306.9758
671.0735, 306.1375
671.5557, 304.8161
672.0378, 303.8224
672.5199, 303.6058
673.0020, 303.7464
673.4841, 303.8406
673.9662, 303.8036
674.4484, 303.7113
674.9305, 303.6461
675.4126, 303.5308
675.8947, 303.0281
676.3768, 301.9974
676.8589, 301.2259
677.3411, 301.0804
677.8232, 301.0041
678.3053, 300.0302
678.7874, 298.6555
679.2695, 298.8355
679.7516, 303.1116
680.2338, 306.3973
680.7159, 304.4464
681.1980, 300.0493
681.6801, 297.5301
682.1622, 297.6191
682.6443, 298.7564
683.1265, 299.8160
683.6086, 300.6856
684.0907, 300.7541
684.5728, 299.5008
685.0549, 298.5799
685.5370, 298.4190
686.0192, 298.4673
686.5013, 298.4523
686.9834, 298.3883
687.4655, 298.4102
687.9476, 298.7310
688.4297, 298.8534
688.9119, 297.8941
689.3940, 296.4731
689.8761, 296.2892
690.3582, 297.6060
690.8403, 298.8502
691.3224, 298.7484
691.8046, 297.6309
692.2867, 297.0736
692.7688, 297.7110
693.2509, 297.8953
693.7330, 297.1932
694.2151, 296.3958
694.6973, 295.8855
695.1794, 295.6736
695.6615, 295.7312
696.1436, 296.1300
696.6257, 296.4982
697.1078, 296.3471
697.5900, 295.8184
698.0721, 295.3804
698.5542, 295.0962
699.0363, 294.9979
699.5184, 295.2491
700.0005, 295.6004
700.4827, 295.1498
700.9648, 292.8816
701.4469, 291.4777
701.9290, 291.5818
702.4111, 291.9829
702.8932, 291.7139
703.3754, 291.2279
703.8575, 291.7605
704.3396, 293.8917
704.8217, 296.1354
705.3038, 296.4875
705.7859, 295.3350
706.2681, 294.5779
706.7502, 294.4336
707.2323, 294.1666
707.7144, 293.1748
708.1965, 291.9603
708.6786, 291.8112
709.1607, 293.3286
709.6428, 294.0885
710.1249, 293.3191
710.6071, 292.3648
711.0892, 291.9697
711.5713, 291.9279
712.0534, 291.7496
712.5355, 291.2823
713.0176, 290.9073
713.4998, 291.2050
713.9819, 292.0062
714.4640, 292.4118
714.9461, 292.3997
715.4282, 292.0280
715.9103, 291.1283
716.3925, 290.0945
716.8746, 289.5242
717.3567, 289.4354
717.8388, 289.5572
718.3209, 290.0503
718.8030, 290.5507
719.2852, 290.8138
719.7673, 291.0106
720.2494, 291.5303
720.7315, 292.3725
721.2136, 292.9424
721.6957, 292.6285
722.1779, 291.6384
722.6600, 290.5952
723.1421, 289.4325
723.6242, 288.8352
724.1063, 289.3957
724.5884, 289.9592
725.0706, 288.9081
725.5527, 286.4319
726.0348, 285.2194
726.5169, 286.4726
726.9990, 287.6989
727.4811, 288.1680
727.9633, 288.1300
728.4454, 287.8116
728.9275, 287.2662
729.4096, 286.4234
729.8917, 285.1443
730.3738, 283.7788
730.8560, 283.1220
731.3381, 283.1948
731.8202, 283.3285
732.3023, 283.4340
732.7844, 283.5448
733.2665, 283.6662
733.7487, 283.8155
734.2308, 284.0713
734.7129, 284.6821
735.1950, 284.9299
735.6771, 284.6990
736.1592, 284.0282
736.6414, 282.4223
737.1235, 280.4515
737.6056, 279.4902
738.0877, 280.1704
738.5698, 281.4918
739.0519, 282.1736
739.5341, 282.2565
740.0162, 282.0374
740.4983, 281.4464
740.9804, 280.9841
741.4625, 281.0894
741.9446, 281.2977
742.4268, 280.6417
742.9089, 278.9171
743.3910, 277.4728
743.8731, 276.9269
744.3552, 276.1308
744.8373, 273.4507
745.3195, 270.6579
745.8016, 270.8563
746.2837, 274.3763
746.7658, 277.7870
747.2479, 277.5658
747.7300, 275.2169
748.2122, 275.0508
748.6943, 277.1063
749.1764, 278.9709
749.6585, 280.1524
750.1406, 280.4003
750.6227, 279.0167
751.1049, 276.0985
751.5870, 274.7644
752.0691, 276.6320
752.5512, 277.7668
753.0333, 276.9322
753.5154, 275.5184
753.9976, 274.3559
754.4797, 273.6860
754.9618, 273.8371
755.4439, 275.2078
755.9260, 276.6383
756.4081, 276.2591
756.8903, 274.5766
757.3724, 273.8708
757.8545, 274.4805
758.3366, 274.8441
758.8187, 273.8144
759.3008, 272.1494
759.7830, 271.8049
760.2651, 273.7089
760.7472, 274.7444
761.2293, 274.2392
761.7114, 273.6792
762.1935, 273.8316
762.6757, 274.2160
763.1578, 274.0160
763.6399, 273.0811
764.1220, 272.3369
764.6041, 272.8429
765.0862, 273.7131
765.5684, 273.3708
766.0505, 272.0822
766.5326, 271.2665
767.0147, 271.3840
767.4968, 271.9417
767.9789, 272.4457
768.4611, 272.8912
768.9432, 273.1255
769.4253, 273.2797
769.9074, 272.9811
770.3895, 271.6674
770.8716, 270.3422
771.3538, 269.5646
771.8359, 269.3466
772.3180, 269.6323
772.8001, 270.6425
773.2822, 271.6604
773.7643, 272.2453
774.2465, 272.5092
774.7286, 272.7003
775.2107, 272.7698
775.6928, 272.1661
776.1749, 270.4996
776.6570, 268.7331
777.1392, 269.1642
777.6213, 272.3840
778.1034, 273.3192
778.5855, 270.5638
779.0676, 268.1852
779.5497, 268.3177
780.0319, 269.5928
780.5140, 270.4576
780.9961, 270.8992
781.4782, 270.5859
781.9603, 268.5771
782.4424, 266.7090
782.9246, 266.0373
783.4067, 266.1794
783.8888, 266.8356
784.3709, 267.7436
784.8530, 268.1272
785.3351, 267.1966
785.8173, 265.5846
786.2994, 264.9762
786.7815, 265.3754
787.2636, 265.4315
787.7457, 264.7398
788.2278, 264.2348
788.7100, 264.8138
789.1921, 266.1046
789.6742, 266.6044
790.1563, 265.8593
790.6384, 265.2058
791.1205, 264.3940
791.6026, 264.0170
792.0847, 264.8693
792.5668, 266.2248
793.0490, 266.8472
793.5311, 266.3802
794.0132, 265.6167
794.4953, 265.0852
794.9774, 264.7442
795.4595, 264.6069
795.9417, 264.6215
796.4238, 264.3482
796.9059, 263.5947
797.3880, 263.3154
797.8701, 264.8290
798.3522, 267.9176
798.8344, 268.8332
799.3165, 266.1024
799.7986, 264.0316
800.2807, 263.9629
800.7628, 264.1462
801.2449, 263.3215
801.7271, 261.9410
802.2092, 261.3768
802.6913, 262.2823
803.1734, 263.1887
803.6555, 263.3284
804.1376, 263.1027
804.6198, 262.8226
805.1019, 262.5794
805.5840, 262.5500
806.0661, 262.8051
806.5482, 263.0095
807.0303, 262.5478
807.5125, 261.5494
807.9946, 261.2999
808.4767, 261.9057
808.9588, 262.6749
809.4409, 263.3898
809.9230, 264.1699
810.4052, 265.3691
810.8873, 266.9685
811.3694, 267.4726
811.8515, 266.1179
812.3336, 264.7227
812.8157, 263.2034
813.2979, 262.1387
813.7800, 262.3771
814.2621, 263.4556
814.7442, 264.0796
815.2263, 263.6598
815.7084, 262.8940
816.1906, 262.1453
816.6727, 261.6492
817.1548, 262.2521
817.6369, 263.7798
818.1190, 264.6243
818.6011, 264.0369
819.0833, 262.7799
819.5654, 261.8450
820.0475, 261.2176
820.5296, 261.4051
821.0117, 262.9297
821.4938, 264.2110
821.9760, 265.0868
822.4581, 265.3313
822.9402, 264.5438
823.4223, 262.9215
823.9044, 261.3504
824.3865, 259.6041
824.8687, 258.5356
825.3508, 258.8780
825.8329, 259.7389
826.3150, 260.6271
826.7971, 261.2271
827.2792, 260.7623
827.7614, 258.8672
828.2435, 257.0776
828.7256, 257.8713
829.2077, 260.3499
829.6898, 260.8132
830.1719, 259.1705
830.6541, 257.7048
831.1362, 257.2461
831.6183, 257.3542
832.1004, 257.6408
832.5825, 258.0940
833.0646, 257.7891
833.5468, 255.4821
834.0289, 254.3799
834.5110, 256.2139
834.9931, 258.0318
835.4752, 257.5961
835.9573, 255.7063
836.4395, 254.5644
836.9216, 254.8279
837.4037, 255.5405
837.8858, 256.5096
838.3679, 257.4415
838.8500, 258.2367
839.3322, 258.7072
839.8143, 258.2277
840.2964, 256.6736
840.7785, 255.1713
841.2606, 255.2011
841.7427, 256.2075
842.2249, 255.7623
842.7070, 253.7851
843.1891, 252.2978
843.6712, 251.7770
844.1533, 251.9572
844.6354, 252.8484
845.1176, 254.2127
845.5997, 254.8637
846.0818, 253.8763
846.5639, 253.6439
847.0460, 255.2125
847.5281, 256.3828
848.0103, 255.6310
848.4924, 254.0388
848.9745, 253.3613
849.4566, 253.9421
849.9387, 254.3960
850.4208, 253.6630
850.9030, 252.8034
851.3851, 253.0843
851.8672, 253.8604
852.3493, 253.7056
852.8314, 252.4789
853.3135, 251.3299
853.7957, 251.1836
854.2778, 251.5308
854.7599, 251.1288
855.2420, 249.9988
855.7241, 249.2178
856.2062, 248.8771
856.6884, 249.0961
857.1705, 250.3045
857.6526, 251.6135
858.1347, 251.1609
858.6168, 248.2087
859.0989, 246.8454
859.5811, 248.6154
860.0632, 249.9297
860.5453, 249.6230
861.0274, 248.7897
861.5095, 248.3077
861.9916, 248.2223
862.4738, 248.3149
862.9559, 248.6870
863.4380, 248.8754
863.9201, 248.2822
864.4022, 247.5401
864.8843, 247.4207
865.3665, 247.8796
865.8486, 248.7541
866.3307, 249.9398
866.8128, 250.6104
867.2949, 249.3218
867.7770, 246.6605
868.2592, 245.2522
868.7413, 245.1155
869.2234, 245.2946
869.7055, 245.5906
870.1876, 245.8702
870.6697, 246.0494
871.1519, 246.0923
871.6340, 245.7596
872.1161, 244.5909
872.5981, 243.9279
873.0803, 244.1026
873.5624, 244.5028
874.0445, 244.9482
874.5266, 245.4317
875.0087, 245.9978
875.4908, 246.6579
875.9730, 247.1937
876.4551, 248.0882
876.9372, 248.2249
877.4193, 246.0012
877.9014, 243.1043
878.3835, 242.0031
878.8657, 242.6833
879.3478, 243.2329
879.8299, 242.4369
880.3120, 242.9828
880.7941, 241.5810
881.2762, 242.6853
881.7584, 242.8656
882.2405, 242.0772
882.7226, 241.6277
883.2047, 242.1257
883.6868, 242.9803
884.1689, 243.3828
884.6511, 243.3508
885.1332, 243.4954
885.6153, 244.0773
886.0974, 244.0577
886.5795, 242.7005
887.0616, 241.3729
887.5438, 241.2975
888.0259, 242.0542
888.5080, 242.3154
888.9901, 241.6110
889.4722, 241.4639
889.9543, 242.8309
890.4365, 243.9987
890.9186, 243.9629
891.4007, 243.2294
891.8828, 242.3877
892.3649, 241.6046
892.8470, 241.0786
893.3292, 241.1850
893.8113, 241.2636
894.2934, 240.4133
894.7755, 239.2121
895.2576, 238.7664
895.7397, 239.0685
896.2219, 239.3468
896.7040, 239.1969
897.1861, 238.8781
897.6682, 238.7336
898.1503, 238.7593
898.6324, 238.9839
899.1146, 239.4328
899.5967, 239.7399
900.0788, 239.8609
900.5609, 239.5054
901.0430, 238.1606
901.5251, 236.1310
902.0073, 235.3942
902.4894, 236.8786
902.9715, 237.7393
903.4536, 237.3816
903.9357, 236.9076
904.4178, 236.8782
904.9000, 236.9860
905.3821, 236.7377
905.8642, 236.0695
906.3463, 235.6226
906.8284, 235.7145
907.3105, 235.8635
907.7927, 235.9337
908.2748, 235.8902
908.7569, 235.4852
909.2390, 234.9384
909.7211, 235.0047
910.2032, 236.1403
910.6854, 237.2202
911.1675, 237.0322
911.6496, 236.2205
912.1317, 235.8085
912.6138, 235.7395
913.0959, 235.5522
913.5781, 235.1251
914.0602, 234.8208
914.5423, 235.0236
915.0244, 235.5290
915.5065, 235.7248
915.9886, 235.6097
916.4708, 235.3665
916.9529, 234.9718
917.4350, 234.6595
917.9171, 234.4632
918.3992, 234.6302
918.8813, 235.8278
919.3635, 238.4468
919.8456, 239.0634
920.3277, 235.9020
920.8098, 233.6614
921.2919, 234.0377
921.7740, 235.0287
922.2562, 235.2501
922.7383, 234.9685
923.2204, 235.1177
923.7025, 236.1904
924.1846, 236.6928
924.6667, 235.6134
925.1489, 234.5349
925.6310, 234.5314
926.1131, 235.0578
926.5952, 235.4286
927.0773, 235.4755
927.5594, 235.1699
928.0416, 234.3433
928.5237, 233.4113
929.0058, 232.5401
929.4879, 231.9162
929.9700, 231.8477
930.4521, 232.3118
930.9343, 233.2658
931.4164, 234.6624
931.8985, 235.8971
932.3806, 236.1864
932.8627, 235.7750
933.3448, 235.4183
933.8270, 235.1102
934.3091, 234.6657
934.7912, 234.0237
935.2733, 233.7430
935.7554, 234.2911
936.2375, 235.2922
936.7197, 235.7968
937.2018, 235.6689
937.6839, 235.8564
938.1660, 236.4942
938.6481, 237.1142
939.1302, 237.6038
939.6124, 237.9706
940.0945, 238.2468
940.5766, 238.4183
941.0587, 238.3565
941.5408, 237.4426
942.0229, 237.2431
942.5051, 238.5961
942.9872, 239.8328
943.4693, 239.9313
943.9514, 239.5299
944.4335, 239.5374
944.9156, 240.0571
945.3978, 240.5666
945.8799, 240.6819
946.3620, 240.9994
946.8441, 242.0590
947.3262, 243.2893
947.8083, 244.1307
948.2905, 244.6144
948.7726, 244.9887
949.2547, 245.3443
949.7368, 245.6902
950.2189, 245.8255
950.7010, 246.1115
951.1832, 247.3082
951.6653, 248.9964
952.1474, 250.1134
952.6295, 250.5210
953.1116, 250.8303
953.5938, 251.4422
954.0759, 252.1175
954.5580, 252.4823
955.0400, 252.5594
955.5222, 252.3852
956.0043, 251.9716
956.4864, 251.6916
956.9685, 251.6526
957.4506, 251.9312
957.9327, 252.6642
958.4149, 253.6998
958.8970, 254.3081
959.3791, 254.3441
959.8612, 254.7517
960.3433, 255.7913
960.8254, 256.6805
961.3076, 257.0386
961.7897, 257.0790
962.2718, 257.0450
962.7539, 256.9333
963.2360, 256.9123
963.7181, 257.2141
964.2003, 257.2431
964.6824, 256.1638
965.1645, 255.6275
965.6466, 257.0093
966.1287, 259.3183
966.6108, 260.7817
967.0930, 261.1451
967.5751, 261.7533
968.0572, 263.3419
968.5393, 264.6549
969.0214, 264.9369
969.5035, 264.9342
969.9857, 264.9623
970.4678, 265.3567
970.9499, 266.7978
971.4320, 269.5791
971.9141, 272.7599
972.3962, 276.2090
972.8784, 279.4189
973.3605, 282.1064
973.8426, 284.1489
974.3247, 284.7938
974.8068, 284.4948
975.2889, 285.3588
975.7711, 288.6739
976.2532, 292.8002
976.7353, 295.9413
977.2174, 298.6138
977.6995, 301.9814
978.1816, 305.7953
978.6638, 308.6618
979.1459, 310.3661
979.6280, 312.6164
980.1101, 316.9369
980.5922, 322.1770
981.0743, 325.7971
981.5565, 328.0653
982.0386, 330.7681
982.5207, 334.0000
983.0028, 336.7016
983.4849, 338.4230
983.9670, 339.8491
984.4492, 341.8625
984.9313, 342.3793
985.4134, 342.6618
985.8955, 343.0603
986.3776, 341.8204
986.8597, 341.2401
987.3419, 340.2545
987.8240, 338.1204
988.3061, 335.7556
988.7882, 334.5963
989.2703, 334.6348
989.7524, 333.7124
990.2346, 331.3129
990.7167, 329.0797
991.1988, 327.1255
991.6809, 325.5080
992.1630, 324.8813
992.6451, 324.2978
993.1273, 321.8619
993.6094, 317.2752
994.0915, 313.0892
994.5736, 308.3594
995.0557, 305.3727
995.5378, 306.3548
996.0200, 307.4802
996.5021, 306.2963
996.9842, 303.3702
997.4663, 299.6917
997.9484, 295.1343
998.4305, 291.8454
998.9127, 291.1720
999.3948, 290.8741
999.8769, 290.0027
1000.359, 289.0863
1000.841, 289.2137
1001.323, 289.6688
1001.805, 288.3388
1002.287, 284.3779
1002.770, 280.5262
1003.252, 277.7668
1003.734, 276.0760
1004.216, 276.2634
1004.698, 276.9808
1005.180, 276.4717
1005.662, 274.7379
1006.144, 272.6083
1006.627, 270.3144
1007.109, 268.5855
1007.591, 268.6258
1008.073, 269.0616
1008.555, 268.1866
1009.037, 266.4958
1009.519, 264.9588
1010.001, 263.7949
1010.483, 262.8438
1010.966, 262.0032
1011.448, 261.4640
1011.930, 261.9679
1012.412, 262.6809
1012.894, 261.6140
1013.376, 259.2898
1013.858, 257.6983
1014.340, 257.2144
1014.823, 256.6601
1015.305, 255.1441
1015.787, 253.4783
1016.269, 253.4548
1016.751, 251.9585
1017.233, 253.3349
1017.715, 250.5026
1018.197, 248.6990
1018.679, 248.7057
1019.162, 249.3659
1019.644, 249.8018
1020.126, 250.0303
1020.608, 250.2725
1021.090, 250.4542
1021.572, 249.1646
1022.054, 246.2836
1022.536, 244.5585
1023.018, 244.9821
1023.501, 245.7447
1023.983, 245.1780
1024.465, 243.7944
1024.947, 243.2402
1025.429, 243.5940
1025.911, 244.0137
1026.393, 244.6647
1026.875, 244.1199
1027.358, 241.4761
1027.840, 238.8098
1028.322, 238.2232
1028.804, 239.2104
1029.286, 239.6524
1029.768, 239.2463
1030.250, 239.7103
1030.732, 241.6812
1031.214, 242.8896
1031.697, 242.5559
1032.179, 241.0358
1032.661, 238.1458
1033.143, 234.4758
1033.625, 233.1491
1034.107, 235.4832
1034.589, 236.7953
1035.071, 236.2645
1035.553, 236.2006
1036.036, 238.1281
1036.518, 240.0299
1037.000, 239.5927
1037.482, 237.2776
1037.964, 235.7740
1038.446, 235.4935
1038.928, 235.2416
1039.410, 235.2825
1039.893, 234.9874
1040.375, 233.2149
1040.857, 231.7521
1041.339, 232.9283
1041.821, 236.1186
1042.303, 237.9051
1042.785, 237.8634
1043.267, 237.1423
1043.750, 234.8004
1044.232, 233.0143
1044.714, 232.8551
1045.196, 233.3644
1045.678, 233.8559
1046.160, 234.2152
1046.642, 234.0864
1047.124, 233.0782
1047.606, 232.3921
1048.089, 232.4162
1048.571, 232.5046
1049.053, 232.6490
1049.535, 232.5410
1050.017, 231.4435
1050.499, 229.7962
1050.981, 229.4572
1051.463, 231.5642
1051.945, 232.6992
1052.428, 231.1327
1052.910, 229.6760
1053.392, 229.9102
1053.874, 230.6209
1054.356, 230.3404
1054.838, 229.4073
1055.320, 229.3680
1055.802, 230.8269
1056.285, 232.1584
1056.767, 233.2689
1057.249, 233.7028
1057.731, 232.6364
1058.213, 231.2516
1058.695, 230.6897
1059.177, 230.8522
1059.659, 231.1329
1060.141, 231.4157
1060.624, 231.6993
1061.106, 232.1512
1061.588, 232.4016
1062.070, 232.0012
1062.552, 231.5183
1063.034, 231.5339
1063.516, 231.9578
1063.998, 232.5381
1064.480, 233.3153
1064.963, 233.4379
1065.445, 231.8826
1065.927, 230.4263
1066.409, 230.0390
1066.891, 230.1581
1067.373, 230.5441
1067.855, 230.8815
1068.337, 230.4664
1068.820, 229.0747
1069.302, 228.0983
1069.784, 228.3200
1070.266, 228.8684
1070.748, 229.5502
1071.230, 230.1202
1071.712, 230.5186
1072.194, 230.5888
1072.677, 229.7828
1073.159, 228.0257
1073.641, 227.0309
1074.123, 228.5254
1074.605, 229.7109
1075.087, 228.7101
1075.569, 227.2009
1076.051, 226.6401
1076.533, 226.6848
1077.016, 226.4289
1077.498, 225.7387
1077.980, 225.3041
1078.462, 225.5776
1078.944, 225.9327
1079.426, 225.8362
1079.908, 225.9248
1080.390, 227.3825
1080.872, 229.0464
1081.354, 228.7784
1081.837, 226.5471
1082.319, 224.6737
1082.801, 223.8935
1083.283, 223.8912
1083.765, 225.3521
1084.247, 226.6777
1084.729, 226.3613
1085.211, 225.3841
1085.694, 225.2183
1086.176, 225.8507
1086.658, 226.1672
1087.140, 225.6797
1087.622, 225.1856
1088.104, 224.5566
1088.586, 224.5419
1089.068, 226.6393
1089.551, 228.8831
1090.033, 228.4905
1090.515, 226.1135
1090.997, 224.7859
1091.479, 225.4977
1091.961, 226.4298
1092.443, 227.4713
1092.925, 227.8635
1093.407, 226.6362
1093.890, 225.0387
1094.372, 223.9606
1094.854, 223.6069
1095.336, 224.4204
1095.818, 226.6826
1096.300, 228.1764
1096.782, 227.3088
1097.264, 226.7249
1097.746, 228.0195
1098.229, 229.4811
1098.711, 229.6325
1099.193, 228.9864
1099.675, 228.6837
1100.157, 228.8841
1100.639, 228.8026
1101.121, 228.2657
1101.603, 227.3912
1102.086, 225.5001
1102.568, 224.0344
1103.050, 224.4430
1103.532, 225.5102
1104.014, 225.3107
1104.496, 223.8794
1104.978, 223.1689
1105.460, 223.8615
1105.943, 224.6905
1106.425, 225.9606
1106.907, 226.7269
1107.389, 226.3431
1107.871, 225.4172
1108.353, 224.3074
1108.835, 223.2012
1109.317, 222.8743
1109.799, 223.9778
1110.281, 224.3853
1110.764, 223.1963
1111.246, 222.2903
1111.728, 222.5096
1112.210, 222.9240
1112.692, 222.8746
1113.174, 222.4444
1113.656, 221.7469
1114.138, 220.5548
1114.621, 220.1449
1115.103, 221.0432
1115.585, 221.8755
1116.067, 222.5725
1116.549, 222.9460
1117.031, 222.6255
1117.513, 222.1298
1117.995, 222.5118
1118.478, 223.7960
1118.960, 223.6911
1119.442, 221.4056
1119.924, 219.5384
1120.406, 217.9581
1120.888, 217.5928
1121.370, 219.2410
1121.852, 221.7189
1122.334, 223.9785
1122.817, 225.7949
1123.299, 225.6670
1123.781, 222.7583
1124.263, 221.5331
1124.745, 222.6425
1125.227, 223.3775
1125.709, 222.7282
1126.191, 222.1225
1126.673, 222.8940
1127.156, 222.2003
1127.638, 224.1037
1128.120, 222.3456
1128.602, 221.9462
1129.084, 223.0846
1129.566, 223.7539
1130.048, 223.5327
1130.530, 222.9331
1131.013, 222.1802
1131.495, 221.6038
1131.977, 221.7837
1132.459, 222.5167
1132.941, 222.8308
1133.423, 222.7406
1133.905, 222.3288
1134.387, 221.6242
1134.870, 220.9681
1135.352, 220.4950
1135.834, 220.0318
1136.316, 219.3296
1136.798, 218.7526
1137.280, 219.2625
1137.762, 220.5326
1138.244, 221.5958
1138.726, 222.3149
1139.208, 222.1721
1139.691, 221.1836
1140.173, 220.4050
1140.655, 220.4988
1141.137, 221.0280
1141.619, 221.7586
1142.101, 222.3340
1142.583, 221.9497
1143.065, 220.9597
1143.548, 219.9696
1144.030, 219.1999
1144.512, 218.9937
1144.994, 219.4663
1145.476, 220.1817
1145.958, 221.0065
1146.440, 221.6353
1146.922, 221.6305
1147.405, 221.3477
1147.887, 221.4048
1148.369, 221.4869
1148.851, 220.5190
1149.333, 218.6101
1149.815, 217.7143
1150.297, 219.1117
1150.779, 220.6982
1151.261, 221.4388
1151.744, 221.6958
1152.226, 221.4167
1152.708, 221.0333
1153.190, 221.1900
1153.672, 221.6701
1154.154, 221.5965
1154.636, 220.6548
1155.118, 220.0131
1155.600, 220.2412
1156.083, 220.5140
1156.565, 220.7710
1157.047, 220.7460
1157.529, 220.0097
1158.011, 218.9998
1158.493, 218.3490
1158.975, 218.0910
1159.457, 218.2214
1159.940, 218.9473
1160.422, 219.7271
1160.904, 220.5827
1161.386, 221.4663
1161.868, 222.8521
1162.350, 223.6514
1162.832, 222.5935
1163.314, 220.2967
1163.796, 218.6173
1164.279, 217.5114
1164.761, 217.4404
1165.243, 218.8616
1165.725, 219.6031
1166.207, 218.9671
1166.689, 218.6517
1167.171, 219.7860
1167.653, 221.2997
1168.135, 221.6455
1168.618, 221.0258
1169.100, 220.4640
1169.582, 219.9668
1170.064, 220.0753
1170.546, 220.8142
1171.028, 220.9533
1171.510, 220.0837
1171.992, 219.1999
1172.474, 219.1064
1172.957, 219.4427
1173.439, 219.6371
1173.921, 219.7363
1174.403, 219.9894
1174.885, 220.2593
1175.367, 219.9039
1175.849, 219.0097
1176.331, 218.5304
1176.814, 218.8664
1177.296, 219.3608
1177.778, 219.3641
1178.260, 219.3187
1178.742, 219.8659
1179.224, 220.5877
1179.706, 220.9261
1180.188, 220.9751
1180.671, 221.0023
1181.153, 221.0571
1181.635, 221.0404
1182.117, 220.8830
1182.599, 220.7453
1183.081, 220.9819
1183.563, 220.9481
1184.045, 219.6105
1184.527, 218.3487
1185.010, 219.1724
1185.492, 220.9825
1185.974, 220.7729
1186.456, 217.9734
1186.938, 216.3571
1187.420, 217.0223
1187.902, 218.1685
1188.384, 220.5713
1188.866, 222.0742
1189.349, 220.7348
1189.831, 219.0679
1190.313, 220.1596
1190.795, 223.0097
1191.277, 223.4842
1191.759, 220.7857
1192.241, 219.2278
1192.723, 219.0068
1193.206, 219.4109
1193.688, 220.6043
1194.170, 221.0299
1194.652, 219.5413
1195.134, 217.7133
1195.616, 217.8874
1196.098, 219.5012
1196.580, 220.1327
1197.063, 219.8873
1197.545, 219.9879
1198.027, 220.4385
1198.509, 220.1791
1198.991, 218.9848
1199.473, 218.0839
1199.955, 218.3745
1200.437, 218.9426
1200.919, 218.3147
1201.401, 217.3544
1201.884, 217.7203
1202.366, 218.8249
1202.848, 219.6481
1203.330, 220.0464
1203.812, 219.9313
1204.294, 219.3720
1204.776, 219.2734
1205.258, 220.6776
1205.741, 221.6589
1206.223, 220.3375
1206.705, 218.8073
1207.187, 218.7073
1207.669, 219.3209
1208.151, 220.0475
1208.633, 220.5618
1209.115, 220.0482
1209.598, 218.0493
1210.080, 216.9100
1210.562, 217.3323
1211.044, 218.1166
1211.526, 219.8985
1212.008, 220.8897
1212.490, 219.7806
1212.972, 217.9618
1213.454, 216.9481
1213.937, 216.6679
1214.419, 216.8097
1214.901, 217.4371
1215.383, 218.2618
1215.865, 219.4021
1216.347, 219.9537
1216.829, 219.6638
1217.311, 219.1695
1217.793, 218.8218
1218.276, 218.6128
1218.758, 218.5902
1219.240, 218.6252
1219.722, 218.1487
1220.204, 217.4393
1220.686, 217.7691
1221.168, 218.8492
1221.650, 219.0863
1222.133, 218.2519
1222.615, 217.5609
1223.097, 217.6888
1223.579, 218.1954
1224.061, 218.9017
1224.543, 219.5608
1225.025, 219.7661
1225.507, 219.9095
1225.990, 220.8317
1226.472, 221.9069
1226.954, 221.6460
1227.436, 219.9789
1227.918, 218.6968
1228.400, 218.2290
1228.882, 218.3761
1229.364, 220.1650
1229.846, 221.1622
1230.328, 219.2482
1230.811, 217.3973
1231.293, 218.3296
1231.775, 220.5303
1232.257, 221.1225
1232.739, 220.1195
1233.221, 219.4608
1233.703, 219.0939
1234.185, 219.4338
1234.668, 220.7076
1235.150, 221.4838
1235.632, 221.2409
1236.114, 220.8606
1236.596, 221.0513
1237.078, 221.3968
1237.560, 221.1139
1238.042, 220.4165
1238.525, 219.8941
1239.007, 219.5880
1239.489, 219.9242
1239.971, 220.6038
1240.453, 220.1945
1240.935, 218.4811
1241.417, 217.2876
1241.899, 217.8079
1242.381, 218.9418
1242.864, 220.2888
1243.346, 221.3648
1243.828, 221.6156
1244.310, 221.4971
1244.792, 221.4803
1245.274, 221.5417
1245.756, 221.5395
1246.238, 221.4499
1246.720, 221.1839
1247.203, 220.5446
1247.685, 220.0208
1248.167, 219.5151
1248.649, 219.3762
1249.131, 220.1300
1249.613, 220.5262
1250.095, 219.2411
1250.577, 217.5312
1251.059, 218.0374
1251.542, 220.5059
1252.024, 221.9182
1252.506, 222.2820
1252.988, 221.8271
1253.470, 220.6521
1253.952, 220.0441
1254.434, 220.3836
1254.916, 221.1063
1255.399, 221.8931
1255.881, 222.2274
1256.363, 220.8330
1256.845, 219.1281
1257.327, 219.4710
1257.809, 220.7096
1258.291, 221.1411
1258.773, 220.9016
1259.255, 220.6894
1259.738, 220.6608
1260.220, 220.6783
1260.702, 220.6611
1261.184, 220.7814
1261.666, 221.4821
1262.148, 221.8161
1262.630, 220.9275
1263.112, 220.0534
1263.594, 220.1774
1264.077, 220.7899
1264.559, 221.2431
1265.041, 221.5084
1265.523, 221.2321
1266.005, 220.2275
1266.487, 219.7724
1266.969, 219.9168
1267.451, 220.5883
1267.934, 221.7884
1268.416, 222.8993
1268.898, 223.5965
1269.380, 223.6927
1269.862, 222.6243
1270.344, 221.4021
1270.826, 222.3238
1271.308, 224.1623
1271.791, 224.5261
1272.273, 223.9302
1272.755, 223.9086
1273.237, 224.4426
1273.719, 224.2084
1274.201, 222.6836
1274.683, 221.6407
1275.165, 222.0752
1275.647, 222.8440
1276.130, 224.1715
1276.612, 224.9502
1277.094, 224.0077
1277.576, 222.6292
1278.058, 221.9107
1278.540, 221.9720
1279.022, 223.4296
1279.504, 226.5238
1279.986, 227.3838
1280.469, 225.5535
1280.951, 224.7972
1281.433, 225.6536
1281.915, 225.8773
1282.397, 224.6510
1282.879, 223.3302
1283.361, 222.9756
1283.843, 223.1797
1284.326, 223.4668
1284.808, 223.8206
##END=



