##NAMES=Zektzerite
##RRUFFID=R070485
##IDEAL CHEMISTRY=NaLiZr^4+^Si_6_O_15_
##LOCALITY=Washington Pass, Golden Horn Batholith, Okanogan County, Washington, USA
##OWNER=RRUFF
##SOURCE=Michael Scott
##DESCRIPTION=Pale pink to colorless hexagonal prismatic crystal fragments
##STATUS=The identification of this mineral has been confirmed by X-ray diffraction and chemical analysis
##URL=rruff.info/R070485
##MEASURED CHEMISTRY=Na_1.00_Li_1.00_(Zr_0.97_Ti_0.02_Hf_0.01_)_Î£=1_Si_6.00_O_15_; trace amounts of Al and Fe; Li_2_O estimated by difference
134.7276, 1744.285
135.2097, 1780.314
135.6918, 1828.332
136.1740, 1887.333
136.6561, 1951.821
137.1382, 2018.977
137.6203, 2100.690
138.1024, 2217.393
138.5845, 2376.661
139.0667, 2534.331
139.5488, 2678.185
140.0309, 2807.761
140.5130, 2944.076
140.9951, 3097.970
141.4772, 3248.466
141.9594, 3358.426
142.4415, 3423.878
142.9236, 3459.951
143.4057, 3472.549
143.8878, 3460.688
144.3699, 3425.816
144.8521, 3357.308
145.3342, 3267.875
145.8163, 3196.674
146.2984, 3154.362
146.7805, 3116.516
147.2626, 3069.877
147.7448, 3006.496
148.2269, 2947.482
148.7090, 2890.146
149.1911, 2835.892
149.6732, 2799.861
150.1554, 2789.278
150.6375, 2791.959
151.1196, 2800.119
151.6017, 2814.006
152.0838, 2833.324
152.5659, 2858.022
153.0481, 2888.304
153.5302, 2923.756
154.0123, 2972.362
154.4944, 3022.517
154.9765, 3064.215
155.4586, 3080.748
155.9408, 3103.569
156.4229, 3143.529
156.9050, 3192.150
157.3871, 3219.844
157.8692, 3231.845
158.3513, 3236.136
158.8335, 3240.364
159.3156, 3238.029
159.7977, 3243.028
160.2798, 3262.961
160.7619, 3303.288
161.2440, 3343.186
161.7262, 3376.493
162.2083, 3405.264
162.6904, 3433.197
163.1725, 3466.534
163.6546, 3495.990
164.1367, 3515.935
164.6189, 3524.645
165.1010, 3525.845
165.5831, 3518.132
166.0652, 3503.632
166.5473, 3488.434
167.0294, 3476.374
167.5116, 3464.557
167.9937, 3451.277
168.4758, 3440.504
168.9579, 3422.480
169.4400, 3383.639
169.9221, 3328.408
170.4043, 3279.805
170.8864, 3260.512
171.3685, 3253.219
171.8506, 3236.225
172.3327, 3196.027
172.8148, 3149.040
173.2970, 3110.422
173.7791, 3079.607
174.2612, 3047.256
174.7433, 3000.540
175.2254, 2948.490
175.7076, 2905.907
176.1897, 2882.708
176.6718, 2870.179
177.1539, 2860.608
177.6360, 2854.311
178.1181, 2843.946
178.6003, 2817.584
179.0824, 2780.761
179.5645, 2749.534
180.0466, 2734.446
180.5287, 2728.015
181.0108, 2717.197
181.4930, 2700.887
181.9751, 2683.283
182.4572, 2666.962
182.9393, 2652.594
183.4214, 2644.062
183.9035, 2647.084
184.3857, 2657.248
184.8678, 2664.150
185.3499, 2667.008
185.8320, 2666.126
186.3141, 2661.140
186.7962, 2652.205
187.2784, 2641.475
187.7605, 2628.911
188.2426, 2615.299
188.7247, 2602.644
189.2068, 2589.838
189.6889, 2580.558
190.1711, 2584.675
190.6532, 2602.172
191.1353, 2618.958
191.6174, 2624.656
192.0995, 2620.371
192.5816, 2614.468
193.0638, 2607.675
193.5459, 2600.535
194.0280, 2595.151
194.5101, 2591.832
194.9922, 2587.173
195.4743, 2576.927
195.9565, 2561.538
196.4386, 2548.771
196.9207, 2539.667
197.4028, 2534.491
197.8849, 2535.014
198.3671, 2542.025
198.8492, 2551.322
199.3313, 2560.581
199.8134, 2570.114
200.2955, 2575.088
200.7776, 2573.004
201.2598, 2565.411
201.7419, 2561.422
202.2240, 2561.682
202.7061, 2563.383
203.1882, 2562.255
203.6703, 2556.970
204.1525, 2557.510
204.6346, 2569.010
205.1167, 2590.196
205.5988, 2602.342
206.0809, 2603.559
206.5630, 2599.555
207.0452, 2596.268
207.5273, 2593.612
208.0094, 2592.156
208.4915, 2592.748
208.9736, 2595.469
209.4557, 2594.909
209.9379, 2588.664
210.4200, 2582.875
210.9021, 2588.495
211.3842, 2611.533
211.8663, 2626.630
212.3484, 2621.833
212.8306, 2594.324
213.3127, 2581.054
213.7948, 2586.304
214.2769, 2601.023
214.7590, 2612.117
215.2411, 2619.425
215.7233, 2623.165
216.2054, 2620.908
216.6875, 2609.669
217.1696, 2610.232
217.6517, 2626.676
218.1338, 2651.556
218.6160, 2670.917
219.0981, 2681.596
219.5802, 2693.768
220.0623, 2711.048
220.5444, 2733.982
221.0265, 2760.459
221.5087, 2793.856
221.9908, 2829.021
222.4729, 2856.723
222.9550, 2882.055
223.4371, 2890.980
223.9192, 2872.968
224.4014, 2813.572
224.8835, 2773.546
225.3656, 2758.786
225.8477, 2761.027
226.3298, 2762.415
226.8119, 2763.660
227.2941, 2762.809
227.7762, 2758.003
228.2583, 2745.548
228.7404, 2738.736
229.2225, 2739.436
229.7046, 2745.101
230.1868, 2748.668
230.6689, 2745.864
231.1510, 2747.343
231.6331, 2759.644
232.1152, 2791.787
232.5974, 2813.615
233.0795, 2821.719
233.5616, 2820.323
234.0437, 2822.488
234.5258, 2833.177
235.0079, 2840.587
235.4901, 2837.854
235.9722, 2816.911
236.4543, 2804.244
236.9364, 2801.858
237.4185, 2808.087
237.9006, 2818.269
238.3828, 2835.451
238.8649, 2852.160
239.3470, 2863.804
239.8291, 2863.887
240.3112, 2873.119
240.7933, 2897.329
241.2755, 2930.673
241.7576, 2951.137
242.2397, 2947.482
242.7218, 2946.498
243.2039, 2962.483
243.6860, 3002.145
244.1682, 3044.690
244.6503, 3091.336
245.1324, 3140.023
245.6145, 3180.729
246.0966, 3204.099
246.5787, 3232.841
247.0609, 3281.065
247.5430, 3361.082
248.0251, 3432.424
248.5072, 3487.282
248.9893, 3531.937
249.4714, 3592.726
249.9536, 3675.581
250.4357, 3765.868
250.9178, 3857.044
251.3999, 3950.429
251.8820, 4039.245
252.3641, 4122.344
252.8463, 4200.338
253.3284, 4282.884
253.8105, 4386.578
254.2926, 4467.617
254.7747, 4501.342
255.2568, 4478.803
255.7390, 4430.120
256.2211, 4351.407
256.7032, 4248.571
257.1853, 4136.746
257.6674, 4010.293
258.1495, 3886.519
258.6317, 3775.194
259.1138, 3680.590
259.5959, 3587.930
260.0780, 3492.454
260.5601, 3399.363
261.0422, 3331.874
261.5244, 3299.664
262.0065, 3274.377
262.4886, 3240.198
262.9707, 3191.551
263.4528, 3151.747
263.9349, 3125.115
264.4171, 3106.622
264.8992, 3080.129
265.3813, 3040.720
265.8634, 3003.201
266.3455, 2975.187
266.8276, 2957.209
267.3098, 2946.183
267.7919, 2943.544
268.2740, 2946.817
268.7561, 2948.719
269.2382, 2947.673
269.7203, 2949.335
270.2025, 2957.556
270.6846, 2973.763
271.1667, 2988.381
271.6488, 2999.388
272.1309, 3009.956
272.6130, 3028.807
273.0952, 3057.836
273.5773, 3088.676
274.0594, 3115.007
274.5415, 3134.926
275.0236, 3165.869
275.5057, 3210.244
275.9879, 3263.855
276.4700, 3319.118
276.9521, 3376.521
277.4342, 3433.474
277.9163, 3486.898
278.3984, 3536.245
278.8806, 3592.552
279.3627, 3656.180
279.8448, 3726.509
280.3269, 3808.376
280.8090, 3904.513
281.2911, 3991.515
281.7733, 4058.687
282.2554, 4106.165
282.7375, 4146.579
283.2196, 4183.166
283.7017, 4206.025
284.1838, 4203.019
284.6660, 4174.232
285.1481, 4112.746
285.6302, 4000.946
286.1123, 3845.343
286.5944, 3705.138
287.0765, 3581.277
287.5587, 3471.899
288.0408, 3375.873
288.5229, 3292.752
289.0050, 3219.042
289.4871, 3152.758
289.9692, 3094.305
290.4514, 3048.941
290.9335, 3018.058
291.4156, 2993.306
291.8977, 2964.593
292.3798, 2932.741
292.8619, 2904.118
293.3441, 2882.199
293.8262, 2865.354
294.3083, 2848.591
294.7904, 2831.332
295.2726, 2818.778
295.7547, 2820.371
296.2368, 2832.548
296.7189, 2841.425
297.2010, 2837.879
297.6831, 2829.404
298.1653, 2832.635
298.6474, 2847.842
299.1295, 2861.847
299.6116, 2856.114
300.0937, 2839.619
300.5758, 2835.339
301.0580, 2860.221
301.5401, 2894.520
302.0222, 2909.613
302.5043, 2906.514
302.9864, 2901.413
303.4685, 2907.714
303.9507, 2920.670
304.4328, 2931.036
304.9149, 2930.052
305.3970, 2932.146
305.8791, 2957.412
306.3612, 3002.073
306.8434, 3045.035
307.3255, 3070.385
307.8076, 3085.841
308.2897, 3100.972
308.7718, 3117.394
309.2539, 3135.001
309.7361, 3150.139
310.2182, 3165.187
310.7003, 3189.159
311.1824, 3234.234
311.6645, 3286.936
312.1466, 3334.579
312.6288, 3373.878
313.1109, 3410.439
313.5930, 3441.531
314.0751, 3472.361
314.5572, 3515.029
315.0393, 3584.544
315.5215, 3661.854
316.0036, 3732.186
316.4857, 3789.569
316.9678, 3853.570
317.4499, 3933.238
317.9320, 4025.685
318.4142, 4125.769
318.8963, 4247.364
319.3784, 4363.393
319.8605, 4458.715
320.3426, 4525.229
320.8247, 4595.761
321.3069, 4693.997
321.7890, 4797.247
322.2711, 4875.323
322.7532, 4912.889
323.2353, 4931.849
323.7174, 4938.550
324.1996, 4933.555
324.6817, 4914.716
325.1638, 4880.230
325.6459, 4832.527
326.1280, 4774.048
326.6101, 4681.772
327.0923, 4602.745
327.5744, 4549.161
328.0565, 4521.806
328.5386, 4498.485
329.0207, 4473.052
329.5028, 4455.387
329.9850, 4452.603
330.4671, 4474.313
330.9492, 4498.251
331.4313, 4520.611
331.9134, 4542.596
332.3955, 4573.914
332.8777, 4613.419
333.3598, 4663.581
333.8419, 4729.253
334.3240, 4825.467
334.8061, 4905.180
335.2882, 4960.713
335.7704, 4998.835
336.2525, 5042.479
336.7346, 5095.124
337.2167, 5147.161
337.6988, 5191.477
338.1809, 5223.727
338.6631, 5268.922
339.1452, 5333.370
339.6273, 5405.123
340.1094, 5460.205
340.5915, 5498.765
341.0736, 5521.916
341.5558, 5526.145
342.0379, 5511.163
342.5200, 5497.063
343.0021, 5483.911
343.4842, 5471.461
343.9663, 5462.648
344.4485, 5457.934
344.9306, 5442.039
345.4127, 5404.566
345.8948, 5351.608
346.3769, 5307.946
346.8590, 5274.543
347.3412, 5246.620
347.8233, 5221.402
348.3054, 5198.481
348.7875, 5174.285
349.2696, 5143.966
349.7517, 5114.816
350.2339, 5099.900
350.7160, 5099.016
351.1981, 5106.837
351.6802, 5113.583
352.1623, 5126.138
352.6444, 5161.293
353.1266, 5227.452
353.6087, 5308.336
354.0908, 5386.892
354.5729, 5463.648
355.0550, 5541.192
355.5371, 5614.216
356.0193, 5691.906
356.5014, 5784.846
356.9835, 5895.207
357.4656, 6016.766
357.9477, 6149.107
358.4298, 6289.271
358.9120, 6431.135
359.3941, 6565.898
359.8762, 6705.333
360.3583, 6868.649
360.8404, 7063.942
361.3225, 7234.597
361.8047, 7333.664
362.2868, 7401.208
362.7689, 7485.908
363.2510, 7628.917
363.7331, 7767.586
364.2152, 7882.566
364.6974, 7972.108
365.1795, 8037.712
365.6616, 8071.026
366.1437, 8085.938
366.6258, 8092.942
367.1079, 8121.598
367.5901, 8111.437
368.0722, 8049.478
368.5543, 7939.024
369.0364, 7803.591
369.5185, 7648.905
370.0006, 7467.009
370.4828, 7253.629
370.9649, 6992.669
371.4470, 6724.858
371.9291, 6442.798
372.4112, 6154.055
372.8933, 5870.757
373.3755, 5582.861
373.8576, 5326.443
374.3397, 5119.060
374.8218, 4970.783
375.3039, 4825.867
375.7861, 4682.225
376.2682, 4544.000
376.7503, 4410.893
377.2324, 4279.714
377.7145, 4172.227
378.1967, 4102.161
378.6788, 4063.655
379.1609, 3999.951
379.6430, 3904.165
380.1251, 3809.325
380.6072, 3747.840
381.0894, 3718.824
381.5715, 3691.566
382.0536, 3661.190
382.5357, 3627.893
383.0178, 3589.977
383.4999, 3547.466
383.9821, 3509.906
384.4642, 3484.850
384.9463, 3469.502
385.4284, 3459.128
385.9105, 3454.659
386.3926, 3448.757
386.8748, 3429.399
387.3569, 3400.444
387.8390, 3374.715
388.3211, 3357.151
388.8032, 3346.971
389.2853, 3347.142
389.7675, 3358.360
390.2496, 3366.917
390.7317, 3359.689
391.2138, 3344.404
391.6959, 3331.830
392.1780, 3324.252
392.6602, 3321.982
393.1423, 3325.673
393.6244, 3335.151
394.1065, 3348.869
394.5886, 3376.649
395.0707, 3402.507
395.5529, 3413.882
396.0350, 3394.198
396.5171, 3379.634
396.9992, 3376.652
397.4813, 3384.894
397.9634, 3403.198
398.4456, 3447.082
398.9277, 3487.673
399.4098, 3512.799
399.8919, 3514.162
400.3740, 3519.497
400.8561, 3531.821
401.3383, 3546.900
401.8204, 3558.493
402.3025, 3555.635
402.7846, 3566.969
403.2667, 3604.848
403.7488, 3668.853
404.2310, 3715.685
404.7131, 3739.250
405.1952, 3755.549
405.6773, 3778.797
406.1594, 3811.649
406.6415, 3837.933
407.1237, 3852.822
407.6058, 3861.586
408.0879, 3880.433
408.5700, 3910.411
409.0521, 3942.376
409.5342, 3969.108
410.0164, 3991.749
410.4985, 4023.751
410.9806, 4069.413
411.4627, 4111.813
411.9448, 4119.335
412.4269, 4099.501
412.9091, 4088.370
413.3912, 4110.812
413.8733, 4148.396
414.3554, 4170.946
414.8375, 4178.500
415.3196, 4179.298
415.8018, 4175.921
416.2839, 4170.952
416.7660, 4167.329
417.2481, 4160.819
417.7302, 4163.191
418.2123, 4190.088
418.6945, 4234.606
419.1766, 4275.403
419.6587, 4291.036
420.1408, 4306.216
420.6229, 4339.523
421.1050, 4399.136
421.5872, 4459.064
422.0693, 4505.790
422.5514, 4549.479
423.0335, 4604.397
423.5156, 4674.272
423.9977, 4755.262
424.4799, 4848.731
424.9620, 4953.943
425.4441, 5064.889
425.9262, 5186.180
426.4083, 5310.536
426.8904, 5433.624
427.3726, 5561.751
427.8547, 5678.288
428.3368, 5770.327
428.8189, 5852.390
429.3010, 5972.627
429.7831, 6151.670
430.2653, 6322.963
430.7474, 6451.163
431.2295, 6527.624
431.7116, 6626.930
432.1937, 6750.845
432.6758, 6894.409
433.1580, 7053.318
433.6401, 7227.657
434.1222, 7409.448
434.6043, 7589.668
435.0864, 7777.840
435.5685, 8007.904
436.0507, 8279.653
436.5328, 8562.789
437.0149, 8844.817
437.4970, 9115.567
437.9791, 9359.532
438.4612, 9580.505
438.9434, 9751.989
439.4255, 9848.927
439.9076, 9873.973
440.3897, 9833.866
440.8718, 9698.466
441.3539, 9523.320
441.8361, 9346.134
442.3182, 9169.386
442.8003, 9003.639
443.2824, 8837.354
443.7645, 8691.810
444.2466, 8589.001
444.7288, 8534.582
445.2109, 8525.621
445.6930, 8574.656
446.1751, 8673.795
446.6572, 8782.334
447.1393, 8918.023
447.6215, 9043.200
448.1036, 9142.723
448.5857, 9237.020
449.0678, 9265.824
449.5499, 9222.136
450.0320, 9117.205
450.5142, 8963.776
450.9963, 8750.939
451.4784, 8509.932
451.9605, 8238.709
452.4426, 7937.275
452.9247, 7680.647
453.4069, 7471.848
453.8890, 7288.029
454.3711, 7113.808
454.8532, 6948.333
455.3353, 6797.398
455.8174, 6669.686
456.2996, 6545.540
456.7817, 6382.381
457.2638, 6184.924
457.7459, 5997.286
458.2281, 5852.051
458.7102, 5729.642
459.1923, 5587.113
459.6744, 5422.868
460.1565, 5257.448
460.6386, 5115.410
461.1208, 4985.481
461.6029, 4852.775
462.0850, 4696.042
462.5671, 4553.145
463.0492, 4452.951
463.5313, 4388.867
464.0135, 4339.874
464.4956, 4308.202
464.9777, 4281.192
465.4598, 4250.152
465.9419, 4208.268
466.4240, 4178.428
466.9062, 4172.119
467.3883, 4178.050
467.8704, 4181.482
468.3525, 4166.920
468.8346, 4166.530
469.3167, 4188.574
469.7989, 4231.530
470.2810, 4274.628
470.7631, 4318.568
471.2452, 4362.054
471.7273, 4402.092
472.2094, 4435.256
472.6916, 4482.971
473.1737, 4549.983
473.6558, 4627.310
474.1379, 4698.173
474.6200, 4762.974
475.1021, 4831.211
475.5843, 4905.618
476.0664, 4986.823
476.5485, 5080.252
477.0306, 5185.502
477.5127, 5290.766
477.9948, 5404.905
478.4770, 5509.172
478.9591, 5565.583
479.4412, 5564.300
479.9233, 5514.958
480.4054, 5412.945
480.8875, 5269.399
481.3697, 5110.150
481.8518, 4932.723
482.3339, 4754.832
482.8160, 4582.924
483.2981, 4416.579
483.7802, 4270.925
484.2624, 4156.953
484.7445, 4065.870
485.2266, 3991.470
485.7087, 3932.910
486.1908, 3890.837
486.6729, 3877.541
487.1551, 3882.025
487.6372, 3870.664
488.1193, 3826.166
488.6014, 3789.571
489.0835, 3778.116
489.5656, 3796.942
490.0478, 3805.597
490.5299, 3800.424
491.0120, 3792.112
491.4941, 3790.272
491.9762, 3794.620
492.4583, 3811.706
492.9405, 3846.232
493.4226, 3890.701
493.9047, 3928.926
494.3868, 3961.238
494.8689, 3987.556
495.3510, 4002.831
495.8332, 4013.424
496.3153, 4032.681
496.7974, 4061.890
497.2795, 4093.797
497.7616, 4122.155
498.2437, 4148.918
498.7259, 4176.495
499.2080, 4207.693
499.6901, 4238.267
500.1722, 4266.840
500.6543, 4293.161
501.1364, 4316.159
501.6186, 4334.082
502.1007, 4350.192
502.5828, 4367.665
503.0649, 4391.395
503.5470, 4403.478
504.0291, 4391.150
504.5113, 4373.242
504.9934, 4368.345
505.4755, 4377.310
505.9576, 4398.412
506.4397, 4435.687
506.9218, 4484.962
507.4040, 4525.873
507.8861, 4554.485
508.3682, 4588.170
508.8503, 4640.560
509.3324, 4710.273
509.8145, 4768.026
510.2967, 4810.185
510.7788, 4853.116
511.2609, 4913.479
511.7430, 4990.294
512.2252, 5082.164
512.7073, 5199.521
513.1894, 5318.857
513.6715, 5407.445
514.1536, 5471.136
514.6357, 5534.359
515.1179, 5615.577
515.6000, 5699.942
516.0821, 5774.416
516.5642, 5837.286
517.0463, 5894.930
517.5284, 5949.552
518.0106, 6000.442
518.4927, 6047.053
518.9748, 6098.226
519.4569, 6134.429
519.9390, 6147.743
520.4211, 6142.858
520.9033, 6136.112
521.3854, 6135.272
521.8675, 6121.391
522.3496, 6086.377
522.8317, 6028.626
523.3138, 5959.287
523.7960, 5875.225
524.2781, 5787.957
524.7602, 5711.237
525.2423, 5644.614
525.7244, 5580.303
526.2065, 5514.603
526.6887, 5453.374
527.1708, 5405.936
527.6529, 5371.879
528.1350, 5347.202
528.6171, 5323.400
529.0992, 5310.211
529.5814, 5322.785
530.0635, 5362.126
530.5456, 5413.321
531.0277, 5473.679
531.5098, 5537.978
531.9919, 5600.348
532.4741, 5654.202
532.9562, 5713.515
533.4383, 5790.801
533.9204, 5876.322
534.4025, 5950.064
534.8846, 6007.630
535.3668, 6053.757
535.8489, 6091.264
536.3310, 6121.546
536.8131, 6130.500
537.2952, 6120.607
537.7773, 6086.308
538.2595, 6019.354
538.7416, 5914.496
539.2237, 5808.270
539.7058, 5706.177
540.1879, 5601.982
540.6700, 5483.156
541.1522, 5352.047
541.6343, 5227.583
542.1164, 5115.579
542.5985, 5017.275
543.0806, 4938.097
543.5627, 4876.776
544.0449, 4822.476
544.5270, 4767.129
545.0091, 4714.877
545.4912, 4669.829
545.9733, 4631.288
546.4554, 4604.690
546.9376, 4600.655
547.4197, 4607.487
547.9018, 4610.355
548.3839, 4603.428
548.8660, 4594.854
549.3481, 4581.119
549.8303, 4565.368
550.3124, 4565.832
550.7945, 4594.906
551.2766, 4623.643
551.7587, 4639.724
552.2408, 4641.397
552.7230, 4642.771
553.2051, 4643.701
553.6872, 4644.692
554.1693, 4647.508
554.6514, 4651.839
555.1335, 4653.802
555.6157, 4656.245
556.0978, 4649.416
556.5799, 4610.542
557.0620, 4545.997
557.5441, 4482.621
558.0262, 4430.431
558.5084, 4389.141
558.9905, 4359.144
559.4726, 4340.094
559.9547, 4329.046
560.4368, 4323.483
560.9189, 4325.910
561.4011, 4338.078
561.8832, 4359.656
562.3653, 4392.302
562.8474, 4440.617
563.3295, 4499.133
563.8116, 4559.746
564.2938, 4617.333
564.7759, 4685.617
565.2580, 4771.726
565.7401, 4872.620
566.2222, 4962.931
566.7043, 5040.909
567.1865, 5117.005
567.6686, 5198.811
568.1507, 5285.897
568.6328, 5363.157
569.1149, 5428.363
569.5970, 5497.166
570.0792, 5590.937
570.5613, 5701.020
571.0434, 5806.351
571.5255, 5902.800
572.0076, 5991.160
572.4897, 6073.309
572.9719, 6148.475
573.4540, 6217.126
573.9361, 6291.033
574.4182, 6347.429
574.9003, 6378.601
575.3824, 6384.254
575.8646, 6355.765
576.3467, 6273.183
576.8288, 6169.913
577.3109, 6064.847
577.7930, 5970.696
578.2751, 5847.105
578.7573, 5681.896
579.2394, 5500.650
579.7215, 5338.747
580.2036, 5194.990
580.6857, 5069.973
581.1678, 4966.806
581.6500, 4880.083
582.1321, 4793.225
582.6142, 4707.265
583.0963, 4633.838
583.5784, 4584.011
584.0605, 4548.551
584.5427, 4514.267
585.0248, 4480.409
585.5069, 4451.281
585.9890, 4430.740
586.4711, 4415.851
586.9532, 4403.320
587.4354, 4390.397
587.9175, 4382.900
588.3996, 4385.917
588.8817, 4394.608
589.3638, 4400.031
589.8459, 4401.098
590.3281, 4399.728
590.8102, 4395.015
591.2923, 4387.689
591.7744, 4384.606
592.2565, 4387.977
592.7386, 4388.027
593.2208, 4376.346
593.7029, 4354.398
594.1850, 4339.506
594.6671, 4333.398
595.1492, 4326.599
595.6313, 4306.646
596.1135, 4278.814
596.5956, 4255.337
597.0777, 4240.322
597.5598, 4228.351
598.0419, 4218.175
598.5240, 4207.788
599.0062, 4193.299
599.4883, 4168.498
599.9704, 4143.854
600.4525, 4121.981
600.9346, 4103.303
601.4167, 4090.470
601.8989, 4085.366
602.3810, 4083.980
602.8631, 4084.648
603.3452, 4087.484
603.8273, 4092.622
604.3094, 4102.604
604.7916, 4109.661
605.2737, 4099.349
605.7558, 4072.641
606.2379, 4063.570
606.7200, 4085.419
607.2021, 4113.150
607.6843, 4098.038
608.1664, 4053.622
608.6485, 4025.194
609.1306, 4055.402
609.6127, 4095.096
610.0948, 4099.890
610.5770, 4073.800
611.0591, 4051.304
611.5412, 4056.771
612.0233, 4062.832
612.5054, 4052.076
612.9875, 4015.320
613.4697, 3984.576
613.9518, 3964.210
614.4339, 3948.235
614.9160, 3931.240
615.3981, 3912.611
615.8802, 3896.219
616.3624, 3884.707
616.8445, 3872.563
617.3266, 3844.716
617.8087, 3802.097
618.2908, 3765.932
618.7729, 3747.287
619.2551, 3738.377
619.7372, 3726.618
620.2193, 3712.346
620.7014, 3698.254
621.1835, 3685.912
621.6656, 3674.572
622.1478, 3661.222
622.6299, 3644.422
623.1120, 3637.058
623.5941, 3659.398
624.0762, 3683.999
624.5583, 3688.073
625.0405, 3645.251
625.5226, 3619.289
626.0047, 3617.942
626.4868, 3628.731
626.9689, 3632.889
627.4510, 3630.947
627.9332, 3617.389
628.4153, 3582.624
628.8974, 3541.018
629.3795, 3541.803
629.8616, 3580.927
630.3438, 3613.124
630.8259, 3598.596
631.3080, 3566.720
631.7901, 3563.702
632.2722, 3590.531
632.7543, 3612.229
633.2365, 3598.555
633.7186, 3576.281
634.2007, 3568.205
634.6828, 3585.370
635.1649, 3599.919
635.6470, 3603.300
636.1292, 3603.249
636.6113, 3609.156
637.0934, 3628.502
637.5755, 3637.619
638.0576, 3630.882
638.5397, 3614.092
639.0219, 3601.409
639.5040, 3592.875
639.9861, 3586.302
640.4682, 3582.405
640.9503, 3579.015
641.4324, 3568.551
641.9146, 3552.134
642.3967, 3539.244
642.8788, 3541.395
643.3609, 3547.174
643.8430, 3542.467
644.3251, 3523.771
644.8073, 3512.542
645.2894, 3533.129
645.7715, 3555.825
646.2536, 3555.797
646.7357, 3493.713
647.2178, 3461.779
647.7000, 3473.766
648.1821, 3506.553
648.6642, 3525.336
649.1463, 3528.026
649.6284, 3526.203
650.1105, 3519.748
650.5927, 3513.244
651.0748, 3522.271
651.5569, 3544.643
652.0390, 3560.146
652.5211, 3549.353
653.0032, 3529.985
653.4854, 3526.466
653.9675, 3537.591
654.4496, 3547.025
654.9317, 3544.348
655.4138, 3537.678
655.8959, 3533.420
656.3781, 3535.078
656.8602, 3529.702
657.3423, 3505.748
657.8244, 3481.569
658.3065, 3473.819
658.7886, 3493.082
659.2708, 3497.491
659.7529, 3480.393
660.2350, 3452.316
660.7171, 3427.896
661.1992, 3407.419
661.6813, 3396.942
662.1635, 3405.228
662.6456, 3416.538
663.1277, 3401.699
663.6099, 3367.945
664.0920, 3341.084
664.5741, 3339.313
665.0562, 3344.723
665.5383, 3346.385
666.0204, 3343.998
666.5026, 3342.488
666.9847, 3342.338
667.4668, 3344.183
667.9489, 3350.040
668.4310, 3363.455
668.9131, 3364.067
669.3953, 3347.925
669.8774, 3326.136
670.3595, 3305.863
670.8416, 3287.270
671.3237, 3281.525
671.8058, 3291.699
672.2880, 3308.674
672.7701, 3326.216
673.2522, 3341.567
673.7343, 3347.240
674.2164, 3331.758
674.6985, 3317.508
675.1807, 3325.115
675.6628, 3345.357
676.1449, 3356.578
676.6270, 3346.498
677.1091, 3332.832
677.5912, 3315.488
678.0734, 3296.520
678.5555, 3296.143
679.0376, 3321.909
679.5197, 3350.472
680.0018, 3370.800
680.4839, 3383.509
680.9661, 3394.960
681.4482, 3404.986
681.9303, 3416.615
682.4124, 3436.818
682.8945, 3459.563
683.3766, 3473.538
683.8588, 3476.841
684.3409, 3473.475
684.8230, 3456.966
685.3051, 3439.263
685.7872, 3433.886
686.2693, 3458.260
686.7515, 3476.268
687.2336, 3470.221
687.7157, 3459.179
688.1978, 3474.633
688.6799, 3529.983
689.1620, 3575.515
689.6442, 3599.061
690.1263, 3607.481
690.6084, 3618.573
691.0905, 3632.159
691.5726, 3644.715
692.0547, 3654.951
692.5369, 3662.951
693.0190, 3668.872
693.5011, 3672.608
693.9832, 3673.614
694.4653, 3670.710
694.9474, 3665.729
695.4296, 3659.842
695.9117, 3653.266
696.3938, 3645.594
696.8759, 3646.054
697.3580, 3637.282
697.8401, 3604.920
698.3223, 3534.669
698.8044, 3494.234
699.2865, 3493.125
699.7686, 3499.230
700.2507, 3466.250
700.7328, 3404.168
701.2150, 3372.554
701.6971, 3390.181
702.1792, 3417.267
702.6613, 3407.467
703.1434, 3376.847
703.6255, 3353.125
704.1077, 3356.087
704.5898, 3357.645
705.0719, 3343.386
705.5540, 3319.906
706.0361, 3305.192
706.5182, 3303.874
707.0004, 3306.663
707.4825, 3315.134
707.9646, 3326.140
708.4467, 3321.659
708.9288, 3299.633
709.4109, 3279.086
709.8931, 3271.679
710.3752, 3273.241
710.8573, 3271.100
711.3394, 3265.858
711.8215, 3264.634
712.3036, 3280.711
712.7858, 3297.672
713.2679, 3297.324
713.7500, 3274.120
714.2321, 3259.155
714.7142, 3270.334
715.1964, 3285.986
715.6785, 3291.347
716.1606, 3284.834
716.6427, 3269.741
717.1248, 3240.827
717.6069, 3211.940
718.0891, 3200.375
718.5712, 3205.103
719.0533, 3211.878
719.5354, 3219.039
720.0175, 3225.114
720.4996, 3227.466
720.9818, 3227.547
721.4639, 3228.177
721.9460, 3233.720
722.4281, 3236.381
722.9102, 3228.849
723.3923, 3216.128
723.8745, 3209.762
724.3566, 3216.535
724.8387, 3222.955
725.3208, 3226.388
725.8029, 3227.461
726.2850, 3228.298
726.7672, 3228.467
727.2493, 3230.618
727.7314, 3237.806
728.2135, 3247.053
728.6956, 3249.602
729.1777, 3246.124
729.6599, 3242.888
730.1420, 3247.271
730.6241, 3251.208
731.1062, 3246.135
731.5883, 3231.082
732.0704, 3219.487
732.5526, 3213.712
733.0347, 3214.185
733.5168, 3222.594
733.9989, 3242.785
734.4810, 3254.031
734.9631, 3254.243
735.4453, 3250.872
735.9274, 3253.756
736.4095, 3260.719
736.8916, 3252.020
737.3737, 3222.812
737.8558, 3194.992
738.3380, 3193.003
738.8201, 3205.695
739.3022, 3217.079
739.7843, 3222.714
740.2664, 3226.867
740.7485, 3229.250
741.2307, 3231.735
741.7128, 3237.625
742.1949, 3253.449
742.6770, 3260.531
743.1591, 3254.152
743.6412, 3240.558
744.1234, 3230.918
744.6055, 3225.316
745.0876, 3224.800
745.5697, 3231.100
746.0518, 3240.742
746.5339, 3250.204
747.0161, 3258.644
747.4982, 3263.930
747.9803, 3264.030
748.4624, 3261.452
748.9445, 3256.038
749.4266, 3248.617
749.9088, 3243.399
750.3909, 3242.377
750.8730, 3241.930
751.3551, 3241.729
751.8372, 3241.601
752.3193, 3236.946
752.8015, 3226.723
753.2836, 3221.825
753.7657, 3233.729
754.2478, 3254.788
754.7299, 3268.099
755.2120, 3273.394
755.6942, 3273.107
756.1763, 3261.262
756.6584, 3249.572
757.1405, 3247.979
757.6226, 3258.640
758.1047, 3269.771
758.5869, 3285.648
759.0690, 3295.285
759.5511, 3289.326
760.0332, 3261.611
760.5153, 3249.734
760.9974, 3256.606
761.4796, 3268.195
761.9617, 3269.566
762.4438, 3264.408
762.9259, 3266.166
763.4080, 3278.945
763.8901, 3285.141
764.3723, 3257.448
764.8544, 3221.828
765.3365, 3207.748
765.8186, 3232.531
766.3007, 3259.390
766.7828, 3286.643
767.2650, 3310.357
767.7471, 3325.187
768.2292, 3328.265
768.7113, 3333.153
769.1934, 3342.293
769.6755, 3351.864
770.1577, 3357.616
770.6398, 3358.961
771.1219, 3352.058
771.6040, 3329.507
772.0861, 3310.584
772.5682, 3318.442
773.0504, 3340.004
773.5325, 3352.599
774.0146, 3341.528
774.4967, 3330.339
774.9788, 3324.341
775.4609, 3321.364
775.9431, 3316.263
776.4252, 3307.848
776.9073, 3302.090
777.3894, 3301.014
777.8715, 3303.174
778.3536, 3308.857
778.8358, 3316.124
779.3179, 3315.079
779.8000, 3290.477
780.2821, 3264.431
780.7642, 3257.159
781.2463, 3263.900
781.7285, 3268.111
782.2106, 3261.543
782.6927, 3255.059
783.1748, 3248.654
783.6569, 3244.233
784.1390, 3256.156
784.6212, 3289.303
785.1033, 3317.902
785.5854, 3329.614
786.0675, 3327.754
786.5496, 3317.518
787.0317, 3300.482
787.5139, 3287.231
787.9960, 3284.506
788.4781, 3288.166
788.9602, 3297.395
789.4423, 3311.599
789.9244, 3322.668
790.4066, 3327.606
790.8887, 3330.271
791.3708, 3331.800
791.8529, 3332.240
792.3350, 3333.996
792.8171, 3337.699
793.2993, 3339.819
793.7814, 3339.773
794.2635, 3336.094
794.7456, 3320.061
795.2277, 3292.716
795.7098, 3273.394
796.1920, 3284.212
796.6741, 3301.820
797.1562, 3308.695
797.6383, 3301.951
798.1204, 3291.209
798.6025, 3264.394
799.0847, 3249.459
799.5668, 3269.658
800.0489, 3330.510
800.5310, 3353.116
801.0131, 3332.671
801.4952, 3306.655
801.9774, 3311.894
802.4595, 3333.715
802.9416, 3343.353
803.4237, 3337.278
803.9058, 3331.419
804.3879, 3336.217
804.8701, 3344.432
805.3522, 3350.962
805.8343, 3355.606
806.3164, 3356.675
806.7985, 3350.836
807.2806, 3346.429
807.7628, 3352.802
808.2449, 3369.704
808.7270, 3376.371
809.2091, 3370.613
809.6912, 3364.014
810.1733, 3369.452
810.6555, 3380.246
811.1376, 3386.340
811.6197, 3384.808
812.1018, 3384.342
812.5839, 3392.090
813.0660, 3399.952
813.5482, 3400.383
814.0303, 3388.323
814.5124, 3381.164
814.9945, 3376.958
815.4766, 3381.916
815.9587, 3410.450
816.4409, 3456.324
816.9230, 3484.922
817.4051, 3490.785
817.8872, 3486.917
818.3693, 3472.297
818.8514, 3460.202
819.3336, 3468.293
819.8157, 3510.348
820.2978, 3545.736
820.7799, 3559.141
821.2620, 3567.707
821.7441, 3584.897
822.2263, 3612.690
822.7084, 3639.379
823.1905, 3664.165
823.6726, 3688.556
824.1547, 3714.378
824.6368, 3740.982
825.1190, 3764.934
825.6011, 3784.901
826.0832, 3807.428
826.5653, 3841.511
827.0474, 3877.561
827.5295, 3906.028
828.0117, 3925.663
828.4938, 3937.889
828.9760, 3945.503
829.4581, 3942.615
829.9402, 3921.347
830.4223, 3882.146
830.9044, 3837.283
831.3865, 3786.781
831.8687, 3736.186
832.3508, 3686.532
832.8329, 3641.622
833.3150, 3606.683
833.7971, 3584.449
834.2792, 3565.448
834.7614, 3548.193
835.2435, 3531.483
835.7256, 3514.394
836.2077, 3496.751
836.6898, 3478.149
837.1719, 3456.635
837.6541, 3439.436
838.1362, 3433.751
838.6183, 3438.841
839.1004, 3458.216
839.5825, 3495.999
840.0646, 3520.973
840.5468, 3491.723
841.0289, 3447.616
841.5110, 3427.372
841.9931, 3451.956
842.4752, 3465.895
842.9573, 3457.905
843.4395, 3447.327
843.9216, 3452.784
844.4037, 3474.973
844.8858, 3485.646
845.3679, 3481.969
845.8500, 3476.909
846.3322, 3486.884
846.8143, 3502.010
847.2964, 3506.483
847.7785, 3496.018
848.2606, 3486.472
848.7427, 3481.493
849.2249, 3482.067
849.7070, 3491.413
850.1891, 3516.388
850.6712, 3520.238
851.1533, 3497.512
851.6354, 3470.585
852.1176, 3456.720
852.5997, 3454.618
853.0818, 3464.239
853.5639, 3485.728
854.0460, 3503.668
854.5281, 3506.881
855.0103, 3501.986
855.4924, 3491.447
855.9745, 3472.492
856.4566, 3466.210
856.9387, 3481.854
857.4208, 3498.222
857.9030, 3500.170
858.3851, 3488.097
858.8672, 3490.194
859.3493, 3506.895
859.8314, 3525.615
860.3135, 3535.977
860.7957, 3543.260
861.2778, 3556.815
861.7599, 3576.919
862.2420, 3585.947
862.7241, 3565.709
863.2062, 3544.270
863.6884, 3535.814
864.1705, 3540.219
864.6526, 3537.815
865.1347, 3525.938
865.6168, 3520.537
866.0989, 3540.122
866.5811, 3570.542
867.0632, 3574.338
867.5453, 3555.701
868.0274, 3540.740
868.5095, 3546.825
868.9916, 3558.141
869.4738, 3566.383
869.9559, 3571.542
870.4380, 3579.530
870.9201, 3593.172
871.4022, 3603.248
871.8843, 3605.293
872.3665, 3601.972
872.8486, 3604.976
873.3307, 3612.455
873.8128, 3612.350
874.2949, 3583.942
874.7770, 3557.454
875.2592, 3558.217
875.7413, 3580.338
876.2234, 3604.927
876.7055, 3637.120
877.1876, 3658.780
877.6697, 3663.240
878.1519, 3656.555
878.6340, 3655.615
879.1161, 3660.177
879.5982, 3662.573
880.0803, 3660.089
880.5624, 3654.517
881.0446, 3644.385
881.5267, 3633.316
882.0088, 3628.571
882.4909, 3632.301
882.9730, 3643.251
883.4551, 3667.410
883.9373, 3695.374
884.4194, 3713.328
884.9015, 3720.402
885.3836, 3723.034
885.8657, 3721.889
886.3478, 3718.097
886.8300, 3707.062
887.3121, 3695.635
887.7942, 3700.763
888.2763, 3738.232
888.7584, 3764.629
889.2405, 3748.703
889.7227, 3718.487
890.2048, 3704.323
890.6869, 3710.493
891.1690, 3722.033
891.6511, 3740.344
892.1332, 3758.730
892.6154, 3768.568
893.0975, 3772.870
893.5796, 3781.720
894.0617, 3796.943
894.5438, 3808.876
895.0259, 3810.698
895.5081, 3806.880
895.9902, 3799.496
896.4723, 3786.873
896.9544, 3781.368
897.4365, 3786.191
897.9186, 3792.298
898.4008, 3792.705
898.8829, 3789.063
899.3650, 3790.793
899.8471, 3797.763
900.3292, 3804.801
900.8113, 3806.836
901.2935, 3808.621
901.7756, 3814.663
902.2577, 3824.816
902.7398, 3832.157
903.2219, 3831.215
903.7040, 3834.634
904.1862, 3848.668
904.6683, 3870.119
905.1504, 3884.296
905.6325, 3891.856
906.1146, 3898.770
906.5967, 3913.771
907.0789, 3924.782
907.5610, 3910.308
908.0431, 3882.322
908.5252, 3873.763
909.0073, 3915.165
909.4894, 3948.336
909.9716, 3961.733
910.4537, 3962.956
910.9358, 3968.174
911.4179, 3977.269
911.9000, 3982.208
912.3821, 3980.033
912.8643, 3975.058
913.3464, 3966.576
913.8285, 3960.169
914.3106, 3964.698
914.7927, 3991.117
915.2748, 4014.906
915.7570, 4035.603
916.2391, 4050.007
916.7212, 4050.655
917.2033, 4035.844
917.6854, 4039.229
918.1675, 4065.111
918.6497, 4098.035
919.1318, 4126.712
919.6139, 4150.517
920.0960, 4167.379
920.5781, 4175.917
921.0602, 4186.164
921.5424, 4202.906
922.0245, 4220.356
922.5066, 4233.787
922.9887, 4242.918
923.4708, 4265.706
923.9529, 4303.102
924.4351, 4338.697
924.9172, 4359.054
925.3993, 4372.335
925.8814, 4391.052
926.3635, 4413.769
926.8456, 4430.966
927.3278, 4424.470
927.8099, 4428.415
928.2920, 4459.361
928.7741, 4508.467
929.2562, 4538.146
929.7383, 4545.966
930.2205, 4567.688
930.7026, 4622.297
931.1847, 4686.260
931.6668, 4727.863
932.1489, 4753.339
932.6310, 4774.734
933.1132, 4792.154
933.5953, 4810.909
934.0774, 4830.055
934.5595, 4852.515
935.0416, 4881.904
935.5237, 4919.211
936.0059, 4957.179
936.4880, 4994.403
936.9701, 5037.106
937.4522, 5101.173
937.9343, 5172.286
938.4164, 5224.135
938.8986, 5248.736
939.3807, 5278.508
939.8628, 5329.154
940.3449, 5383.429
940.8270, 5428.083
941.3091, 5461.443
941.7913, 5518.740
942.2734, 5602.052
942.7555, 5685.849
943.2376, 5752.653
943.7197, 5810.940
944.2018, 5874.355
944.6840, 5941.137
945.1661, 5999.168
945.6482, 6027.948
946.1303, 6066.870
946.6124, 6128.850
947.0945, 6209.576
947.5767, 6298.400
948.0588, 6395.359
948.5409, 6486.592
949.0230, 6564.564
949.5051, 6638.759
949.9872, 6726.433
950.4694, 6818.600
950.9515, 6899.637
951.4336, 6956.498
951.9157, 7013.835
952.3978, 7081.838
952.8799, 7145.426
953.3621, 7185.968
953.8442, 7203.093
954.3263, 7217.888
954.8084, 7232.162
955.2905, 7243.831
955.7726, 7262.012
956.2548, 7269.841
956.7369, 7237.365
957.2190, 7152.952
957.7011, 7102.915
958.1832, 7124.462
958.6653, 7149.117
959.1475, 7144.763
959.6296, 7115.463
960.1117, 7086.595
960.5938, 7058.729
961.0759, 7040.819
961.5580, 7042.238
962.0402, 7052.159
962.5223, 7059.745
963.0044, 7068.351
963.4865, 7089.139
963.9686, 7137.186
964.4507, 7175.159
964.9329, 7191.456
965.4150, 7201.332
965.8971, 7229.038
966.3792, 7273.748
966.8613, 7334.937
967.3434, 7414.978
967.8256, 7500.485
968.3077, 7573.530
968.7898, 7648.797
969.2719, 7740.464
969.7540, 7847.106
970.2361, 7977.702
970.7183, 8133.194
971.2004, 8307.961
971.6825, 8502.021
972.1646, 8710.052
972.6467, 8906.290
973.1288, 9092.824
973.6110, 9306.961
974.0931, 9575.149
974.5752, 9869.691
975.0573, 10176.86
975.5394, 10499.75
976.0215, 10853.87
976.5037, 11250.78
976.9858, 11651.27
977.4679, 12041.56
977.9500, 12431.77
978.4321, 12824.91
978.9142, 13227.04
979.3964, 13653.67
979.8785, 14127.74
980.3606, 14598.03
980.8427, 15060.46
981.3248, 15502.56
981.8069, 15910.88
982.2891, 16289.11
982.7712, 16641.40
983.2533, 16973.59
983.7354, 17250.72
984.2175, 17454.17
984.6996, 17580.34
985.1818, 17631.42
985.6639, 17606.56
986.1460, 17474.55
986.6281, 17182.32
987.1102, 16818.21
987.5923, 16398.53
988.0745, 15933.09
988.5566, 15470.73
989.0387, 15011.34
989.5208, 14556.00
990.0029, 14102.47
990.4850, 13655.37
990.9672, 13226.79
991.4493, 12810.18
991.9314, 12396.65
992.4135, 11964.69
992.8957, 11570.59
993.3778, 11223.33
993.8599, 10899.78
994.3420, 10574.37
994.8242, 10249.68
995.3063, 9926.970
995.7884, 9604.151
996.2705, 9302.414
996.7526, 9040.527
997.2347, 8800.973
997.7169, 8567.640
998.1990, 8337.600
998.6811, 8139.312
999.1632, 7977.065
999.6453, 7816.834
1000.127, 7638.902
1000.610, 7458.713
1001.092, 7309.334
1001.574, 7183.162
1002.056, 7057.785
1002.538, 6912.170
1003.020, 6782.080
1003.502, 6686.620
1003.984, 6605.047
1004.466, 6507.788
1004.949, 6394.202
1005.431, 6293.809
1005.913, 6210.772
1006.395, 6139.587
1006.877, 6063.931
1007.359, 6004.300
1007.841, 6002.344
1008.323, 6073.689
1008.806, 6067.422
1009.288, 5919.980
1009.770, 5776.352
1010.252, 5699.632
1010.734, 5671.850
1011.216, 5623.327
1011.698, 5558.120
1012.180, 5500.358
1012.662, 5471.039
1013.145, 5442.236
1013.627, 5395.938
1014.109, 5340.357
1014.591, 5289.859
1015.073, 5245.477
1015.555, 5206.197
1016.037, 5174.441
1016.519, 5140.241
1017.002, 5090.740
1017.484, 5032.211
1017.966, 4971.890
1018.448, 4909.837
1018.930, 4862.098
1019.412, 4855.177
1019.894, 4842.297
1020.376, 4798.916
1020.858, 4732.067
1021.341, 4683.686
1021.823, 4653.176
1022.305, 4622.558
1022.787, 4583.743
1023.269, 4541.727
1023.751, 4498.399
1024.233, 4455.758
1024.715, 4417.852
1025.198, 4381.499
1025.680, 4356.643
1026.162, 4345.799
1026.644, 4341.753
1027.126, 4340.837
1027.608, 4339.825
1028.090, 4325.511
1028.572, 4297.104
1029.054, 4273.785
1029.536, 4277.033
1030.019, 4278.238
1030.501, 4257.196
1030.983, 4219.368
1031.465, 4198.235
1031.947, 4196.049
1032.429, 4186.632
1032.911, 4157.955
1033.393, 4123.776
1033.876, 4100.375
1034.358, 4083.753
1034.840, 4067.462
1035.322, 4049.029
1035.804, 4031.927
1036.286, 4012.628
1036.768, 4000.059
1037.250, 4008.097
1037.733, 4031.286
1038.215, 4035.628
1038.697, 4020.956
1039.179, 4004.661
1039.661, 3995.463
1040.143, 3989.582
1040.625, 3986.409
1041.107, 3984.635
1041.589, 3979.649
1042.072, 3971.044
1042.554, 3960.461
1043.036, 3946.610
1043.518, 3935.549
1044.000, 3941.346
1044.482, 3953.218
1044.964, 3952.045
1045.446, 3926.774
1045.928, 3910.299
1046.411, 3912.665
1046.893, 3919.344
1047.375, 3923.004
1047.857, 3923.517
1048.339, 3917.130
1048.821, 3905.067
1049.303, 3898.776
1049.785, 3910.161
1050.268, 3924.085
1050.750, 3934.170
1051.232, 3939.505
1051.714, 3938.627
1052.196, 3929.100
1052.678, 3924.244
1053.160, 3927.563
1053.642, 3929.485
1054.125, 3914.336
1054.607, 3892.461
1055.089, 3880.361
1055.571, 3881.206
1056.053, 3880.786
1056.535, 3867.000
1057.017, 3862.896
1057.499, 3883.603
1057.981, 3919.281
1058.464, 3928.426
1058.946, 3914.565
1059.428, 3897.335
1059.910, 3875.319
1060.392, 3867.326
1060.874, 3899.649
1061.356, 3945.863
1061.838, 3968.863
1062.320, 3960.474
1062.803, 3958.137
1063.285, 3963.647
1063.767, 3970.996
1064.249, 3975.219
1064.731, 3977.874
1065.213, 3982.368
1065.695, 3987.983
1066.177, 3988.449
1066.660, 3966.779
1067.142, 3962.898
1067.624, 3993.548
1068.106, 4037.845
1068.588, 4050.448
1069.070, 4037.759
1069.552, 4024.585
1070.034, 4015.916
1070.516, 4011.967
1070.999, 4013.795
1071.481, 4020.154
1071.963, 4034.228
1072.445, 4057.233
1072.927, 4049.241
1073.409, 4007.990
1073.891, 3976.014
1074.373, 3989.880
1074.855, 4015.702
1075.338, 4016.673
1075.820, 4000.196
1076.302, 3982.514
1076.784, 3958.419
1077.266, 3949.477
1077.748, 3962.180
1078.230, 3979.428
1078.713, 3981.420
1079.195, 3972.947
1079.677, 3964.073
1080.159, 3956.086
1080.641, 3954.082
1081.123, 3963.798
1081.605, 3977.136
1082.087, 3994.207
1082.569, 4010.872
1083.052, 4010.299
1083.534, 3993.347
1084.016, 3977.279
1084.498, 3966.839
1084.980, 3958.515
1085.462, 3948.585
1085.944, 3939.479
1086.426, 3934.337
1086.908, 3934.207
1087.391, 3934.046
1087.873, 3934.221
1088.355, 3933.005
1088.837, 3927.213
1089.319, 3920.657
1089.801, 3921.665
1090.283, 3927.329
1090.765, 3929.277
1091.248, 3924.782
1091.730, 3914.791
1092.212, 3893.790
1092.694, 3875.779
1093.176, 3884.109
1093.658, 3911.011
1094.140, 3921.496
1094.622, 3912.348
1095.104, 3907.062
1095.587, 3929.281
1096.069, 3949.174
1096.551, 3947.198
1097.033, 3930.364
1097.515, 3926.664
1097.997, 3936.417
1098.479, 3941.598
1098.961, 3935.948
1099.443, 3927.072
1099.926, 3916.115
1100.408, 3909.456
1100.890, 3916.817
1101.372, 3945.563
1101.854, 3960.733
1102.336, 3959.754
1102.818, 3953.720
1103.300, 3946.204
1103.783, 3939.910
1104.265, 3940.724
1104.747, 3946.827
1105.229, 3953.211
1105.711, 3960.086
1106.193, 3964.338
1106.675, 3963.803
1107.157, 3963.862
1107.640, 3969.713
1108.122, 3981.184
1108.604, 4000.439
1109.086, 4026.907
1109.568, 4049.076
1110.050, 4052.527
1110.532, 4058.264
1111.014, 4079.730
1111.496, 4109.575
1111.979, 4125.214
1112.461, 4126.682
1112.943, 4138.710
1113.425, 4169.684
1113.907, 4198.329
1114.389, 4189.219
1114.871, 4179.779
1115.353, 4213.456
1115.835, 4298.629
1116.318, 4362.186
1116.800, 4401.523
1117.282, 4432.313
1117.764, 4458.796
1118.246, 4485.846
1118.728, 4515.792
1119.210, 4552.884
1119.692, 4605.787
1120.175, 4695.002
1120.657, 4768.426
1121.139, 4816.703
1121.621, 4866.015
1122.103, 4943.316
1122.585, 5037.621
1123.067, 5120.128
1123.549, 5190.952
1124.031, 5255.398
1124.514, 5312.843
1124.996, 5366.472
1125.478, 5416.165
1125.960, 5463.298
1126.442, 5514.516
1126.924, 5567.274
1127.406, 5601.287
1127.888, 5612.927
1128.370, 5621.674
1128.853, 5640.422
1129.335, 5660.346
1129.817, 5675.981
1130.299, 5687.832
1130.781, 5695.202
1131.263, 5697.463
1131.745, 5716.112
1132.227, 5764.801
1132.710, 5810.746
1133.192, 5818.381
1133.674, 5807.984
1134.156, 5804.098
1134.638, 5813.513
1135.120, 5799.969
1135.602, 5759.509
1136.084, 5718.546
1136.567, 5699.447
1137.049, 5680.404
1137.531, 5629.210
1138.013, 5553.307
1138.495, 5468.538
1138.977, 5371.107
1139.459, 5277.321
1139.941, 5190.302
1140.423, 5101.852
1140.906, 4998.038
1141.388, 4890.170
1141.870, 4814.964
1142.352, 4765.683
1142.834, 4704.864
1143.316, 4598.732
1143.798, 4503.099
1144.280, 4429.435
1144.762, 4370.842
1145.245, 4316.995
1145.727, 4268.075
1146.209, 4226.313
1146.691, 4191.555
1147.173, 4156.861
1147.655, 4117.616
1148.137, 4077.976
1148.619, 4037.849
1149.102, 3999.820
1149.584, 3973.703
1150.066, 3958.680
1150.548, 3942.330
1151.030, 3918.848
1151.512, 3901.983
1151.994, 3911.210
1152.476, 3923.969
1152.958, 3920.045
1153.441, 3899.273
1153.923, 3881.325
1154.405, 3866.159
1154.887, 3853.741
1155.369, 3845.664
1155.851, 3838.088
1156.333, 3827.706
1156.815, 3815.428
1157.297, 3802.337
1157.780, 3786.635
1158.262, 3776.835
1158.744, 3773.592
1159.226, 3772.093
1159.708, 3767.017
1160.190, 3763.074
1160.672, 3772.280
1161.154, 3787.211
1161.637, 3784.516
1162.119, 3741.489
1162.601, 3728.364
1163.083, 3757.845
1163.565, 3794.602
1164.047, 3803.855
1164.529, 3794.609
1165.011, 3774.917
1165.494, 3747.752
1165.976, 3731.938
1166.458, 3739.486
1166.940, 3743.975
1167.422, 3737.194
1167.904, 3730.710
1168.386, 3751.737
1168.868, 3784.707
1169.350, 3791.722
1169.833, 3764.185
1170.315, 3749.629
1170.797, 3775.687
1171.279, 3801.273
1171.761, 3813.237
1172.243, 3815.745
1172.725, 3820.069
1173.207, 3824.280
1173.689, 3822.017
1174.172, 3810.035
1174.654, 3796.525
1175.136, 3777.572
1175.618, 3766.136
1176.100, 3771.243
1176.582, 3789.592
1177.064, 3807.395
1177.546, 3823.330
1178.029, 3829.954
1178.511, 3820.690
1178.993, 3807.044
1179.475, 3789.618
1179.957, 3773.657
1180.439, 3762.813
1180.921, 3757.020
1181.403, 3763.644
1181.885, 3780.752
1182.368, 3789.285
1182.850, 3766.920
1183.332, 3744.925
1183.814, 3741.263
1184.296, 3746.040
1184.778, 3746.356
1185.260, 3742.180
1185.742, 3734.444
1186.224, 3723.359
1186.707, 3717.840
1187.189, 3729.676
1187.671, 3743.881
1188.153, 3753.050
1188.635, 3756.744
1189.117, 3754.614
1189.599, 3746.585
1190.081, 3731.492
1190.564, 3707.893
1191.046, 3691.301
1191.528, 3698.377
1192.010, 3714.915
1192.492, 3736.993
1192.974, 3759.482
1193.456, 3754.495
1193.938, 3718.545
1194.421, 3703.546
1194.903, 3727.023
1195.385, 3751.535
1195.867, 3736.575
1196.349, 3707.955
1196.831, 3688.065
1197.313, 3678.575
1197.795, 3678.772
1198.277, 3689.194
1198.760, 3706.051
1199.242, 3732.994
1199.724, 3754.198
1200.206, 3745.010
1200.688, 3724.319
1201.170, 3717.701
1201.652, 3730.257
1202.134, 3726.573
1202.616, 3703.476
1203.099, 3687.433
1203.581, 3694.721
1204.063, 3710.600
1204.545, 3721.886
1205.027, 3728.964
1205.509, 3731.182
1205.991, 3725.800
1206.473, 3728.289
1206.956, 3741.023
1207.438, 3747.333
1207.920, 3727.746
1208.402, 3703.094
1208.884, 3699.008
1209.366, 3706.736
1209.848, 3707.070
1210.330, 3695.188
1210.813, 3684.211
1211.295, 3673.763
1211.777, 3669.356
1212.259, 3679.712
1212.741, 3695.500
1213.223, 3710.801
1213.705, 3722.640
1214.187, 3719.876
1214.669, 3693.918
1215.151, 3682.361
1215.634, 3691.283
1216.116, 3702.574
1216.598, 3692.934
1217.080, 3680.632
1217.562, 3692.685
1218.044, 3723.370
1218.526, 3733.642
1219.008, 3711.899
1219.491, 3702.849
1219.973, 3714.964
1220.455, 3733.045
1220.937, 3741.632
1221.419, 3745.778
1221.901, 3753.753
1222.383, 3764.479
1222.865, 3760.375
1223.348, 3736.575
1223.830, 3716.183
1224.312, 3704.334
1224.794, 3698.301
1225.276, 3696.952
1225.758, 3698.448
1226.240, 3702.022
1226.722, 3707.640
1227.204, 3707.776
1227.687, 3690.814
1228.169, 3712.174
1228.651, 3724.188
1229.133, 3727.358
1229.615, 3695.198
1230.097, 3708.660
1230.579, 3703.839
1231.061, 3698.268
1231.543, 3718.151
1232.026, 3691.130
1232.508, 3710.609
1232.990, 3711.526
1233.472, 3720.939
1233.954, 3711.956
1234.436, 3708.654
1234.918, 3723.755
1235.400, 3728.666
1235.883, 3717.565
1236.365, 3727.518
1236.847, 3699.854
1237.329, 3705.199
1237.811, 3724.786
1238.293, 3714.610
1238.775, 3724.899
1239.257, 3727.394
1239.740, 3694.468
1240.222, 3723.143
1240.704, 3725.177
1241.186, 3717.504
1241.668, 3720.103
1242.150, 3711.905
1242.632, 3687.504
1243.114, 3658.129
1243.596, 3638.018
1244.079, 3626.073
1244.561, 3637.642
1245.043, 3672.898
1245.525, 3696.798
1246.007, 3668.808
1246.489, 3641.922
1246.971, 3661.080
1247.453, 3699.583
1247.936, 3716.930
1248.418, 3710.972
1248.900, 3713.235
1249.382, 3723.938
1249.864, 3731.079
1250.346, 3723.887
1250.828, 3713.749
1251.310, 3704.465
1251.792, 3697.695
1252.275, 3696.482
1252.757, 3700.645
1253.239, 3706.204
1253.721, 3712.662
1254.203, 3713.976
1254.685, 3700.244
1255.167, 3687.740
1255.649, 3683.104
1256.131, 3684.885
1256.614, 3694.504
1257.096, 3710.284
1257.578, 3718.230
1258.060, 3717.862
1258.542, 3717.484
1259.024, 3725.772
1259.506, 3729.095
1259.988, 3719.656
1260.471, 3707.124
1260.953, 3705.761
1261.435, 3713.596
1261.917, 3726.561
1262.399, 3743.424
1262.881, 3752.562
1263.363, 3738.635
1263.845, 3730.421
1264.328, 3738.336
1264.810, 3750.197
1265.292, 3744.567
1265.774, 3729.159
1266.256, 3723.505
1266.738, 3729.022
1267.220, 3733.615
1267.702, 3726.940
1268.184, 3732.286
1268.667, 3760.789
1269.149, 3789.880
1269.631, 3779.472
1270.113, 3749.411
1270.595, 3731.394
1271.077, 3728.989
1271.559, 3730.640
1272.041, 3737.312
1272.523, 3739.958
1273.006, 3735.072
1273.488, 3730.074
1273.970, 3740.027
1274.452, 3752.672
1274.934, 3748.598
1275.416, 3726.715
1275.898, 3721.307
1276.380, 3737.798
1276.863, 3748.181
1277.345, 3744.195
1277.827, 3735.804
1278.309, 3728.957
1278.791, 3726.855
1279.273, 3736.743
1279.755, 3756.476
1280.237, 3764.332
1280.719, 3759.584
1281.202, 3753.581
1281.684, 3749.808
1282.166, 3742.650
1282.648, 3715.793
1283.130, 3693.973
1283.612, 3702.444
1284.094, 3732.714
1284.576, 3744.453
1285.058, 3739.585
1285.541, 3736.545
1286.023, 3739.379
1286.505, 3748.071
1286.987, 3776.768
1287.469, 3794.797
1287.951, 3778.929
1288.433, 3744.180
1288.915, 3744.171
1289.398, 3769.387
1289.880, 3782.323
1290.362, 3770.659
1290.844, 3761.906
1291.326, 3769.498
##END=



