##NAMES=Zeophyllite
##RRUFFID=R060150
##IDEAL CHEMISTRY=Ca_13_Si_10_O_28_(OH)_2_F_8_&#183;6H_2_O
##LOCALITY=Radzein, near Teplitz, Bohemia, Czech Republic
##OWNER=RRUFF
##SOURCE=University of Arizona Mineral Museum
##DESCRIPTION=Spherical aggregates of white platy crystals
##STATUS=The identification of this mineral has been confirmed by X-ray diffraction and chemical analysis
##URL=rruff.info/R060150
##MEASURED CHEMISTRY=(Ca_12.67_Al_0.33_)_Σ=13_(Si_9.67_Al_0.33_)_10_O_28_F_10_·6H_2_O
8.930109e+001, 0.000000e+000
8.978320e+001, 3.133316e+005
9.026532e+001, 3.124698e+005
9.074744e+001, 3.127081e+005
9.122955e+001, 3.145985e+005
9.171167e+001, 3.171780e+005
9.219379e+001, 3.190908e+005
9.267590e+001, 3.205558e+005
9.315802e+001, 3.216063e+005
9.364014e+001, 3.221868e+005
9.412225e+001, 3.224246e+005
9.460437e+001, 3.224963e+005
9.508649e+001, 3.224436e+005
9.556860e+001, 3.221797e+005
9.605072e+001, 3.217585e+005
9.653284e+001, 3.214474e+005
9.701495e+001, 3.212428e+005
9.749707e+001, 3.210453e+005
9.797919e+001, 3.208381e+005
9.846130e+001, 3.207067e+005
9.894342e+001, 3.206635e+005
9.942554e+001, 3.207078e+005
9.990765e+001, 3.208613e+005
1.003898e+002, 3.211322e+005
1.008719e+002, 3.214861e+005
1.013540e+002, 3.218966e+005
1.018361e+002, 3.223925e+005
1.023182e+002, 3.228428e+005
1.028004e+002, 3.232002e+005
1.032825e+002, 3.234398e+005
1.037646e+002, 3.237613e+005
1.042467e+002, 3.241846e+005
1.047288e+002, 3.247003e+005
1.052109e+002, 3.252741e+005
1.056931e+002, 3.259358e+005
1.061752e+002, 3.266596e+005
1.066573e+002, 3.274601e+005
1.071394e+002, 3.284369e+005
1.076215e+002, 3.293632e+005
1.081036e+002, 3.302709e+005
1.085858e+002, 3.311586e+005
1.090679e+002, 3.319531e+005
1.095500e+002, 3.326098e+005
1.100321e+002, 3.332356e+005
1.105142e+002, 3.338846e+005
1.109963e+002, 3.346567e+005
1.114785e+002, 3.353588e+005
1.119606e+002, 3.359592e+005
1.124427e+002, 3.364645e+005
1.129248e+002, 3.369425e+005
1.134069e+002, 3.373605e+005
1.138890e+002, 3.377771e+005
1.143712e+002, 3.382446e+005
1.148533e+002, 3.389044e+005
1.153354e+002, 3.394938e+005
1.158175e+002, 3.399002e+005
1.162996e+002, 3.401115e+005
1.167817e+002, 3.403182e+005
1.172639e+002, 3.405743e+005
1.177460e+002, 3.408701e+005
1.182281e+002, 3.411925e+005
1.187102e+002, 3.415616e+005
1.191923e+002, 3.419343e+005
1.196744e+002, 3.422614e+005
1.201566e+002, 3.425146e+005
1.206387e+002, 3.428040e+005
1.211208e+002, 3.432005e+005
1.216029e+002, 3.436709e+005
1.220850e+002, 3.441515e+005
1.225671e+002, 3.446085e+005
1.230493e+002, 3.450454e+005
1.235314e+002, 3.454673e+005
1.240135e+002, 3.458723e+005
1.244956e+002, 3.462378e+005
1.249777e+002, 3.464858e+005
1.254598e+002, 3.466438e+005
1.259420e+002, 3.468349e+005
1.264241e+002, 3.471325e+005
1.269062e+002, 3.475098e+005
1.273883e+002, 3.479273e+005
1.278704e+002, 3.483835e+005
1.283525e+002, 3.488587e+005
1.288347e+002, 3.493001e+005
1.293168e+002, 3.497133e+005
1.297989e+002, 3.501788e+005
1.302810e+002, 3.507975e+005
1.307631e+002, 3.515343e+005
1.312452e+002, 3.522742e+005
1.317274e+002, 3.530074e+005
1.322095e+002, 3.537202e+005
1.326916e+002, 3.544010e+005
1.331737e+002, 3.550696e+005
1.336558e+002, 3.556216e+005
1.341379e+002, 3.559606e+005
1.346201e+002, 3.560908e+005
1.351022e+002, 3.561062e+005
1.355843e+002, 3.560037e+005
1.360664e+002, 3.558013e+005
1.365485e+002, 3.556244e+005
1.370306e+002, 3.554742e+005
1.375128e+002, 3.553459e+005
1.379949e+002, 3.552166e+005
1.384770e+002, 3.550736e+005
1.389591e+002, 3.549866e+005
1.394412e+002, 3.549847e+005
1.399233e+002, 3.550699e+005
1.404055e+002, 3.551540e+005
1.408876e+002, 3.552274e+005
1.413697e+002, 3.552962e+005
1.418518e+002, 3.553716e+005
1.423339e+002, 3.554431e+005
1.428160e+002, 3.555317e+005
1.432982e+002, 3.556403e+005
1.437803e+002, 3.557572e+005
1.442624e+002, 3.559309e+005
1.447445e+002, 3.561929e+005
1.452266e+002, 3.565039e+005
1.457087e+002, 3.567577e+005
1.461909e+002, 3.569218e+005
1.466730e+002, 3.570834e+005
1.471551e+002, 3.572827e+005
1.476372e+002, 3.575519e+005
1.481193e+002, 3.578115e+005
1.486014e+002, 3.580588e+005
1.490836e+002, 3.583010e+005
1.495657e+002, 3.585665e+005
1.500478e+002, 3.588625e+005
1.505299e+002, 3.591718e+005
1.510120e+002, 3.594883e+005
1.514941e+002, 3.597387e+005
1.519763e+002, 3.600710e+005
1.524584e+002, 3.605771e+005
1.529405e+002, 3.611988e+005
1.534226e+002, 3.616634e+005
1.539047e+002, 3.617768e+005
1.543868e+002, 3.618357e+005
1.548690e+002, 3.620002e+005
1.553511e+002, 3.624129e+005
1.558332e+002, 3.627972e+005
1.563153e+002, 3.630848e+005
1.567974e+002, 3.632899e+005
1.572795e+002, 3.635260e+005
1.577617e+002, 3.638426e+005
1.582438e+002, 3.641917e+005
1.587259e+002, 3.645389e+005
1.592080e+002, 3.648522e+005
1.596901e+002, 3.651956e+005
1.601722e+002, 3.656119e+005
1.606544e+002, 3.660992e+005
1.611365e+002, 3.665701e+005
1.616186e+002, 3.669636e+005
1.621007e+002, 3.673358e+005
1.625828e+002, 3.677479e+005
1.630649e+002, 3.682639e+005
1.635471e+002, 3.687753e+005
1.640292e+002, 3.692184e+005
1.645113e+002, 3.695881e+005
1.649934e+002, 3.699568e+005
1.654755e+002, 3.703826e+005
1.659576e+002, 3.708182e+005
1.664398e+002, 3.712013e+005
1.669219e+002, 3.714475e+005
1.674040e+002, 3.716758e+005
1.678861e+002, 3.719662e+005
1.683682e+002, 3.723264e+005
1.688503e+002, 3.726967e+005
1.693325e+002, 3.730548e+005
1.698146e+002, 3.734001e+005
1.702967e+002, 3.737265e+005
1.707788e+002, 3.740077e+005
1.712609e+002, 3.742924e+005
1.717430e+002, 3.746446e+005
1.722252e+002, 3.750824e+005
1.727073e+002, 3.754935e+005
1.731894e+002, 3.757496e+005
1.736715e+002, 3.759113e+005
1.741536e+002, 3.761047e+005
1.746357e+002, 3.764162e+005
1.751179e+002, 3.767863e+005
1.756000e+002, 3.771570e+005
1.760821e+002, 3.775251e+005
1.765642e+002, 3.778631e+005
1.770463e+002, 3.781146e+005
1.775284e+002, 3.783063e+005
1.780106e+002, 3.785172e+005
1.784927e+002, 3.788290e+005
1.789748e+002, 3.791811e+005
1.794569e+002, 3.794514e+005
1.799390e+002, 3.796179e+005
1.804211e+002, 3.797649e+005
1.809033e+002, 3.799980e+005
1.813854e+002, 3.803078e+005
1.818675e+002, 3.806327e+005
1.823496e+002, 3.809385e+005
1.828317e+002, 3.812354e+005
1.833138e+002, 3.815632e+005
1.837960e+002, 3.819255e+005
1.842781e+002, 3.823099e+005
1.847602e+002, 3.826980e+005
1.852423e+002, 3.830905e+005
1.857244e+002, 3.834734e+005
1.862065e+002, 3.838427e+005
1.866887e+002, 3.841945e+005
1.871708e+002, 3.845154e+005
1.876529e+002, 3.847815e+005
1.881350e+002, 3.850516e+005
1.886171e+002, 3.854439e+005
1.890992e+002, 3.859570e+005
1.895814e+002, 3.864657e+005
1.900635e+002, 3.868640e+005
1.905456e+002, 3.871791e+005
1.910277e+002, 3.875754e+005
1.915098e+002, 3.881124e+005
1.919919e+002, 3.886832e+005
1.924741e+002, 3.890312e+005
1.929562e+002, 3.891474e+005
1.934383e+002, 3.892256e+005
1.939204e+002, 3.893783e+005
1.944025e+002, 3.896033e+005
1.948846e+002, 3.898710e+005
1.953668e+002, 3.901786e+005
1.958489e+002, 3.905238e+005
1.963310e+002, 3.909263e+005
1.968131e+002, 3.913964e+005
1.972952e+002, 3.918349e+005
1.977773e+002, 3.921729e+005
1.982595e+002, 3.924063e+005
1.987416e+002, 3.926100e+005
1.992237e+002, 3.927770e+005
1.997058e+002, 3.929325e+005
2.001879e+002, 3.931597e+005
2.006700e+002, 3.934837e+005
2.011522e+002, 3.937915e+005
2.016343e+002, 3.939941e+005
2.021164e+002, 3.940817e+005
2.025985e+002, 3.941899e+005
2.030806e+002, 3.943390e+005
2.035627e+002, 3.945163e+005
2.040449e+002, 3.946840e+005
2.045270e+002, 3.948432e+005
2.050091e+002, 3.949799e+005
2.054912e+002, 3.950719e+005
2.059733e+002, 3.951061e+005
2.064554e+002, 3.951609e+005
2.069376e+002, 3.952395e+005
2.074197e+002, 3.953457e+005
2.079018e+002, 3.955074e+005
2.083839e+002, 3.957438e+005
2.088660e+002, 3.959932e+005
2.093481e+002, 3.962033e+005
2.098303e+002, 3.963602e+005
2.103124e+002, 3.965694e+005
2.107945e+002, 3.968546e+005
2.112766e+002, 3.972048e+005
2.117587e+002, 3.975763e+005
2.122408e+002, 3.979738e+005
2.127230e+002, 3.983901e+005
2.132051e+002, 3.988237e+005
2.136872e+002, 3.992726e+005
2.141693e+002, 3.997321e+005
2.146514e+002, 4.001892e+005
2.151335e+002, 4.006456e+005
2.156157e+002, 4.011177e+005
2.160978e+002, 4.016262e+005
2.165799e+002, 4.020952e+005
2.170620e+002, 4.024673e+005
2.175441e+002, 4.027012e+005
2.180262e+002, 4.029442e+005
2.185084e+002, 4.032203e+005
2.189905e+002, 4.035187e+005
2.194726e+002, 4.037586e+005
2.199547e+002, 4.038972e+005
2.204368e+002, 4.040654e+005
2.209189e+002, 4.043652e+005
2.214011e+002, 4.048790e+005
2.218832e+002, 4.053352e+005
2.223653e+002, 4.057080e+005
2.228474e+002, 4.060153e+005
2.233295e+002, 4.063439e+005
2.238116e+002, 4.067068e+005
2.242938e+002, 4.070648e+005
2.247759e+002, 4.073779e+005
2.252580e+002, 4.075823e+005
2.257401e+002, 4.078932e+005
2.262222e+002, 4.083800e+005
2.267043e+002, 4.089799e+005
2.271865e+002, 4.094588e+005
2.276686e+002, 4.097714e+005
2.281507e+002, 4.100094e+005
2.286328e+002, 4.102103e+005
2.291149e+002, 4.103464e+005
2.295970e+002, 4.105106e+005
2.300792e+002, 4.107283e+005
2.305613e+002, 4.109815e+005
2.310434e+002, 4.111737e+005
2.315255e+002, 4.112278e+005
2.320076e+002, 4.113441e+005
2.324897e+002, 4.116495e+005
2.329719e+002, 4.122606e+005
2.334540e+002, 4.128137e+005
2.339361e+002, 4.132852e+005
2.344182e+002, 4.136986e+005
2.349003e+002, 4.141335e+005
2.353824e+002, 4.145934e+005
2.358646e+002, 4.150709e+005
2.363467e+002, 4.155504e+005
2.368288e+002, 4.159814e+005
2.373109e+002, 4.165238e+005
2.377930e+002, 4.172372e+005
2.382751e+002, 4.180482e+005
2.387573e+002, 4.187164e+005
2.392394e+002, 4.191676e+005
2.397215e+002, 4.195643e+005
2.402036e+002, 4.199799e+005
2.406857e+002, 4.204323e+005
2.411678e+002, 4.208496e+005
2.416500e+002, 4.212517e+005
2.421321e+002, 4.216067e+005
2.426142e+002, 4.218263e+005
2.430963e+002, 4.218088e+005
2.435784e+002, 4.218043e+005
2.440605e+002, 4.219371e+005
2.445427e+002, 4.223124e+005
2.450248e+002, 4.225575e+005
2.455069e+002, 4.226174e+005
2.459890e+002, 4.225755e+005
2.464711e+002, 4.226157e+005
2.469532e+002, 4.228001e+005
2.474354e+002, 4.229781e+005
2.479175e+002, 4.230897e+005
2.483996e+002, 4.231141e+005
2.488817e+002, 4.231631e+005
2.493638e+002, 4.232366e+005
2.498459e+002, 4.233451e+005
2.503281e+002, 4.235108e+005
2.508102e+002, 4.237658e+005
2.512923e+002, 4.240354e+005
2.517744e+002, 4.243069e+005
2.522565e+002, 4.245898e+005
2.527386e+002, 4.248291e+005
2.532208e+002, 4.249799e+005
2.537029e+002, 4.251211e+005
2.541850e+002, 4.253904e+005
2.546671e+002, 4.258558e+005
2.551492e+002, 4.263057e+005
2.556313e+002, 4.266511e+005
2.561135e+002, 4.268583e+005
2.565956e+002, 4.271405e+005
2.570777e+002, 4.275163e+005
2.575598e+002, 4.279284e+005
2.580419e+002, 4.283002e+005
2.585240e+002, 4.286107e+005
2.590062e+002, 4.289012e+005
2.594883e+002, 4.291768e+005
2.599704e+002, 4.294298e+005
2.604525e+002, 4.296986e+005
2.609346e+002, 4.299961e+005
2.614167e+002, 4.302913e+005
2.618989e+002, 4.305493e+005
2.623810e+002, 4.307658e+005
2.628631e+002, 4.309663e+005
2.633452e+002, 4.311464e+005
2.638273e+002, 4.313149e+005
2.643094e+002, 4.315634e+005
2.647916e+002, 4.319449e+005
2.652737e+002, 4.323486e+005
2.657558e+002, 4.326487e+005
2.662379e+002, 4.327863e+005
2.667200e+002, 4.330400e+005
2.672021e+002, 4.335403e+005
2.676843e+002, 4.342378e+005
2.681664e+002, 4.346233e+005
2.686485e+002, 4.345698e+005
2.691306e+002, 4.344563e+005
2.696127e+002, 4.345964e+005
2.700948e+002, 4.350201e+005
2.705770e+002, 4.355368e+005
2.710591e+002, 4.361368e+005
2.715412e+002, 4.367893e+005
2.720233e+002, 4.373873e+005
2.725054e+002, 4.379169e+005
2.729875e+002, 4.383839e+005
2.734697e+002, 4.387707e+005
2.739518e+002, 4.390643e+005
2.744339e+002, 4.393759e+005
2.749160e+002, 4.397281e+005
2.753981e+002, 4.401012e+005
2.758802e+002, 4.404398e+005
2.763624e+002, 4.407346e+005
2.768445e+002, 4.410269e+005
2.773266e+002, 4.413599e+005
2.778087e+002, 4.417433e+005
2.782908e+002, 4.420551e+005
2.787729e+002, 4.422653e+005
2.792551e+002, 4.424291e+005
2.797372e+002, 4.426893e+005
2.802193e+002, 4.430718e+005
2.807014e+002, 4.434001e+005
2.811835e+002, 4.435393e+005
2.816656e+002, 4.434944e+005
2.821478e+002, 4.435449e+005
2.826299e+002, 4.437148e+005
2.831120e+002, 4.439588e+005
2.835941e+002, 4.442128e+005
2.840762e+002, 4.444787e+005
2.845583e+002, 4.447376e+005
2.850405e+002, 4.449676e+005
2.855226e+002, 4.451755e+005
2.860047e+002, 4.454457e+005
2.864868e+002, 4.457948e+005
2.869689e+002, 4.461474e+005
2.874510e+002, 4.463699e+005
2.879332e+002, 4.464688e+005
2.884153e+002, 4.466147e+005
2.888974e+002, 4.469046e+005
2.893795e+002, 4.472918e+005
2.898616e+002, 4.475898e+005
2.903438e+002, 4.477893e+005
2.908259e+002, 4.479543e+005
2.913080e+002, 4.481646e+005
2.917901e+002, 4.484060e+005
2.922722e+002, 4.486098e+005
2.927543e+002, 4.487365e+005
2.932365e+002, 4.488159e+005
2.937186e+002, 4.489159e+005
2.942007e+002, 4.490354e+005
2.946828e+002, 4.491621e+005
2.951649e+002, 4.492716e+005
2.956470e+002, 4.493760e+005
2.961292e+002, 4.495286e+005
2.966113e+002, 4.497752e+005
2.970934e+002, 4.500409e+005
2.975755e+002, 4.502034e+005
2.980576e+002, 4.502698e+005
2.985397e+002, 4.503053e+005
2.990219e+002, 4.503263e+005
2.995040e+002, 4.503582e+005
2.999861e+002, 4.504553e+005
3.004682e+002, 4.506401e+005
3.009503e+002, 4.508793e+005
3.014324e+002, 4.511562e+005
3.019146e+002, 4.514640e+005
3.023967e+002, 4.517752e+005
3.028788e+002, 4.520527e+005
3.033609e+002, 4.523298e+005
3.038430e+002, 4.526505e+005
3.043251e+002, 4.530251e+005
3.048073e+002, 4.534237e+005
3.052894e+002, 4.538190e+005
3.057715e+002, 4.542132e+005
3.062536e+002, 4.546274e+005
3.067357e+002, 4.550693e+005
3.072178e+002, 4.555228e+005
3.077000e+002, 4.559654e+005
3.081821e+002, 4.563883e+005
3.086642e+002, 4.567945e+005
3.091463e+002, 4.571758e+005
3.096284e+002, 4.575355e+005
3.101105e+002, 4.578878e+005
3.105927e+002, 4.582556e+005
3.110748e+002, 4.585968e+005
3.115569e+002, 4.588732e+005
3.120390e+002, 4.590852e+005
3.125211e+002, 4.592961e+005
3.130032e+002, 4.595829e+005
3.134854e+002, 4.598832e+005
3.139675e+002, 4.601262e+005
3.144496e+002, 4.602411e+005
3.149317e+002, 4.603481e+005
3.154138e+002, 4.605061e+005
3.158959e+002, 4.607154e+005
3.163781e+002, 4.609548e+005
3.168602e+002, 4.612615e+005
3.173423e+002, 4.615744e+005
3.178244e+002, 4.618477e+005
3.183065e+002, 4.620576e+005
3.187886e+002, 4.622502e+005
3.192708e+002, 4.623755e+005
3.197529e+002, 4.624834e+005
3.202350e+002, 4.627175e+005
3.207171e+002, 4.632278e+005
3.211992e+002, 4.637826e+005
3.216813e+002, 4.642701e+005
3.221635e+002, 4.646623e+005
3.226456e+002, 4.649968e+005
3.231277e+002, 4.652231e+005
3.236098e+002, 4.653975e+005
3.240919e+002, 4.656172e+005
3.245740e+002, 4.658949e+005
3.250562e+002, 4.662133e+005
3.255383e+002, 4.665948e+005
3.260204e+002, 4.670830e+005
3.265025e+002, 4.674620e+005
3.269846e+002, 4.676348e+005
3.274667e+002, 4.677323e+005
3.279489e+002, 4.678968e+005
3.284310e+002, 4.682399e+005
3.289131e+002, 4.685428e+005
3.293952e+002, 4.687771e+005
3.298773e+002, 4.689468e+005
3.303594e+002, 4.690848e+005
3.308416e+002, 4.691467e+005
3.313237e+002, 4.692172e+005
3.318058e+002, 4.693561e+005
3.322879e+002, 4.695962e+005
3.327700e+002, 4.698428e+005
3.332521e+002, 4.700623e+005
3.337343e+002, 4.702751e+005
3.342164e+002, 4.706081e+005
3.346985e+002, 4.711291e+005
3.351806e+002, 4.716469e+005
3.356627e+002, 4.720466e+005
3.361448e+002, 4.722666e+005
3.366270e+002, 4.725406e+005
3.371091e+002, 4.728942e+005
3.375912e+002, 4.732858e+005
3.380733e+002, 4.736396e+005
3.385554e+002, 4.739500e+005
3.390375e+002, 4.742376e+005
3.395197e+002, 4.745086e+005
3.400018e+002, 4.747622e+005
3.404839e+002, 4.750153e+005
3.409660e+002, 4.752612e+005
3.414481e+002, 4.755111e+005
3.419302e+002, 4.757898e+005
3.424124e+002, 4.761035e+005
3.428945e+002, 4.763571e+005
3.433766e+002, 4.764938e+005
3.438587e+002, 4.765466e+005
3.443408e+002, 4.766828e+005
3.448229e+002, 4.769082e+005
3.453051e+002, 4.771626e+005
3.457872e+002, 4.774191e+005
3.462693e+002, 4.776671e+005
3.467514e+002, 4.778282e+005
3.472335e+002, 4.778418e+005
3.477156e+002, 4.778225e+005
3.481978e+002, 4.780331e+005
3.486799e+002, 4.784594e+005
3.491620e+002, 4.788769e+005
3.496441e+002, 4.791386e+005
3.501262e+002, 4.792866e+005
3.506083e+002, 4.793927e+005
3.510905e+002, 4.794509e+005
3.515726e+002, 4.795385e+005
3.520547e+002, 4.797558e+005
3.525368e+002, 4.800772e+005
3.530189e+002, 4.804258e+005
3.535010e+002, 4.807443e+005
3.539832e+002, 4.810733e+005
3.544653e+002, 4.815028e+005
3.549474e+002, 4.820441e+005
3.554295e+002, 4.825151e+005
3.559116e+002, 4.826761e+005
3.563937e+002, 4.826940e+005
3.568759e+002, 4.828186e+005
3.573580e+002, 4.832060e+005
3.578401e+002, 4.836753e+005
3.583222e+002, 4.841149e+005
3.588043e+002, 4.845337e+005
3.592864e+002, 4.849595e+005
3.597686e+002, 4.854312e+005
3.602507e+002, 4.859074e+005
3.607328e+002, 4.863416e+005
3.612149e+002, 4.866817e+005
3.616970e+002, 4.870502e+005
3.621791e+002, 4.875408e+005
3.626613e+002, 4.880908e+005
3.631434e+002, 4.885612e+005
3.636255e+002, 4.888303e+005
3.641076e+002, 4.890633e+005
3.645897e+002, 4.893409e+005
3.650718e+002, 4.896849e+005
3.655540e+002, 4.900004e+005
3.660361e+002, 4.902823e+005
3.665182e+002, 4.905230e+005
3.670003e+002, 4.907155e+005
3.674824e+002, 4.909364e+005
3.679645e+002, 4.910398e+005
3.684467e+002, 4.909332e+005
3.689288e+002, 4.906103e+005
3.694109e+002, 4.904337e+005
3.698930e+002, 4.904953e+005
3.703751e+002, 4.906488e+005
3.708572e+002, 4.907996e+005
3.713394e+002, 4.909256e+005
3.718215e+002, 4.910973e+005
3.723036e+002, 4.913347e+005
3.727857e+002, 4.916203e+005
3.732678e+002, 4.918964e+005
3.737499e+002, 4.921592e+005
3.742321e+002, 4.924111e+005
3.747142e+002, 4.926218e+005
3.751963e+002, 4.927421e+005
3.756784e+002, 4.930313e+005
3.761605e+002, 4.935278e+005
3.766426e+002, 4.941314e+005
3.771248e+002, 4.947032e+005
3.776069e+002, 4.952623e+005
3.780890e+002, 4.956954e+005
3.785711e+002, 4.959191e+005
3.790532e+002, 4.959709e+005
3.795353e+002, 4.961145e+005
3.800175e+002, 4.963630e+005
3.804996e+002, 4.966538e+005
3.809817e+002, 4.969413e+005
3.814638e+002, 4.972241e+005
3.819459e+002, 4.974904e+005
3.824280e+002, 4.977266e+005
3.829102e+002, 4.979528e+005
3.833923e+002, 4.981951e+005
3.838744e+002, 4.984523e+005
3.843565e+002, 4.987279e+005
3.848386e+002, 4.990705e+005
3.853207e+002, 4.994217e+005
3.858029e+002, 4.996291e+005
3.862850e+002, 4.996573e+005
3.867671e+002, 4.996555e+005
3.872492e+002, 4.998134e+005
3.877313e+002, 5.000611e+005
3.882134e+002, 5.002376e+005
3.886956e+002, 5.001933e+005
3.891777e+002, 5.001000e+005
3.896598e+002, 5.001253e+005
3.901419e+002, 5.002699e+005
3.906240e+002, 5.004283e+005
3.911061e+002, 5.005897e+005
3.915883e+002, 5.007193e+005
3.920704e+002, 5.007777e+005
3.925525e+002, 5.007208e+005
3.930346e+002, 5.006504e+005
3.935167e+002, 5.005661e+005
3.939988e+002, 5.005016e+005
3.944810e+002, 5.005445e+005
3.949631e+002, 5.007186e+005
3.954452e+002, 5.010134e+005
3.959273e+002, 5.014600e+005
3.964094e+002, 5.021368e+005
3.968915e+002, 5.027187e+005
3.973737e+002, 5.030351e+005
3.978558e+002, 5.032532e+005
3.983379e+002, 5.035791e+005
3.988200e+002, 5.041679e+005
3.993021e+002, 5.047066e+005
3.997842e+002, 5.050854e+005
4.002664e+002, 5.053003e+005
4.007485e+002, 5.056385e+005
4.012306e+002, 5.061851e+005
4.017127e+002, 5.067541e+005
4.021948e+002, 5.072284e+005
4.026769e+002, 5.075873e+005
4.031591e+002, 5.078843e+005
4.036412e+002, 5.081192e+005
4.041233e+002, 5.082921e+005
4.046054e+002, 5.084029e+005
4.050875e+002, 5.084368e+005
4.055696e+002, 5.084551e+005
4.060518e+002, 5.084773e+005
4.065339e+002, 5.085069e+005
4.070160e+002, 5.085841e+005
4.074981e+002, 5.087218e+005
4.079802e+002, 5.088958e+005
4.084623e+002, 5.090857e+005
4.089445e+002, 5.092978e+005
4.094266e+002, 5.095155e+005
4.099087e+002, 5.097402e+005
4.103908e+002, 5.099778e+005
4.108729e+002, 5.102303e+005
4.113550e+002, 5.105037e+005
4.118372e+002, 5.108043e+005
4.123193e+002, 5.111539e+005
4.128014e+002, 5.115366e+005
4.132835e+002, 5.118999e+005
4.137656e+002, 5.122218e+005
4.142477e+002, 5.125797e+005
4.147299e+002, 5.130733e+005
4.152120e+002, 5.136592e+005
4.156941e+002, 5.142286e+005
4.161762e+002, 5.147146e+005
4.166583e+002, 5.151596e+005
4.171404e+002, 5.155863e+005
4.176226e+002, 5.159920e+005
4.181047e+002, 5.163935e+005
4.185868e+002, 5.167919e+005
4.190689e+002, 5.171863e+005
4.195510e+002, 5.175879e+005
4.200331e+002, 5.180611e+005
4.205153e+002, 5.184503e+005
4.209974e+002, 5.186836e+005
4.214795e+002, 5.187901e+005
4.219616e+002, 5.188293e+005
4.224437e+002, 5.187605e+005
4.229258e+002, 5.186923e+005
4.234080e+002, 5.186888e+005
4.238901e+002, 5.187935e+005
4.243722e+002, 5.188597e+005
4.248543e+002, 5.188424e+005
4.253364e+002, 5.188157e+005
4.258185e+002, 5.188509e+005
4.263007e+002, 5.189811e+005
4.267828e+002, 5.191354e+005
4.272649e+002, 5.193047e+005
4.277470e+002, 5.194884e+005
4.282291e+002, 5.197128e+005
4.287112e+002, 5.200193e+005
4.291934e+002, 5.202792e+005
4.296755e+002, 5.203908e+005
4.301576e+002, 5.202957e+005
4.306397e+002, 5.203232e+005
4.311218e+002, 5.205061e+005
4.316039e+002, 5.207634e+005
4.320861e+002, 5.209786e+005
4.325682e+002, 5.211489e+005
4.330503e+002, 5.213063e+005
4.335324e+002, 5.214451e+005
4.340145e+002, 5.215880e+005
4.344966e+002, 5.218316e+005
4.349788e+002, 5.221841e+005
4.354609e+002, 5.225388e+005
4.359430e+002, 5.227837e+005
4.364251e+002, 5.229678e+005
4.369072e+002, 5.232294e+005
4.373893e+002, 5.236201e+005
4.378715e+002, 5.240393e+005
4.383536e+002, 5.243284e+005
4.388357e+002, 5.245449e+005
4.393178e+002, 5.248478e+005
4.397999e+002, 5.253412e+005
4.402820e+002, 5.259376e+005
4.407642e+002, 5.266224e+005
4.412463e+002, 5.273944e+005
4.417284e+002, 5.279853e+005
4.422105e+002, 5.280817e+005
4.426926e+002, 5.279973e+005
4.431747e+002, 5.280348e+005
4.436569e+002, 5.283649e+005
4.441390e+002, 5.287076e+005
4.446211e+002, 5.289392e+005
4.451032e+002, 5.291109e+005
4.455853e+002, 5.293675e+005
4.460674e+002, 5.299539e+005
4.465496e+002, 5.304511e+005
4.470317e+002, 5.306685e+005
4.475138e+002, 5.304874e+005
4.479959e+002, 5.304468e+005
4.484780e+002, 5.306360e+005
4.489601e+002, 5.309276e+005
4.494423e+002, 5.312041e+005
4.499244e+002, 5.314571e+005
4.504065e+002, 5.317274e+005
4.508886e+002, 5.320028e+005
4.513707e+002, 5.323026e+005
4.518528e+002, 5.327513e+005
4.523350e+002, 5.334105e+005
4.528171e+002, 5.340184e+005
4.532992e+002, 5.343886e+005
4.537813e+002, 5.345104e+005
4.542634e+002, 5.347639e+005
4.547455e+002, 5.351759e+005
4.552277e+002, 5.356250e+005
4.557098e+002, 5.359531e+005
4.561919e+002, 5.361687e+005
4.566740e+002, 5.363889e+005
4.571561e+002, 5.366554e+005
4.576382e+002, 5.369386e+005
4.581204e+002, 5.372074e+005
4.586025e+002, 5.374594e+005
4.590846e+002, 5.376422e+005
4.595667e+002, 5.376399e+005
4.600488e+002, 5.375915e+005
4.605309e+002, 5.376991e+005
4.610131e+002, 5.380234e+005
4.614952e+002, 5.383739e+005
4.619773e+002, 5.386121e+005
4.624594e+002, 5.387912e+005
4.629415e+002, 5.389913e+005
4.634236e+002, 5.392455e+005
4.639058e+002, 5.395184e+005
4.643879e+002, 5.398034e+005
4.648700e+002, 5.400934e+005
4.653521e+002, 5.403790e+005
4.658342e+002, 5.406769e+005
4.663163e+002, 5.409529e+005
4.667985e+002, 5.411754e+005
4.672806e+002, 5.412294e+005
4.677627e+002, 5.414343e+005
4.682448e+002, 5.419266e+005
4.687269e+002, 5.425101e+005
4.692090e+002, 5.429100e+005
4.696912e+002, 5.430407e+005
4.701733e+002, 5.431444e+005
4.706554e+002, 5.432653e+005
4.711375e+002, 5.434020e+005
4.716196e+002, 5.435671e+005
4.721017e+002, 5.437827e+005
4.725839e+002, 5.439589e+005
4.730660e+002, 5.440324e+005
4.735481e+002, 5.440031e+005
4.740302e+002, 5.439329e+005
4.745123e+002, 5.438156e+005
4.749944e+002, 5.437036e+005
4.754766e+002, 5.436932e+005
4.759587e+002, 5.437746e+005
4.764408e+002, 5.438561e+005
4.769229e+002, 5.439061e+005
4.774050e+002, 5.439444e+005
4.778871e+002, 5.439776e+005
4.783693e+002, 5.440176e+005
4.788514e+002, 5.441256e+005
4.793335e+002, 5.443795e+005
4.798156e+002, 5.447156e+005
4.802977e+002, 5.450476e+005
4.807798e+002, 5.453440e+005
4.812620e+002, 5.456769e+005
4.817441e+002, 5.460694e+005
4.822262e+002, 5.465181e+005
4.827083e+002, 5.470191e+005
4.831904e+002, 5.476307e+005
4.836725e+002, 5.482210e+005
4.841547e+002, 5.487294e+005
4.846368e+002, 5.491511e+005
4.851189e+002, 5.495421e+005
4.856010e+002, 5.498753e+005
4.860831e+002, 5.501991e+005
4.865652e+002, 5.505369e+005
4.870474e+002, 5.509053e+005
4.875295e+002, 5.512501e+005
4.880116e+002, 5.515676e+005
4.884937e+002, 5.518586e+005
4.889758e+002, 5.521286e+005
4.894579e+002, 5.523829e+005
4.899401e+002, 5.526033e+005
4.904222e+002, 5.527783e+005
4.909043e+002, 5.529183e+005
4.913864e+002, 5.530876e+005
4.918685e+002, 5.532929e+005
4.923506e+002, 5.534856e+005
4.928328e+002, 5.536594e+005
4.933149e+002, 5.538015e+005
4.937970e+002, 5.538208e+005
4.942791e+002, 5.536888e+005
4.947612e+002, 5.535656e+005
4.952433e+002, 5.536894e+005
4.957255e+002, 5.539733e+005
4.962076e+002, 5.541872e+005
4.966897e+002, 5.541886e+005
4.971718e+002, 5.541521e+005
4.976539e+002, 5.542630e+005
4.981360e+002, 5.544876e+005
4.986182e+002, 5.546934e+005
4.991003e+002, 5.547802e+005
4.995824e+002, 5.548448e+005
5.000645e+002, 5.549389e+005
5.005466e+002, 5.550601e+005
5.010287e+002, 5.552459e+005
5.015109e+002, 5.556065e+005
5.019930e+002, 5.559850e+005
5.024751e+002, 5.562201e+005
5.029572e+002, 5.560665e+005
5.034393e+002, 5.560294e+005
5.039214e+002, 5.562203e+005
5.044036e+002, 5.565673e+005
5.048857e+002, 5.568193e+005
5.053678e+002, 5.569095e+005
5.058499e+002, 5.570283e+005
5.063320e+002, 5.572755e+005
5.068141e+002, 5.576688e+005
5.072963e+002, 5.579618e+005
5.077784e+002, 5.581279e+005
5.082605e+002, 5.582814e+005
5.087426e+002, 5.585579e+005
5.092247e+002, 5.589472e+005
5.097068e+002, 5.593061e+005
5.101890e+002, 5.596043e+005
5.106711e+002, 5.598603e+005
5.111532e+002, 5.600849e+005
5.116353e+002, 5.602826e+005
5.121174e+002, 5.604805e+005
5.125995e+002, 5.606585e+005
5.130817e+002, 5.608598e+005
5.135638e+002, 5.612062e+005
5.140459e+002, 5.616848e+005
5.145280e+002, 5.620291e+005
5.150101e+002, 5.619043e+005
5.154922e+002, 5.616559e+005
5.159744e+002, 5.616236e+005
5.164565e+002, 5.619924e+005
5.169386e+002, 5.623674e+005
5.174207e+002, 5.626339e+005
5.179028e+002, 5.628296e+005
5.183849e+002, 5.630126e+005
5.188671e+002, 5.631599e+005
5.193492e+002, 5.633316e+005
5.198313e+002, 5.635440e+005
5.203134e+002, 5.637911e+005
5.207955e+002, 5.640411e+005
5.212776e+002, 5.642824e+005
5.217598e+002, 5.645321e+005
5.222419e+002, 5.648091e+005
5.227240e+002, 5.651303e+005
5.232061e+002, 5.653581e+005
5.236882e+002, 5.654653e+005
5.241703e+002, 5.655287e+005
5.246525e+002, 5.656255e+005
5.251346e+002, 5.657604e+005
5.256167e+002, 5.660096e+005
5.260988e+002, 5.664644e+005
5.265809e+002, 5.669706e+005
5.270630e+002, 5.672188e+005
5.275452e+002, 5.672458e+005
5.280273e+002, 5.672496e+005
5.285094e+002, 5.672975e+005
5.289915e+002, 5.674168e+005
5.294736e+002, 5.676716e+005
5.299557e+002, 5.680711e+005
5.304379e+002, 5.684537e+005
5.309200e+002, 5.686836e+005
5.314021e+002, 5.688631e+005
5.318842e+002, 5.690943e+005
5.323663e+002, 5.694416e+005
5.328484e+002, 5.697689e+005
5.333306e+002, 5.700258e+005
5.338127e+002, 5.702322e+005
5.342948e+002, 5.704279e+005
5.347769e+002, 5.706122e+005
5.352590e+002, 5.707949e+005
5.357411e+002, 5.709943e+005
5.362233e+002, 5.712121e+005
5.367054e+002, 5.713726e+005
5.371875e+002, 5.714589e+005
5.376696e+002, 5.715408e+005
5.381517e+002, 5.716836e+005
5.386339e+002, 5.719006e+005
5.391160e+002, 5.720528e+005
5.395981e+002, 5.721204e+005
5.400802e+002, 5.721689e+005
5.405623e+002, 5.722796e+005
5.410444e+002, 5.724466e+005
5.415266e+002, 5.726334e+005
5.420087e+002, 5.728121e+005
5.424908e+002, 5.730171e+005
5.429729e+002, 5.732991e+005
5.434550e+002, 5.736446e+005
5.439371e+002, 5.740196e+005
5.444193e+002, 5.744537e+005
5.449014e+002, 5.748724e+005
5.453835e+002, 5.751909e+005
5.458656e+002, 5.753929e+005
5.463477e+002, 5.756274e+005
5.468298e+002, 5.759949e+005
5.473120e+002, 5.763981e+005
5.477941e+002, 5.767541e+005
5.482762e+002, 5.770212e+005
5.487583e+002, 5.772766e+005
5.492404e+002, 5.775684e+005
5.497225e+002, 5.778351e+005
5.502047e+002, 5.779586e+005
5.506868e+002, 5.778479e+005
5.511689e+002, 5.777661e+005
5.516510e+002, 5.777776e+005
5.521331e+002, 5.778768e+005
5.526152e+002, 5.780458e+005
5.530974e+002, 5.783198e+005
5.535795e+002, 5.785334e+005
5.540616e+002, 5.785382e+005
5.545437e+002, 5.783841e+005
5.550258e+002, 5.783189e+005
5.555079e+002, 5.783646e+005
5.559901e+002, 5.784948e+005
5.564722e+002, 5.787154e+005
5.569543e+002, 5.790016e+005
5.574364e+002, 5.792923e+005
5.579185e+002, 5.795544e+005
5.584006e+002, 5.798380e+005
5.588828e+002, 5.801729e+005
5.593649e+002, 5.805506e+005
5.598470e+002, 5.809644e+005
5.603291e+002, 5.814475e+005
5.608112e+002, 5.819064e+005
5.612933e+002, 5.822799e+005
5.617755e+002, 5.825556e+005
5.622576e+002, 5.828322e+005
5.627397e+002, 5.831196e+005
5.632218e+002, 5.833946e+005
5.637039e+002, 5.836530e+005
5.641860e+002, 5.839175e+005
5.646682e+002, 5.841161e+005
5.651503e+002, 5.842594e+005
5.656324e+002, 5.843431e+005
5.661145e+002, 5.843306e+005
5.665966e+002, 5.842124e+005
5.670787e+002, 5.841999e+005
5.675609e+002, 5.843876e+005
5.680430e+002, 5.846724e+005
5.685251e+002, 5.848048e+005
5.690072e+002, 5.848091e+005
5.694893e+002, 5.848292e+005
5.699714e+002, 5.849338e+005
5.704536e+002, 5.851071e+005
5.709357e+002, 5.853244e+005
5.714178e+002, 5.855824e+005
5.718999e+002, 5.858894e+005
5.723820e+002, 5.862873e+005
5.728641e+002, 5.867049e+005
5.733463e+002, 5.870651e+005
5.738284e+002, 5.873253e+005
5.743105e+002, 5.875975e+005
5.747926e+002, 5.879343e+005
5.752747e+002, 5.882877e+005
5.757568e+002, 5.885967e+005
5.762390e+002, 5.888252e+005
5.767211e+002, 5.890426e+005
5.772032e+002, 5.892371e+005
5.776853e+002, 5.894274e+005
5.781674e+002, 5.896838e+005
5.786495e+002, 5.900400e+005
5.791317e+002, 5.903724e+005
5.796138e+002, 5.906399e+005
5.800959e+002, 5.908446e+005
5.805780e+002, 5.909691e+005
5.810601e+002, 5.910085e+005
5.815422e+002, 5.910663e+005
5.820244e+002, 5.912546e+005
5.825065e+002, 5.915311e+005
5.829886e+002, 5.917755e+005
5.834707e+002, 5.919686e+005
5.839528e+002, 5.921793e+005
5.844349e+002, 5.924037e+005
5.849171e+002, 5.927018e+005
5.853992e+002, 5.931674e+005
5.858813e+002, 5.942094e+005
5.863634e+002, 5.950124e+005
5.868455e+002, 5.950085e+005
5.873276e+002, 5.944794e+005
5.878098e+002, 5.941987e+005
5.882919e+002, 5.945041e+005
5.887740e+002, 5.948764e+005
5.892561e+002, 5.951640e+005
5.897382e+002, 5.953626e+005
5.902203e+002, 5.955893e+005
5.907025e+002, 5.958643e+005
5.911846e+002, 5.961226e+005
5.916667e+002, 5.963281e+005
5.921488e+002, 5.964826e+005
5.926309e+002, 5.965757e+005
5.931130e+002, 5.966029e+005
5.935952e+002, 5.966101e+005
5.940773e+002, 5.966589e+005
5.945594e+002, 5.967435e+005
5.950415e+002, 5.968223e+005
5.955236e+002, 5.968793e+005
5.960057e+002, 5.969544e+005
5.964879e+002, 5.970546e+005
5.969700e+002, 5.972087e+005
5.974521e+002, 5.974801e+005
5.979342e+002, 5.981026e+005
5.984163e+002, 5.986691e+005
5.988984e+002, 5.988929e+005
5.993806e+002, 5.988081e+005
5.998627e+002, 5.987888e+005
6.003448e+002, 5.989426e+005
6.008269e+002, 5.991543e+005
6.013090e+002, 5.993617e+005
6.017911e+002, 5.995417e+005
6.022733e+002, 5.998103e+005
6.027554e+002, 6.002449e+005
6.032375e+002, 6.006563e+005
6.037196e+002, 6.008104e+005
6.042017e+002, 6.006711e+005
6.046838e+002, 6.006861e+005
6.051660e+002, 6.009248e+005
6.056481e+002, 6.013058e+005
6.061302e+002, 6.017448e+005
6.066123e+002, 6.022249e+005
6.070944e+002, 6.026561e+005
6.075765e+002, 6.029688e+005
6.080587e+002, 6.032529e+005
6.085408e+002, 6.036456e+005
6.090229e+002, 6.041066e+005
6.095050e+002, 6.045108e+005
6.099871e+002, 6.047123e+005
6.104692e+002, 6.048898e+005
6.109514e+002, 6.051565e+005
6.114335e+002, 6.055241e+005
6.119156e+002, 6.058614e+005
6.123977e+002, 6.061315e+005
6.128798e+002, 6.063661e+005
6.133619e+002, 6.065834e+005
6.138441e+002, 6.067943e+005
6.143262e+002, 6.069646e+005
6.148083e+002, 6.070634e+005
6.152904e+002, 6.071743e+005
6.157725e+002, 6.074568e+005
6.162546e+002, 6.079364e+005
6.167368e+002, 6.082131e+005
6.172189e+002, 6.081502e+005
6.177010e+002, 6.079684e+005
6.181831e+002, 6.080876e+005
6.186652e+002, 6.084455e+005
6.191473e+002, 6.087901e+005
6.196295e+002, 6.089765e+005
6.201116e+002, 6.091039e+005
6.205937e+002, 6.092488e+005
6.210758e+002, 6.094142e+005
6.215579e+002, 6.096239e+005
6.220400e+002, 6.099330e+005
6.225222e+002, 6.102474e+005
6.230043e+002, 6.104866e+005
6.234864e+002, 6.106109e+005
6.239685e+002, 6.108463e+005
6.244506e+002, 6.113383e+005
6.249327e+002, 6.118390e+005
6.254149e+002, 6.121825e+005
6.258970e+002, 6.123139e+005
6.263791e+002, 6.124256e+005
6.268612e+002, 6.124939e+005
6.273433e+002, 6.125941e+005
6.278254e+002, 6.128693e+005
6.283076e+002, 6.133089e+005
6.287897e+002, 6.137026e+005
6.292718e+002, 6.140151e+005
6.297539e+002, 6.142325e+005
6.302360e+002, 6.142426e+005
6.307181e+002, 6.141236e+005
6.312003e+002, 6.141204e+005
6.316824e+002, 6.144979e+005
6.321645e+002, 6.149329e+005
6.326466e+002, 6.151598e+005
6.331287e+002, 6.152076e+005
6.336108e+002, 6.152755e+005
6.340930e+002, 6.154166e+005
6.345751e+002, 6.156109e+005
6.350572e+002, 6.158651e+005
6.355393e+002, 6.162028e+005
6.360214e+002, 6.164649e+005
6.365035e+002, 6.165921e+005
6.369857e+002, 6.167087e+005
6.374678e+002, 6.169095e+005
6.379499e+002, 6.172021e+005
6.384320e+002, 6.175011e+005
6.389141e+002, 6.177996e+005
6.393962e+002, 6.180914e+005
6.398784e+002, 6.183806e+005
6.403605e+002, 6.186570e+005
6.408426e+002, 6.188785e+005
6.413247e+002, 6.189962e+005
6.418068e+002, 6.191259e+005
6.422889e+002, 6.194099e+005
6.427711e+002, 6.198071e+005
6.432532e+002, 6.202276e+005
6.437353e+002, 6.206503e+005
6.442174e+002, 6.210694e+005
6.446995e+002, 6.214935e+005
6.451816e+002, 6.219163e+005
6.456638e+002, 6.223071e+005
6.461459e+002, 6.225879e+005
6.466280e+002, 6.229074e+005
6.471101e+002, 6.233180e+005
6.475922e+002, 6.238153e+005
6.480743e+002, 6.243600e+005
6.485565e+002, 6.249544e+005
6.490386e+002, 6.255588e+005
6.495207e+002, 6.261064e+005
6.500028e+002, 6.266043e+005
6.504849e+002, 6.271838e+005
6.509670e+002, 6.278549e+005
6.514492e+002, 6.285269e+005
6.519313e+002, 6.290946e+005
6.524134e+002, 6.295886e+005
6.528955e+002, 6.300511e+005
6.533776e+002, 6.304791e+005
6.538597e+002, 6.309365e+005
6.543419e+002, 6.315254e+005
6.548240e+002, 6.321669e+005
6.553061e+002, 6.327289e+005
6.557882e+002, 6.330342e+005
6.562703e+002, 6.334404e+005
6.567524e+002, 6.340884e+005
6.572346e+002, 6.349106e+005
6.577167e+002, 6.357038e+005
6.581988e+002, 6.364849e+005
6.586809e+002, 6.372155e+005
6.591630e+002, 6.378632e+005
6.596451e+002, 6.384459e+005
6.601273e+002, 6.390699e+005
6.606094e+002, 6.397372e+005
6.610915e+002, 6.404332e+005
6.615736e+002, 6.411916e+005
6.620557e+002, 6.419556e+005
6.625378e+002, 6.426744e+005
6.630200e+002, 6.433371e+005
6.635021e+002, 6.437610e+005
6.639842e+002, 6.436809e+005
6.644663e+002, 6.433714e+005
6.649484e+002, 6.430996e+005
6.654305e+002, 6.429616e+005
6.659127e+002, 6.427173e+005
6.663948e+002, 6.422254e+005
6.668769e+002, 6.416531e+005
6.673590e+002, 6.411704e+005
6.678411e+002, 6.408452e+005
6.683232e+002, 6.405109e+005
6.688054e+002, 6.402112e+005
6.692875e+002, 6.398498e+005
6.697696e+002, 6.391687e+005
6.702517e+002, 6.381571e+005
6.707338e+002, 6.373222e+005
6.712159e+002, 6.368375e+005
6.716981e+002, 6.365807e+005
6.721802e+002, 6.364338e+005
6.726623e+002, 6.363558e+005
6.731444e+002, 6.362014e+005
6.736265e+002, 6.358186e+005
6.741086e+002, 6.353959e+005
6.745908e+002, 6.350442e+005
6.750729e+002, 6.347749e+005
6.755550e+002, 6.345989e+005
6.760371e+002, 6.346276e+005
6.765192e+002, 6.346682e+005
6.770013e+002, 6.346161e+005
6.774835e+002, 6.344581e+005
6.779656e+002, 6.344122e+005
6.784477e+002, 6.345061e+005
6.789298e+002, 6.346649e+005
6.794119e+002, 6.348223e+005
6.798940e+002, 6.349768e+005
6.803762e+002, 6.352844e+005
6.808583e+002, 6.357858e+005
6.813404e+002, 6.361939e+005
6.818225e+002, 6.360962e+005
6.823046e+002, 6.357034e+005
6.827867e+002, 6.354505e+005
6.832689e+002, 6.354334e+005
6.837510e+002, 6.355499e+005
6.842331e+002, 6.358370e+005
6.847152e+002, 6.361799e+005
6.851973e+002, 6.364264e+005
6.856794e+002, 6.364320e+005
6.861616e+002, 6.364751e+005
6.866437e+002, 6.366011e+005
6.871258e+002, 6.368014e+005
6.876079e+002, 6.370701e+005
6.880900e+002, 6.374358e+005
6.885721e+002, 6.377841e+005
6.890543e+002, 6.380849e+005
6.895364e+002, 6.383394e+005
6.900185e+002, 6.385433e+005
6.905006e+002, 6.386923e+005
6.909827e+002, 6.388499e+005
6.914648e+002, 6.391158e+005
6.919470e+002, 6.393674e+005
6.924291e+002, 6.393756e+005
6.929112e+002, 6.391798e+005
6.933933e+002, 6.390048e+005
6.938754e+002, 6.389601e+005
6.943575e+002, 6.389949e+005
6.948397e+002, 6.390944e+005
6.953218e+002, 6.392674e+005
6.958039e+002, 6.394556e+005
6.962860e+002, 6.397172e+005
6.967681e+002, 6.399496e+005
6.972502e+002, 6.401011e+005
6.977324e+002, 6.401588e+005
6.982145e+002, 6.402250e+005
6.986966e+002, 6.402938e+005
6.991787e+002, 6.403989e+005
6.996608e+002, 6.405833e+005
7.001429e+002, 6.408318e+005
7.006251e+002, 6.410836e+005
7.011072e+002, 6.413237e+005
7.015893e+002, 6.415736e+005
7.020714e+002, 6.418396e+005
7.025535e+002, 6.421256e+005
7.030356e+002, 6.424457e+005
7.035178e+002, 6.428343e+005
7.039999e+002, 6.431818e+005
7.044820e+002, 6.434063e+005
7.049641e+002, 6.435674e+005
7.054462e+002, 6.437621e+005
7.059283e+002, 6.439889e+005
7.064105e+002, 6.442676e+005
7.068926e+002, 6.446480e+005
7.073747e+002, 6.450587e+005
7.078568e+002, 6.453122e+005
7.083389e+002, 6.454026e+005
7.088210e+002, 6.454852e+005
7.093032e+002, 6.456155e+005
7.097853e+002, 6.457756e+005
7.102674e+002, 6.459483e+005
7.107495e+002, 6.461239e+005
7.112316e+002, 6.462493e+005
7.117137e+002, 6.461902e+005
7.121959e+002, 6.461548e+005
7.126780e+002, 6.463314e+005
7.131601e+002, 6.466924e+005
7.136422e+002, 6.470143e+005
7.141243e+002, 6.471464e+005
7.146064e+002, 6.473150e+005
7.150886e+002, 6.476484e+005
7.155707e+002, 6.481585e+005
7.160528e+002, 6.484994e+005
7.165349e+002, 6.486372e+005
7.170170e+002, 6.487111e+005
7.174991e+002, 6.488104e+005
7.179813e+002, 6.489296e+005
7.184634e+002, 6.490001e+005
7.189455e+002, 6.490174e+005
7.194276e+002, 6.490808e+005
7.199097e+002, 6.492819e+005
7.203918e+002, 6.495784e+005
7.208740e+002, 6.499240e+005
7.213561e+002, 6.503233e+005
7.218382e+002, 6.507028e+005
7.223203e+002, 6.510358e+005
7.228024e+002, 6.513239e+005
7.232845e+002, 6.515638e+005
7.237667e+002, 6.516329e+005
7.242488e+002, 6.518746e+005
7.247309e+002, 6.523980e+005
7.252130e+002, 6.529719e+005
7.256951e+002, 6.533044e+005
7.261772e+002, 6.533761e+005
7.266594e+002, 6.535078e+005
7.271415e+002, 6.537731e+005
7.276236e+002, 6.540376e+005
7.281057e+002, 6.540894e+005
7.285878e+002, 6.539940e+005
7.290699e+002, 6.539216e+005
7.295521e+002, 6.539559e+005
7.300342e+002, 6.539933e+005
7.305163e+002, 6.539151e+005
7.309984e+002, 6.538043e+005
7.314805e+002, 6.538074e+005
7.319626e+002, 6.540833e+005
7.324448e+002, 6.543338e+005
7.329269e+002, 6.544924e+005
7.334090e+002, 6.545959e+005
7.338911e+002, 6.547461e+005
7.343732e+002, 6.549571e+005
7.348553e+002, 6.551494e+005
7.353375e+002, 6.552809e+005
7.358196e+002, 6.553916e+005
7.363017e+002, 6.555950e+005
7.367838e+002, 6.558796e+005
7.372659e+002, 6.561731e+005
7.377480e+002, 6.564023e+005
7.382302e+002, 6.566456e+005
7.387123e+002, 6.570719e+005
7.391944e+002, 6.576113e+005
7.396765e+002, 6.579313e+005
7.401586e+002, 6.576231e+005
7.406407e+002, 6.573366e+005
7.411229e+002, 6.574174e+005
7.416050e+002, 6.578451e+005
7.420871e+002, 6.580894e+005
7.425692e+002, 6.580806e+005
7.430513e+002, 6.580602e+005
7.435334e+002, 6.581269e+005
7.440156e+002, 6.582874e+005
7.444977e+002, 6.586361e+005
7.449798e+002, 6.591750e+005
7.454619e+002, 6.596648e+005
7.459440e+002, 6.598204e+005
7.464261e+002, 6.598644e+005
7.469083e+002, 6.601109e+005
7.473904e+002, 6.605878e+005
7.478725e+002, 6.610115e+005
7.483546e+002, 6.611197e+005
7.488367e+002, 6.612068e+005
7.493188e+002, 6.614864e+005
7.498010e+002, 6.620326e+005
7.502831e+002, 6.625200e+005
7.507652e+002, 6.630361e+005
7.512473e+002, 6.633426e+005
7.517294e+002, 6.631529e+005
7.522115e+002, 6.624772e+005
7.526937e+002, 6.619769e+005
7.531758e+002, 6.616968e+005
7.536579e+002, 6.615689e+005
7.541400e+002, 6.615864e+005
7.546221e+002, 6.616972e+005
7.551042e+002, 6.618454e+005
7.555864e+002, 6.620640e+005
7.560685e+002, 6.621709e+005
7.565506e+002, 6.619676e+005
7.570327e+002, 6.616644e+005
7.575148e+002, 6.614752e+005
7.579969e+002, 6.614676e+005
7.584791e+002, 6.615248e+005
7.589612e+002, 6.616861e+005
7.594433e+002, 6.618629e+005
7.599254e+002, 6.619031e+005
7.604075e+002, 6.617896e+005
7.608896e+002, 6.618361e+005
7.613718e+002, 6.621184e+005
7.618539e+002, 6.624555e+005
7.623360e+002, 6.626096e+005
7.628181e+002, 6.626366e+005
7.633002e+002, 6.626580e+005
7.637823e+002, 6.627109e+005
7.642645e+002, 6.627661e+005
7.647466e+002, 6.628211e+005
7.652287e+002, 6.628689e+005
7.657108e+002, 6.628956e+005
7.661929e+002, 6.629121e+005
7.666750e+002, 6.629001e+005
7.671572e+002, 6.628256e+005
7.676393e+002, 6.627554e+005
7.681214e+002, 6.628434e+005
7.686035e+002, 6.631057e+005
7.690856e+002, 6.633011e+005
7.695677e+002, 6.633386e+005
7.700499e+002, 6.633303e+005
7.705320e+002, 6.634321e+005
7.710141e+002, 6.636237e+005
7.714962e+002, 6.638615e+005
7.719783e+002, 6.641784e+005
7.724604e+002, 6.644709e+005
7.729426e+002, 6.647028e+005
7.734247e+002, 6.648656e+005
7.739068e+002, 6.649394e+005
7.743889e+002, 6.648948e+005
7.748710e+002, 6.647954e+005
7.753531e+002, 6.646286e+005
7.758353e+002, 6.644289e+005
7.763174e+002, 6.642878e+005
7.767995e+002, 6.642129e+005
7.772816e+002, 6.641817e+005
7.777637e+002, 6.641923e+005
7.782458e+002, 6.642488e+005
7.787280e+002, 6.643821e+005
7.792101e+002, 6.645723e+005
7.796922e+002, 6.647432e+005
7.801743e+002, 6.648311e+005
7.806564e+002, 6.649223e+005
7.811385e+002, 6.650729e+005
7.816207e+002, 6.652686e+005
7.821028e+002, 6.654326e+005
7.825849e+002, 6.654993e+005
7.830670e+002, 6.656231e+005
7.835491e+002, 6.658503e+005
7.840313e+002, 6.661539e+005
7.845134e+002, 6.665040e+005
7.849955e+002, 6.669003e+005
7.854776e+002, 6.670848e+005
7.859597e+002, 6.667469e+005
7.864418e+002, 6.662548e+005
7.869240e+002, 6.662728e+005
7.874061e+002, 6.666694e+005
7.878882e+002, 6.669670e+005
7.883703e+002, 6.668127e+005
7.888524e+002, 6.666071e+005
7.893345e+002, 6.665573e+005
7.898167e+002, 6.666496e+005
7.902988e+002, 6.666919e+005
7.907809e+002, 6.666561e+005
7.912630e+002, 6.666357e+005
7.917451e+002, 6.666799e+005
7.922272e+002, 6.667701e+005
7.927094e+002, 6.668168e+005
7.931915e+002, 6.668221e+005
7.936736e+002, 6.668011e+005
7.941557e+002, 6.667109e+005
7.946378e+002, 6.666316e+005
7.951199e+002, 6.667111e+005
7.956021e+002, 6.669078e+005
7.960842e+002, 6.670329e+005
7.965663e+002, 6.669096e+005
7.970484e+002, 6.667851e+005
7.975305e+002, 6.667517e+005
7.980126e+002, 6.668082e+005
7.984948e+002, 6.669603e+005
7.989769e+002, 6.672606e+005
7.994590e+002, 6.675263e+005
7.999411e+002, 6.676579e+005
8.004232e+002, 6.677040e+005
8.009053e+002, 6.678619e+005
8.013875e+002, 6.681199e+005
8.018696e+002, 6.683451e+005
8.023517e+002, 6.684134e+005
8.028338e+002, 6.684454e+005
8.033159e+002, 6.685116e+005
8.037980e+002, 6.686289e+005
8.042802e+002, 6.688853e+005
8.047623e+002, 6.695144e+005
8.052444e+002, 6.700555e+005
8.057265e+002, 6.702853e+005
8.062086e+002, 6.702433e+005
8.066907e+002, 6.703476e+005
8.071729e+002, 6.706261e+005
8.076550e+002, 6.708944e+005
8.081371e+002, 6.710916e+005
8.086192e+002, 6.712001e+005
8.091013e+002, 6.711495e+005
8.095834e+002, 6.709611e+005
8.100656e+002, 6.707521e+005
8.105477e+002, 6.705246e+005
8.110298e+002, 6.703707e+005
8.115119e+002, 6.703963e+005
8.119940e+002, 6.705838e+005
8.124761e+002, 6.707491e+005
8.129583e+002, 6.709109e+005
8.134404e+002, 6.710053e+005
8.139225e+002, 6.709739e+005
8.144046e+002, 6.708621e+005
8.148867e+002, 6.709427e+005
8.153688e+002, 6.712253e+005
8.158510e+002, 6.715151e+005
8.163331e+002, 6.716859e+005
8.168152e+002, 6.718059e+005
8.172973e+002, 6.719856e+005
8.177794e+002, 6.722059e+005
8.182615e+002, 6.724150e+005
8.187437e+002, 6.724479e+005
8.192258e+002, 6.725777e+005
8.197079e+002, 6.730859e+005
8.201900e+002, 6.738651e+005
8.206721e+002, 6.741576e+005
8.211542e+002, 6.737341e+005
8.216364e+002, 6.733246e+005
8.221185e+002, 6.732014e+005
8.226006e+002, 6.732541e+005
8.230827e+002, 6.730763e+005
8.235648e+002, 6.727021e+005
8.240469e+002, 6.723701e+005
8.245291e+002, 6.722770e+005
8.250112e+002, 6.722444e+005
8.254933e+002, 6.721103e+005
8.259754e+002, 6.719024e+005
8.264575e+002, 6.716922e+005
8.269396e+002, 6.714569e+005
8.274218e+002, 6.712904e+005
8.279039e+002, 6.712307e+005
8.283860e+002, 6.712572e+005
8.288681e+002, 6.713041e+005
8.293502e+002, 6.713720e+005
8.298323e+002, 6.714435e+005
8.303145e+002, 6.715024e+005
8.307966e+002, 6.715666e+005
8.312787e+002, 6.717132e+005
8.317608e+002, 6.718986e+005
8.322429e+002, 6.719921e+005
8.327250e+002, 6.717807e+005
8.332072e+002, 6.716121e+005
8.336893e+002, 6.717569e+005
8.341714e+002, 6.720859e+005
8.346535e+002, 6.722441e+005
8.351356e+002, 6.721092e+005
8.356177e+002, 6.720049e+005
8.360999e+002, 6.719999e+005
8.365820e+002, 6.720506e+005
8.370641e+002, 6.719795e+005
8.375462e+002, 6.718167e+005
8.380283e+002, 6.719409e+005
8.385104e+002, 6.726011e+005
8.389926e+002, 6.733558e+005
8.394747e+002, 6.737079e+005
8.399568e+002, 6.738053e+005
8.404389e+002, 6.739119e+005
8.409210e+002, 6.740881e+005
8.414031e+002, 6.743053e+005
8.418853e+002, 6.745581e+005
8.423674e+002, 6.748343e+005
8.428495e+002, 6.751301e+005
8.433316e+002, 6.754581e+005
8.438137e+002, 6.757121e+005
8.442958e+002, 6.758691e+005
8.447780e+002, 6.759511e+005
8.452601e+002, 6.759746e+005
8.457422e+002, 6.759506e+005
8.462243e+002, 6.759126e+005
8.467064e+002, 6.758827e+005
8.471885e+002, 6.758099e+005
8.476707e+002, 6.756026e+005
8.481528e+002, 6.753700e+005
8.486349e+002, 6.752517e+005
8.491170e+002, 6.753704e+005
8.495991e+002, 6.754188e+005
8.500812e+002, 6.753746e+005
8.505634e+002, 6.753137e+005
8.510455e+002, 6.753378e+005
8.515276e+002, 6.754382e+005
8.520097e+002, 6.754994e+005
8.524918e+002, 6.755116e+005
8.529739e+002, 6.754871e+005
8.534561e+002, 6.753464e+005
8.539382e+002, 6.752239e+005
8.544203e+002, 6.752763e+005
8.549024e+002, 6.755591e+005
8.553845e+002, 6.759086e+005
8.558666e+002, 6.763876e+005
8.563488e+002, 6.768204e+005
8.568309e+002, 6.770426e+005
8.573130e+002, 6.769981e+005
8.577951e+002, 6.771241e+005
8.582772e+002, 6.774326e+005
8.587593e+002, 6.777455e+005
8.592415e+002, 6.778966e+005
8.597236e+002, 6.779437e+005
8.602057e+002, 6.779899e+005
8.606878e+002, 6.780433e+005
8.611699e+002, 6.780662e+005
8.616520e+002, 6.779939e+005
8.621342e+002, 6.779299e+005
8.626163e+002, 6.780009e+005
8.630984e+002, 6.782269e+005
8.635805e+002, 6.781828e+005
8.640626e+002, 6.777779e+005
8.645447e+002, 6.774184e+005
8.650269e+002, 6.774415e+005
8.655090e+002, 6.776936e+005
8.659911e+002, 6.775464e+005
8.664732e+002, 6.770683e+005
8.669553e+002, 6.766759e+005
8.674374e+002, 6.766270e+005
8.679196e+002, 6.767601e+005
8.684017e+002, 6.770074e+005
8.688838e+002, 6.773451e+005
8.693659e+002, 6.776766e+005
8.698480e+002, 6.780018e+005
8.703301e+002, 6.782665e+005
8.708123e+002, 6.784133e+005
8.712944e+002, 6.784906e+005
8.717765e+002, 6.787416e+005
8.722586e+002, 6.791305e+005
8.727407e+002, 6.793836e+005
8.732228e+002, 6.792869e+005
8.737050e+002, 6.790923e+005
8.741871e+002, 6.790964e+005
8.746692e+002, 6.792030e+005
8.751513e+002, 6.792006e+005
8.756334e+002, 6.789129e+005
8.761155e+002, 6.786692e+005
8.765977e+002, 6.785289e+005
8.770798e+002, 6.784794e+005
8.775619e+002, 6.785258e+005
8.780440e+002, 6.786844e+005
8.785261e+002, 6.787574e+005
8.790082e+002, 6.786766e+005
8.794904e+002, 6.785832e+005
8.799725e+002, 6.787473e+005
8.804546e+002, 6.790051e+005
8.809367e+002, 6.790445e+005
8.814188e+002, 6.786404e+005
8.819009e+002, 6.783112e+005
8.823831e+002, 6.782957e+005
8.828652e+002, 6.784029e+005
8.833473e+002, 6.784324e+005
8.838294e+002, 6.783438e+005
8.843115e+002, 6.783581e+005
8.847936e+002, 6.785084e+005
8.852758e+002, 6.786921e+005
8.857579e+002, 6.787932e+005
8.862400e+002, 6.788588e+005
8.867221e+002, 6.789660e+005
8.872042e+002, 6.791249e+005
8.876863e+002, 6.794023e+005
8.881685e+002, 6.800479e+005
8.886506e+002, 6.806665e+005
8.891327e+002, 6.808953e+005
8.896148e+002, 6.806333e+005
8.900969e+002, 6.806640e+005
8.905790e+002, 6.810522e+005
8.910612e+002, 6.815294e+005
8.915433e+002, 6.819629e+005
8.920254e+002, 6.823379e+005
8.925075e+002, 6.826091e+005
8.929896e+002, 6.827740e+005
8.934717e+002, 6.828771e+005
8.939539e+002, 6.829209e+005
8.944360e+002, 6.829327e+005
8.949181e+002, 6.829128e+005
8.954002e+002, 6.828769e+005
8.958823e+002, 6.828965e+005
8.963644e+002, 6.830094e+005
8.968466e+002, 6.831521e+005
8.973287e+002, 6.833514e+005
8.978108e+002, 6.835588e+005
8.982929e+002, 6.835704e+005
8.987750e+002, 6.834379e+005
8.992571e+002, 6.834664e+005
8.997393e+002, 6.839459e+005
9.002214e+002, 6.843734e+005
9.007035e+002, 6.841934e+005
9.011856e+002, 6.836964e+005
9.016677e+002, 6.833726e+005
9.021498e+002, 6.834038e+005
9.026320e+002, 6.834976e+005
9.031141e+002, 6.836331e+005
9.035962e+002, 6.838017e+005
9.040783e+002, 6.840309e+005
9.045604e+002, 6.843045e+005
9.050425e+002, 6.844184e+005
9.055247e+002, 6.843271e+005
9.060068e+002, 6.841711e+005
9.064889e+002, 6.840416e+005
9.069710e+002, 6.839505e+005
9.074531e+002, 6.839209e+005
9.079352e+002, 6.839816e+005
9.084174e+002, 6.840464e+005
9.088995e+002, 6.841804e+005
9.093816e+002, 6.842391e+005
9.098637e+002, 6.840832e+005
9.103458e+002, 6.837134e+005
9.108279e+002, 6.835671e+005
9.113101e+002, 6.836451e+005
9.117922e+002, 6.837649e+005
9.122743e+002, 6.837788e+005
9.127564e+002, 6.837650e+005
9.132385e+002, 6.838139e+005
9.137206e+002, 6.839156e+005
9.142028e+002, 6.839999e+005
9.146849e+002, 6.840444e+005
9.151670e+002, 6.840626e+005
9.156491e+002, 6.840441e+005
9.161312e+002, 6.840148e+005
9.166133e+002, 6.841068e+005
9.170955e+002, 6.843306e+005
9.175776e+002, 6.844359e+005
9.180597e+002, 6.842426e+005
9.185418e+002, 6.840368e+005
9.190239e+002, 6.842497e+005
9.195060e+002, 6.847036e+005
9.199882e+002, 6.850486e+005
9.204703e+002, 6.850364e+005
9.209524e+002, 6.850699e+005
9.214345e+002, 6.851735e+005
9.219166e+002, 6.853619e+005
9.223987e+002, 6.856989e+005
9.228809e+002, 6.861945e+005
9.233630e+002, 6.865158e+005
9.238451e+002, 6.865974e+005
9.243272e+002, 6.866312e+005
9.248093e+002, 6.868829e+005
9.252914e+002, 6.871827e+005
9.257736e+002, 6.872714e+005
9.262557e+002, 6.870739e+005
9.267378e+002, 6.869546e+005
9.272199e+002, 6.871344e+005
9.277020e+002, 6.873296e+005
9.281841e+002, 6.873944e+005
9.286663e+002, 6.873346e+005
9.291484e+002, 6.873290e+005
9.296305e+002, 6.873829e+005
9.301126e+002, 6.874580e+005
9.305947e+002, 6.875323e+005
9.310768e+002, 6.876118e+005
9.315590e+002, 6.876931e+005
9.320411e+002, 6.877814e+005
9.325232e+002, 6.878992e+005
9.330053e+002, 6.881776e+005
9.334874e+002, 6.883219e+005
9.339695e+002, 6.881981e+005
9.344517e+002, 6.879274e+005
9.349338e+002, 6.878089e+005
9.354159e+002, 6.878487e+005
9.358980e+002, 6.879265e+005
9.363801e+002, 6.880269e+005
9.368622e+002, 6.881267e+005
9.373444e+002, 6.881884e+005
9.378265e+002, 6.882351e+005
9.383086e+002, 6.883033e+005
9.387907e+002, 6.884253e+005
9.392728e+002, 6.885141e+005
9.397549e+002, 6.884724e+005
9.402371e+002, 6.884651e+005
9.407192e+002, 6.886568e+005
9.412013e+002, 6.890506e+005
9.416834e+002, 6.893361e+005
9.421655e+002, 6.894939e+005
9.426476e+002, 6.896089e+005
9.431298e+002, 6.896899e+005
9.436119e+002, 6.897978e+005
9.440940e+002, 6.900564e+005
9.445761e+002, 6.904599e+005
9.450582e+002, 6.907080e+005
9.455403e+002, 6.906598e+005
9.460225e+002, 6.905246e+005
9.465046e+002, 6.903280e+005
9.469867e+002, 6.901066e+005
9.474688e+002, 6.900076e+005
9.479509e+002, 6.900283e+005
9.484330e+002, 6.900970e+005
9.489152e+002, 6.902311e+005
9.493973e+002, 6.903329e+005
9.498794e+002, 6.902801e+005
9.503615e+002, 6.901335e+005
9.508436e+002, 6.900021e+005
9.513257e+002, 6.898738e+005
9.518079e+002, 6.898390e+005
9.522900e+002, 6.899698e+005
9.527721e+002, 6.901083e+005
9.532542e+002, 6.900331e+005
9.537363e+002, 6.897768e+005
9.542184e+002, 6.895794e+005
9.547006e+002, 6.894735e+005
9.551827e+002, 6.893801e+005
9.556648e+002, 6.892593e+005
9.561469e+002, 6.891096e+005
9.566290e+002, 6.889180e+005
9.571111e+002, 6.886781e+005
9.575933e+002, 6.884873e+005
9.580754e+002, 6.883166e+005
9.585575e+002, 6.882723e+005
9.590396e+002, 6.884570e+005
9.595217e+002, 6.887888e+005
9.600038e+002, 6.889574e+005
9.604860e+002, 6.889974e+005
9.609681e+002, 6.890916e+005
9.614502e+002, 6.893179e+005
9.619323e+002, 6.896406e+005
9.624144e+002, 6.900884e+005
9.628965e+002, 6.906019e+005
9.633787e+002, 6.910457e+005
9.638608e+002, 6.914198e+005
9.643429e+002, 6.916947e+005
9.648250e+002, 6.918486e+005
9.653071e+002, 6.919382e+005
9.657892e+002, 6.919514e+005
9.662714e+002, 6.919721e+005
9.667535e+002, 6.922904e+005
9.672356e+002, 6.930106e+005
9.677177e+002, 6.935859e+005
9.681998e+002, 6.935614e+005
9.686819e+002, 6.933981e+005
9.691641e+002, 6.934459e+005
9.696462e+002, 6.937353e+005
9.701283e+002, 6.938244e+005
9.706104e+002, 6.936711e+005
9.710925e+002, 6.935509e+005
9.715746e+002, 6.936527e+005
9.720568e+002, 6.938709e+005
9.725389e+002, 6.940689e+005
9.730210e+002, 6.942233e+005
9.735031e+002, 6.942556e+005
9.739852e+002, 6.940274e+005
9.744673e+002, 6.937955e+005
9.749495e+002, 6.935768e+005
9.754316e+002, 6.934347e+005
9.759137e+002, 6.935411e+005
9.763958e+002, 6.939217e+005
9.768779e+002, 6.941414e+005
9.773600e+002, 6.940912e+005
9.778422e+002, 6.940591e+005
9.783243e+002, 6.945011e+005
9.788064e+002, 6.950804e+005
9.792885e+002, 6.953429e+005
9.797706e+002, 6.951530e+005
9.802527e+002, 6.949614e+005
9.807349e+002, 6.947701e+005
9.812170e+002, 6.946852e+005
9.816991e+002, 6.947864e+005
9.821812e+002, 6.950444e+005
9.826633e+002, 6.952604e+005
9.831454e+002, 6.954316e+005
9.836276e+002, 6.956054e+005
9.841097e+002, 6.957858e+005
9.845918e+002, 6.959857e+005
9.850739e+002, 6.962501e+005
9.855560e+002, 6.965321e+005
9.860381e+002, 6.967102e+005
9.865203e+002, 6.967334e+005
9.870024e+002, 6.967441e+005
9.874845e+002, 6.967479e+005
9.879666e+002, 6.967818e+005
9.884487e+002, 6.969321e+005
9.889308e+002, 6.971616e+005
9.894130e+002, 6.973671e+005
9.898951e+002, 6.975438e+005
9.903772e+002, 6.976446e+005
9.908593e+002, 6.975757e+005
9.913414e+002, 6.974797e+005
9.918235e+002, 6.974666e+005
9.923057e+002, 6.975429e+005
9.927878e+002, 6.975844e+005
9.932699e+002, 6.975744e+005
9.937520e+002, 6.976288e+005
9.942341e+002, 6.978651e+005
9.947162e+002, 6.981598e+005
9.951984e+002, 6.982786e+005
9.956805e+002, 6.982756e+005
9.961626e+002, 6.982991e+005
9.966447e+002, 6.983869e+005
9.971268e+002, 6.985347e+005
9.976089e+002, 6.987586e+005
9.980911e+002, 6.990259e+005
9.985732e+002, 6.992924e+005
9.990553e+002, 6.995586e+005
9.995374e+002, 6.998395e+005
1.000020e+003, 7.001406e+005
1.000502e+003, 7.003719e+005
1.000984e+003, 7.003800e+005
1.001466e+003, 7.003164e+005
1.001948e+003, 7.003379e+005
1.002430e+003, 7.004714e+005
1.002912e+003, 7.005447e+005
1.003394e+003, 7.005290e+005
1.003876e+003, 7.004836e+005
1.004359e+003, 7.004063e+005
1.004841e+003, 7.003386e+005
1.005323e+003, 7.004356e+005
1.005805e+003, 7.006684e+005
1.006287e+003, 7.009031e+005
1.006769e+003, 7.011318e+005
1.007251e+003, 7.012972e+005
1.007733e+003, 7.012913e+005
1.008216e+003, 7.012449e+005
1.008698e+003, 7.013494e+005
1.009180e+003, 7.016679e+005
1.009662e+003, 7.018706e+005
1.010144e+003, 7.019089e+005
1.010626e+003, 7.019731e+005
1.011108e+003, 7.023116e+005
1.011590e+003, 7.027604e+005
1.012072e+003, 7.030313e+005
1.012555e+003, 7.031179e+005
1.013037e+003, 7.033036e+005
1.013519e+003, 7.038612e+005
1.014001e+003, 7.043154e+005
1.014483e+003, 7.044865e+005
1.014965e+003, 7.044532e+005
1.015447e+003, 7.044470e+005
1.015929e+003, 7.044757e+005
1.016411e+003, 7.046424e+005
1.016894e+003, 7.050566e+005
1.017376e+003, 7.054449e+005
1.017858e+003, 7.055312e+005
1.018340e+003, 7.054652e+005
1.018822e+003, 7.054253e+005
1.019304e+003, 7.054212e+005
1.019786e+003, 7.055129e+005
1.020268e+003, 7.057493e+005
1.020751e+003, 7.059675e+005
1.021233e+003, 7.060161e+005
1.021715e+003, 7.059606e+005
1.022197e+003, 7.059638e+005
1.022679e+003, 7.060228e+005
1.023161e+003, 7.060959e+005
1.023643e+003, 7.060410e+005
1.024125e+003, 7.061277e+005
1.024607e+003, 7.065432e+005
1.025090e+003, 7.071327e+005
1.025572e+003, 7.075794e+005
1.026054e+003, 7.078684e+005
1.026536e+003, 7.081887e+005
1.027018e+003, 7.085839e+005
1.027500e+003, 7.089633e+005
1.027982e+003, 7.092831e+005
1.028464e+003, 7.095004e+005
1.028947e+003, 7.095273e+005
1.029429e+003, 7.092942e+005
1.029911e+003, 7.092178e+005
1.030393e+003, 7.094903e+005
1.030875e+003, 7.096283e+005
1.031357e+003, 7.093199e+005
1.031839e+003, 7.087355e+005
1.032321e+003, 7.083860e+005
1.032803e+003, 7.082726e+005
1.033286e+003, 7.083603e+005
1.033768e+003, 7.089544e+005
1.034250e+003, 7.093868e+005
1.034732e+003, 7.092576e+005
1.035214e+003, 7.088326e+005
1.035696e+003, 7.084588e+005
1.036178e+003, 7.080849e+005
1.036660e+003, 7.080181e+005
1.037143e+003, 7.083046e+005
1.037625e+003, 7.086479e+005
1.038107e+003, 7.088053e+005
1.038589e+003, 7.088314e+005
1.039071e+003, 7.087520e+005
1.039553e+003, 7.085742e+005
1.040035e+003, 7.084491e+005
1.040517e+003, 7.084364e+005
1.041000e+003, 7.084339e+005
1.041482e+003, 7.084285e+005
1.041964e+003, 7.084134e+005
1.042446e+003, 7.083976e+005
1.042928e+003, 7.083659e+005
1.043410e+003, 7.082116e+005
1.043892e+003, 7.078384e+005
1.044374e+003, 7.075569e+005
1.044856e+003, 7.078469e+005
1.045339e+003, 7.081186e+005
1.045821e+003, 7.077552e+005
1.046303e+003, 7.066120e+005
1.046785e+003, 7.059836e+005
1.047267e+003, 7.059144e+005
1.047749e+003, 7.059821e+005
1.048231e+003, 7.059029e+005
1.048713e+003, 7.058042e+005
1.049195e+003, 7.058594e+005
1.049677e+003, 7.060279e+005
1.050160e+003, 7.061933e+005
1.050642e+003, 7.063311e+005
1.051124e+003, 7.064371e+005
1.051606e+003, 7.065104e+005
1.052088e+003, 7.065446e+005
1.052570e+003, 7.065281e+005
1.053052e+003, 7.064634e+005
1.053534e+003, 7.063444e+005
1.054017e+003, 7.061643e+005
1.054499e+003, 7.060599e+005
1.054981e+003, 7.062621e+005
1.055463e+003, 7.064325e+005
1.055945e+003, 7.063306e+005
1.056427e+003, 7.060073e+005
1.056909e+003, 7.057116e+005
1.057391e+003, 7.054473e+005
1.057874e+003, 7.052469e+005
1.058356e+003, 7.051513e+005
1.058838e+003, 7.050806e+005
1.059320e+003, 7.048746e+005
1.059802e+003, 7.046632e+005
1.060284e+003, 7.046337e+005
1.060766e+003, 7.049209e+005
1.061248e+003, 7.051956e+005
1.061730e+003, 7.054526e+005
1.062213e+003, 7.056859e+005
1.062695e+003, 7.058848e+005
1.063177e+003, 7.060514e+005
1.063659e+003, 7.061698e+005
1.064141e+003, 7.062563e+005
1.064623e+003, 7.064054e+005
1.065105e+003, 7.067281e+005
1.065587e+003, 7.070319e+005
1.066070e+003, 7.072573e+005
1.066552e+003, 7.073946e+005
1.067034e+003, 7.073798e+005
1.067516e+003, 7.071994e+005
1.067998e+003, 7.071766e+005
1.068480e+003, 7.073599e+005
1.068962e+003, 7.075761e+005
1.069444e+003, 7.077249e+005
1.069927e+003, 7.078011e+005
1.070409e+003, 7.077858e+005
1.070891e+003, 7.076836e+005
1.071373e+003, 7.076156e+005
1.071855e+003, 7.076201e+005
1.072337e+003, 7.075786e+005
1.072819e+003, 7.074315e+005
1.073301e+003, 7.072686e+005
1.073783e+003, 7.072196e+005
1.074266e+003, 7.072824e+005
1.074748e+003, 7.074835e+005
1.075230e+003, 7.079490e+005
1.075712e+003, 7.082086e+005
1.076194e+003, 7.079224e+005
1.076676e+003, 7.076356e+005
1.077158e+003, 7.077131e+005
1.077640e+003, 7.081049e+005
1.078122e+003, 7.082889e+005
1.078604e+003, 7.082855e+005
1.079087e+003, 7.082832e+005
1.079569e+003, 7.084114e+005
1.080051e+003, 7.085436e+005
1.080533e+003, 7.085689e+005
1.081015e+003, 7.085554e+005
1.081497e+003, 7.086384e+005
1.081979e+003, 7.088448e+005
1.082461e+003, 7.089984e+005
1.082944e+003, 7.090796e+005
1.083426e+003, 7.091421e+005
1.083908e+003, 7.092121e+005
1.084390e+003, 7.093103e+005
1.084872e+003, 7.094949e+005
1.085354e+003, 7.097569e+005
1.085836e+003, 7.099295e+005
1.086318e+003, 7.099448e+005
1.086801e+003, 7.099770e+005
1.087283e+003, 7.100853e+005
1.087765e+003, 7.102120e+005
1.088247e+003, 7.102004e+005
1.088729e+003, 7.101274e+005
1.089211e+003, 7.102203e+005
1.089693e+003, 7.105695e+005
1.090175e+003, 7.108470e+005
1.090657e+003, 7.108324e+005
1.091140e+003, 7.107768e+005
1.091622e+003, 7.108081e+005
1.092104e+003, 7.109145e+005
1.092586e+003, 7.110498e+005
1.093068e+003, 7.112065e+005
1.093550e+003, 7.112973e+005
1.094032e+003, 7.112529e+005
1.094514e+003, 7.111782e+005
1.094997e+003, 7.110633e+005
1.095479e+003, 7.110086e+005
1.095961e+003, 7.111766e+005
1.096443e+003, 7.117100e+005
1.096925e+003, 7.119420e+005
1.097407e+003, 7.118282e+005
1.097889e+003, 7.116940e+005
1.098371e+003, 7.117939e+005
1.098854e+003, 7.120188e+005
1.099336e+003, 7.122878e+005
1.099818e+003, 7.125651e+005
1.100300e+003, 7.127308e+005
1.100782e+003, 7.126906e+005
1.101264e+003, 7.126464e+005
1.101746e+003, 7.126200e+005
1.102228e+003, 7.126069e+005
1.102710e+003, 7.126278e+005
1.103193e+003, 7.126576e+005
1.103675e+003, 7.125873e+005
1.104157e+003, 7.124096e+005
1.104639e+003, 7.123641e+005
1.105121e+003, 7.126896e+005
1.105603e+003, 7.130254e+005
1.106085e+003, 7.132340e+005
1.106567e+003, 7.133551e+005
1.107049e+003, 7.134961e+005
1.107531e+003, 7.136558e+005
1.108014e+003, 7.138156e+005
1.108496e+003, 7.139614e+005
1.108978e+003, 7.141264e+005
1.109460e+003, 7.142124e+005
1.109942e+003, 7.144096e+005
1.110424e+003, 7.150094e+005
1.110906e+003, 7.160456e+005
1.111388e+003, 7.162969e+005
1.111871e+003, 7.157051e+005
1.112353e+003, 7.151566e+005
1.112835e+003, 7.151414e+005
1.113317e+003, 7.153329e+005
1.113799e+003, 7.154703e+005
1.114281e+003, 7.155470e+005
1.114763e+003, 7.155399e+005
1.115245e+003, 7.153353e+005
1.115728e+003, 7.153413e+005
1.116210e+003, 7.156284e+005
1.116692e+003, 7.159336e+005
1.117174e+003, 7.159939e+005
1.117656e+003, 7.159486e+005
1.118138e+003, 7.160318e+005
1.118620e+003, 7.162329e+005
1.119102e+003, 7.164812e+005
1.119584e+003, 7.168202e+005
1.120067e+003, 7.170682e+005
1.120549e+003, 7.171261e+005
1.121031e+003, 7.171616e+005
1.121513e+003, 7.175258e+005
1.121995e+003, 7.180522e+005
1.122477e+003, 7.180982e+005
1.122959e+003, 7.176116e+005
1.123441e+003, 7.171808e+005
1.123924e+003, 7.171628e+005
1.124406e+003, 7.172214e+005
1.124888e+003, 7.172434e+005
1.125370e+003, 7.172240e+005
1.125852e+003, 7.171166e+005
1.126334e+003, 7.169420e+005
1.126816e+003, 7.168919e+005
1.127298e+003, 7.170574e+005
1.127781e+003, 7.171806e+005
1.128263e+003, 7.170481e+005
1.128745e+003, 7.168253e+005
1.129227e+003, 7.166084e+005
1.129709e+003, 7.164093e+005
1.130191e+003, 7.163953e+005
1.130673e+003, 7.165752e+005
1.131155e+003, 7.168069e+005
1.131637e+003, 7.170424e+005
1.132120e+003, 7.172777e+005
1.132602e+003, 7.174776e+005
1.133084e+003, 7.176789e+005
1.133566e+003, 7.179379e+005
1.134048e+003, 7.182911e+005
1.134530e+003, 7.185544e+005
1.135012e+003, 7.186941e+005
1.135494e+003, 7.188603e+005
1.135976e+003, 7.192245e+005
1.136458e+003, 7.196299e+005
1.136941e+003, 7.198134e+005
1.137423e+003, 7.198359e+005
1.137905e+003, 7.198407e+005
1.138387e+003, 7.197854e+005
1.138869e+003, 7.198497e+005
1.139351e+003, 7.200477e+005
1.139833e+003, 7.203494e+005
1.140315e+003, 7.207863e+005
1.140798e+003, 7.212811e+005
1.141280e+003, 7.216691e+005
1.141762e+003, 7.219418e+005
1.142244e+003, 7.220936e+005
1.142726e+003, 7.220221e+005
1.143208e+003, 7.219528e+005
1.143690e+003, 7.219302e+005
1.144172e+003, 7.219411e+005
1.144655e+003, 7.220234e+005
1.145137e+003, 7.221321e+005
1.145619e+003, 7.220323e+005
1.146101e+003, 7.216994e+005
1.146583e+003, 7.214399e+005
1.147065e+003, 7.213933e+005
1.147547e+003, 7.215271e+005
1.148029e+003, 7.218998e+005
1.148511e+003, 7.223989e+005
1.148994e+003, 7.226905e+005
1.149476e+003, 7.227956e+005
1.149958e+003, 7.228466e+005
1.150440e+003, 7.228353e+005
1.150922e+003, 7.229676e+005
1.151404e+003, 7.235059e+005
1.151886e+003, 7.241399e+005
1.152368e+003, 7.246209e+005
1.152851e+003, 7.249574e+005
1.153333e+003, 7.253436e+005
1.153815e+003, 7.257708e+005
1.154297e+003, 7.261723e+005
1.154779e+003, 7.265378e+005
1.155261e+003, 7.268084e+005
1.155743e+003, 7.268593e+005
1.156225e+003, 7.268098e+005
1.156708e+003, 7.268063e+005
1.157190e+003, 7.268734e+005
1.157672e+003, 7.268543e+005
1.158154e+003, 7.267459e+005
1.158636e+003, 7.266256e+005
1.159118e+003, 7.265313e+005
1.159600e+003, 7.264766e+005
1.160082e+003, 7.265431e+005
1.160564e+003, 7.266551e+005
1.161047e+003, 7.266574e+005
1.161529e+003, 7.264216e+005
1.162011e+003, 7.264103e+005
1.162493e+003, 7.266889e+005
1.162975e+003, 7.269639e+005
1.163457e+003, 7.269607e+005
1.163939e+003, 7.268493e+005
1.164421e+003, 7.268476e+005
1.164903e+003, 7.269334e+005
1.165385e+003, 7.270338e+005
1.165868e+003, 7.270557e+005
1.166350e+003, 7.272296e+005
1.166832e+003, 7.276159e+005
1.167314e+003, 7.279944e+005
1.167796e+003, 7.280959e+005
1.168278e+003, 7.280426e+005
1.168760e+003, 7.279955e+005
1.169242e+003, 7.279873e+005
1.169725e+003, 7.281359e+005
1.170207e+003, 7.287397e+005
1.170689e+003, 7.291219e+005
1.171171e+003, 7.291458e+005
1.171653e+003, 7.289930e+005
1.172135e+003, 7.288196e+005
1.172617e+003, 7.286950e+005
1.173099e+003, 7.288221e+005
1.173582e+003, 7.292164e+005
1.174064e+003, 7.295487e+005
1.174546e+003, 7.295400e+005
1.175028e+003, 7.296729e+005
1.175510e+003, 7.301390e+005
1.175992e+003, 7.307131e+005
1.176474e+003, 7.309223e+005
1.176956e+003, 7.308580e+005
1.177438e+003, 7.307644e+005
1.177921e+003, 7.306768e+005
1.178403e+003, 7.306488e+005
1.178885e+003, 7.306924e+005
1.179367e+003, 7.308319e+005
1.179849e+003, 7.311163e+005
1.180331e+003, 7.314833e+005
1.180813e+003, 7.317416e+005
1.181295e+003, 7.319061e+005
1.181778e+003, 7.320163e+005
1.182260e+003, 7.320754e+005
1.182742e+003, 7.321184e+005
1.183224e+003, 7.320709e+005
1.183706e+003, 7.321101e+005
1.184188e+003, 7.323476e+005
1.184670e+003, 7.327469e+005
1.185152e+003, 7.331141e+005
1.185635e+003, 7.334503e+005
1.186117e+003, 7.338031e+005
1.186599e+003, 7.342481e+005
1.187081e+003, 7.345741e+005
1.187563e+003, 7.346666e+005
1.188045e+003, 7.345851e+005
1.188527e+003, 7.342799e+005
1.189009e+003, 7.338010e+005
1.189491e+003, 7.338544e+005
1.189974e+003, 7.343739e+005
1.190456e+003, 7.348673e+005
1.190938e+003, 7.351552e+005
1.191420e+003, 7.352739e+005
1.191902e+003, 7.351094e+005
1.192384e+003, 7.348791e+005
1.192866e+003, 7.347886e+005
1.193348e+003, 7.348391e+005
1.193830e+003, 7.349889e+005
1.194313e+003, 7.352266e+005
1.194795e+003, 7.354371e+005
1.195277e+003, 7.355240e+005
1.195759e+003, 7.355932e+005
1.196241e+003, 7.357033e+005
1.196723e+003, 7.358247e+005
1.197205e+003, 7.359731e+005
1.197687e+003, 7.361596e+005
1.198169e+003, 7.359941e+005
1.198652e+003, 7.354790e+005
1.199134e+003, 7.350023e+005
1.199616e+003, 7.347987e+005
1.200098e+003, 7.347584e+005
1.200580e+003, 7.349103e+005
1.201062e+003, 7.351526e+005
1.201544e+003, 7.353223e+005
1.202026e+003, 7.354194e+005
1.202509e+003, 7.355002e+005
1.202991e+003, 7.355671e+005
1.203473e+003, 7.357414e+005
1.203955e+003, 7.362166e+005
1.204437e+003, 7.367131e+005
1.204919e+003, 7.370316e+005
1.205401e+003, 7.372324e+005
1.205883e+003, 7.374701e+005
1.206365e+003, 7.377413e+005
1.206848e+003, 7.378725e+005
1.207330e+003, 7.378289e+005
1.207812e+003, 7.377769e+005
1.208294e+003, 7.378701e+005
1.208776e+003, 7.379736e+005
1.209258e+003, 7.379589e+005
1.209740e+003, 7.378863e+005
1.210222e+003, 7.379690e+005
1.210705e+003, 7.382179e+005
1.211187e+003, 7.382426e+005
1.211669e+003, 7.379612e+005
1.212151e+003, 7.376612e+005
1.212633e+003, 7.375723e+005
1.213115e+003, 7.375683e+005
1.213597e+003, 7.375468e+005
1.214079e+003, 7.375424e+005
1.214562e+003, 7.377514e+005
1.215044e+003, 7.381686e+005
1.215526e+003, 7.384273e+005
1.216008e+003, 7.384139e+005
1.216490e+003, 7.383904e+005
1.216972e+003, 7.385525e+005
1.217454e+003, 7.387826e+005
1.217936e+003, 7.389844e+005
1.218418e+003, 7.391570e+005
1.218901e+003, 7.393546e+005
1.219383e+003, 7.395679e+005
1.219865e+003, 7.397676e+005
1.220347e+003, 7.399577e+005
1.220829e+003, 7.400503e+005
1.221311e+003, 7.399058e+005
1.221793e+003, 7.396963e+005
1.222275e+003, 7.395357e+005
1.222757e+003, 7.394303e+005
1.223240e+003, 7.394258e+005
1.223722e+003, 7.395168e+005
1.224204e+003, 7.395561e+005
1.224686e+003, 7.395156e+005
1.225168e+003, 7.393859e+005
1.225650e+003, 7.390848e+005
1.226132e+003, 7.387761e+005
1.226614e+003, 7.385838e+005
1.227096e+003, 7.385044e+005
1.227579e+003, 7.384233e+005
1.228061e+003, 7.383606e+005
1.228543e+003, 7.385096e+005
1.229025e+003, 7.390491e+005
1.229507e+003, 7.395456e+005
1.229989e+003, 7.397006e+005
1.230471e+003, 7.397258e+005
1.230953e+003, 7.397639e+005
1.231436e+003, 7.398129e+005
1.231918e+003, 7.399331e+005
1.232400e+003, 7.401093e+005
1.232882e+003, 7.402567e+005
1.233364e+003, 7.403011e+005
1.233846e+003, 7.403866e+005
1.234328e+003, 7.406740e+005
1.234810e+003, 7.409527e+005
1.235292e+003, 7.410463e+005
1.235775e+003, 7.409899e+005
1.236257e+003, 7.410818e+005
1.236739e+003, 7.412894e+005
1.237221e+003, 7.414114e+005
1.237703e+003, 7.412361e+005
1.238185e+003, 7.411672e+005
1.238667e+003, 7.414151e+005
1.239149e+003, 7.417704e+005
1.239632e+003, 7.421414e+005
1.240114e+003, 7.424968e+005
1.240596e+003, 7.426504e+005
1.241078e+003, 7.426407e+005
1.241560e+003, 7.426394e+005
1.242042e+003, 7.426949e+005
1.242524e+003, 7.428077e+005
1.243006e+003, 7.429967e+005
1.243489e+003, 7.432078e+005
1.243971e+003, 7.434146e+005
1.244453e+003, 7.436059e+005
1.244935e+003, 7.437164e+005
1.245417e+003, 7.437633e+005
1.245899e+003, 7.438086e+005
1.246381e+003, 7.438155e+005
1.246863e+003, 7.439351e+005
1.247345e+003, 7.442367e+005
1.247828e+003, 7.445578e+005
1.248310e+003, 7.447564e+005
1.248792e+003, 7.448718e+005
1.249274e+003, 7.449284e+005
1.249756e+003, 7.449904e+005
1.250238e+003, 7.452581e+005
1.250720e+003, 7.462994e+005
1.251202e+003, 7.467128e+005
1.251684e+003, 7.461783e+005
1.252167e+003, 7.455354e+005
1.252649e+003, 7.455294e+005
1.253131e+003, 7.459041e+005
1.253613e+003, 7.462326e+005
1.254095e+003, 7.464999e+005
1.254577e+003, 7.467046e+005
1.255059e+003, 7.468431e+005
1.255541e+003, 7.468751e+005
1.256023e+003, 7.467486e+005
1.256506e+003, 7.466681e+005
1.256988e+003, 7.469017e+005
1.257470e+003, 7.472371e+005
1.257952e+003, 7.474116e+005
1.258434e+003, 7.474395e+005
1.258916e+003, 7.473532e+005
1.259398e+003, 7.470874e+005
1.259880e+003, 7.469679e+005
1.260363e+003, 7.470284e+005
1.260845e+003, 7.471924e+005
1.261327e+003, 7.476021e+005
1.261809e+003, 7.479111e+005
1.262291e+003, 7.476219e+005
1.262773e+003, 7.469578e+005
1.263255e+003, 7.465228e+005
1.263737e+003, 7.463500e+005
1.264219e+003, 7.463697e+005
1.264702e+003, 7.465919e+005
1.265184e+003, 7.467413e+005
1.265666e+003, 7.464470e+005
1.266148e+003, 7.461519e+005
1.266630e+003, 7.462289e+005
1.267112e+003, 7.465602e+005
1.267594e+003, 7.468933e+005
1.268076e+003, 7.472443e+005
1.268559e+003, 7.474121e+005
1.269041e+003, 7.473876e+005
1.269523e+003, 7.473581e+005
1.270005e+003, 7.474461e+005
1.270487e+003, 7.475734e+005
1.270969e+003, 7.477373e+005
1.271451e+003, 7.478805e+005
1.271933e+003, 7.478886e+005
1.272416e+003, 7.477761e+005
1.272898e+003, 7.477617e+005
1.273380e+003, 7.478560e+005
1.273862e+003, 7.480540e+005
1.274344e+003, 7.485510e+005
1.274826e+003, 7.488832e+005
1.275308e+003, 7.488168e+005
1.275790e+003, 7.486129e+005
1.276272e+003, 7.485775e+005
1.276755e+003, 7.486884e+005
1.277237e+003, 7.489321e+005
1.277719e+003, 7.492691e+005
1.278201e+003, 7.494541e+005
1.278683e+003, 7.492065e+005
1.279165e+003, 7.490387e+005
1.279647e+003, 7.490429e+005
1.280129e+003, 7.491569e+005
1.280611e+003, 7.493405e+005
1.281094e+003, 7.495676e+005
1.281576e+003, 7.497906e+005
1.282058e+003, 7.500055e+005
1.282540e+003, 7.502070e+005
1.283022e+003, 7.504014e+005
1.283504e+003, 7.505449e+005
1.283986e+003, 7.506147e+005
1.284468e+003, 7.506783e+005
1.284950e+003, 7.508022e+005
1.285433e+003, 7.509599e+005
1.285915e+003, 7.511443e+005
1.286397e+003, 7.513335e+005
1.286879e+003, 7.514329e+005
1.287361e+003, 7.513753e+005
1.287843e+003, 7.515325e+005
1.288325e+003, 7.519778e+005
1.288807e+003, 7.523277e+005
1.289290e+003, 7.521159e+005
1.289772e+003, 7.517978e+005
1.290254e+003, 7.518262e+005
1.290736e+003, 7.520369e+005
1.291218e+003, 7.519464e+005
1.291700e+003, 7.515003e+005
1.292182e+003, 7.515539e+005
1.292664e+003, 7.521550e+005
1.293146e+003, 7.526981e+005
1.293629e+003, 7.526794e+005
1.294111e+003, 7.525621e+005
1.294593e+003, 7.526060e+005
1.295075e+003, 7.526946e+005
1.295557e+003, 7.526826e+005
1.296039e+003, 7.525822e+005
1.296521e+003, 7.524941e+005
1.297003e+003, 7.524056e+005
1.297486e+003, 7.522741e+005
1.297968e+003, 7.521421e+005
1.298450e+003, 7.520108e+005
1.298932e+003, 7.518756e+005
1.299414e+003, 7.518046e+005
1.299896e+003, 7.519554e+005
1.300378e+003, 7.522288e+005
1.300860e+003, 7.522336e+005
1.301343e+003, 7.520971e+005
1.301825e+003, 7.523596e+005
##END=



