##NAMES=Zeophyllite
##RRUFFID=R060150
##IDEAL CHEMISTRY=Ca_13_Si_10_O_28_(OH)_2_F_8_&#183;6H_2_O
##LOCALITY=Radzein, near Teplitz, Bohemia, Czech Republic
##OWNER=RRUFF
##SOURCE=University of Arizona Mineral Museum
##DESCRIPTION=Spherical aggregates of white platy crystals
##STATUS=The identification of this mineral has been confirmed by X-ray diffraction and chemical analysis
##URL=rruff.info/R060150
##MEASURED CHEMISTRY=(Ca_12.67_Al_0.33_)_Σ=13_(Si_9.67_Al_0.33_)_10_O_28_F_10_·6H_2_O
9.059570e+001, 3.494304e+003
9.107782e+001, 3.390391e+003
9.155994e+001, 3.353610e+003
9.204205e+001, 3.433540e+003
9.252417e+001, 3.546967e+003
9.300629e+001, 3.665761e+003
9.348840e+001, 3.761226e+003
9.397052e+001, 3.810039e+003
9.445264e+001, 3.804794e+003
9.493475e+001, 3.794473e+003
9.541687e+001, 3.782581e+003
9.589898e+001, 3.773749e+003
9.638110e+001, 3.765753e+003
9.686321e+001, 3.756277e+003
9.734533e+001, 3.741798e+003
9.782745e+001, 3.716525e+003
9.830956e+001, 3.695417e+003
9.879168e+001, 3.679367e+003
9.927380e+001, 3.666610e+003
9.975591e+001, 3.656399e+003
1.002380e+002, 3.648095e+003
1.007201e+002, 3.641138e+003
1.012023e+002, 3.634977e+003
1.016844e+002, 3.629911e+003
1.021665e+002, 3.626258e+003
1.026486e+002, 3.624502e+003
1.031307e+002, 3.623262e+003
1.036128e+002, 3.620720e+003
1.040950e+002, 3.616204e+003
1.045771e+002, 3.612749e+003
1.050592e+002, 3.611119e+003
1.055413e+002, 3.610826e+003
1.060234e+002, 3.611826e+003
1.065055e+002, 3.614234e+003
1.069877e+002, 3.617751e+003
1.074698e+002, 3.621643e+003
1.079519e+002, 3.626484e+003
1.084340e+002, 3.630499e+003
1.089161e+002, 3.632536e+003
1.093982e+002, 3.633042e+003
1.098804e+002, 3.633153e+003
1.103625e+002, 3.633720e+003
1.108446e+002, 3.634618e+003
1.113267e+002, 3.636366e+003
1.118088e+002, 3.639086e+003
1.122909e+002, 3.642397e+003
1.127731e+002, 3.646720e+003
1.132552e+002, 3.651781e+003
1.137373e+002, 3.656500e+003
1.142194e+002, 3.659263e+003
1.147015e+002, 3.658853e+003
1.151836e+002, 3.658374e+003
1.156658e+002, 3.657833e+003
1.161479e+002, 3.657208e+003
1.166300e+002, 3.656569e+003
1.171121e+002, 3.655957e+003
1.175942e+002, 3.655140e+003
1.180763e+002, 3.653325e+003
1.185584e+002, 3.649548e+003
1.190406e+002, 3.646857e+003
1.195227e+002, 3.647114e+003
1.200048e+002, 3.649285e+003
1.204869e+002, 3.650497e+003
1.209690e+002, 3.649246e+003
1.214511e+002, 3.646280e+003
1.219333e+002, 3.643491e+003
1.224154e+002, 3.640824e+003
1.228975e+002, 3.638348e+003
1.233796e+002, 3.636462e+003
1.238617e+002, 3.635298e+003
1.243438e+002, 3.633379e+003
1.248260e+002, 3.629448e+003
1.253081e+002, 3.624548e+003
1.257902e+002, 3.619286e+003
1.262723e+002, 3.613586e+003
1.267544e+002, 3.608037e+003
1.272365e+002, 3.603908e+003
1.277187e+002, 3.600867e+003
1.282008e+002, 3.600173e+003
1.286829e+002, 3.602315e+003
1.291650e+002, 3.606545e+003
1.296471e+002, 3.611888e+003
1.301292e+002, 3.617749e+003
1.306114e+002, 3.624176e+003
1.310935e+002, 3.631729e+003
1.315756e+002, 3.641404e+003
1.320577e+002, 3.651436e+003
1.325398e+002, 3.662632e+003
1.330219e+002, 3.674034e+003
1.335041e+002, 3.683911e+003
1.339862e+002, 3.691106e+003
1.344683e+002, 3.695965e+003
1.349504e+002, 3.694180e+003
1.354325e+002, 3.683927e+003
1.359146e+002, 3.670006e+003
1.363968e+002, 3.654274e+003
1.368789e+002, 3.637267e+003
1.373610e+002, 3.619585e+003
1.378431e+002, 3.602020e+003
1.383252e+002, 3.584458e+003
1.388073e+002, 3.567226e+003
1.392895e+002, 3.549179e+003
1.397716e+002, 3.531850e+003
1.402537e+002, 3.517477e+003
1.407358e+002, 3.507018e+003
1.412179e+002, 3.497949e+003
1.417000e+002, 3.486582e+003
1.421821e+002, 3.473107e+003
1.426643e+002, 3.461131e+003
1.431464e+002, 3.452706e+003
1.436285e+002, 3.447118e+003
1.441106e+002, 3.441798e+003
1.445927e+002, 3.436497e+003
1.450748e+002, 3.430974e+003
1.455570e+002, 3.424727e+003
1.460391e+002, 3.417785e+003
1.465212e+002, 3.411291e+003
1.470033e+002, 3.406359e+003
1.474854e+002, 3.403116e+003
1.479675e+002, 3.400114e+003
1.484497e+002, 3.397487e+003
1.489318e+002, 3.394731e+003
1.494139e+002, 3.391340e+003
1.498960e+002, 3.387267e+003
1.503781e+002, 3.383147e+003
1.508602e+002, 3.380073e+003
1.513424e+002, 3.378706e+003
1.518245e+002, 3.376902e+003
1.523066e+002, 3.373581e+003
1.527887e+002, 3.370299e+003
1.532708e+002, 3.368451e+003
1.537529e+002, 3.368539e+003
1.542351e+002, 3.369783e+003
1.547172e+002, 3.370228e+003
1.551993e+002, 3.368548e+003
1.556814e+002, 3.367646e+003
1.561635e+002, 3.368625e+003
1.566456e+002, 3.370165e+003
1.571278e+002, 3.370529e+003
1.576099e+002, 3.368785e+003
1.580920e+002, 3.365543e+003
1.585741e+002, 3.363415e+003
1.590562e+002, 3.364433e+003
1.595383e+002, 3.364129e+003
1.600205e+002, 3.360105e+003
1.605026e+002, 3.353820e+003
1.609847e+002, 3.348676e+003
1.614668e+002, 3.346767e+003
1.619489e+002, 3.347509e+003
1.624310e+002, 3.347809e+003
1.629131e+002, 3.347957e+003
1.633953e+002, 3.347466e+003
1.638774e+002, 3.345541e+003
1.643595e+002, 3.342355e+003
1.648416e+002, 3.339659e+003
1.653237e+002, 3.338837e+003
1.658058e+002, 3.339247e+003
1.662880e+002, 3.339303e+003
1.667701e+002, 3.338788e+003
1.672522e+002, 3.337902e+003
1.677343e+002, 3.336720e+003
1.682164e+002, 3.335132e+003
1.686985e+002, 3.333788e+003
1.691807e+002, 3.333176e+003
1.696628e+002, 3.333009e+003
1.701449e+002, 3.332997e+003
1.706270e+002, 3.333028e+003
1.711091e+002, 3.333148e+003
1.715912e+002, 3.333567e+003
1.720734e+002, 3.334676e+003
1.725555e+002, 3.335328e+003
1.730376e+002, 3.334654e+003
1.735197e+002, 3.333412e+003
1.740018e+002, 3.332774e+003
1.744839e+002, 3.333684e+003
1.749661e+002, 3.335747e+003
1.754482e+002, 3.336441e+003
1.759303e+002, 3.334346e+003
1.764124e+002, 3.332408e+003
1.768945e+002, 3.331155e+003
1.773766e+002, 3.330640e+003
1.778588e+002, 3.330972e+003
1.783409e+002, 3.332416e+003
1.788230e+002, 3.334990e+003
1.793051e+002, 3.336228e+003
1.797872e+002, 3.334615e+003
1.802693e+002, 3.333146e+003
1.807515e+002, 3.332941e+003
1.812336e+002, 3.333667e+003
1.817157e+002, 3.334300e+003
1.821978e+002, 3.333940e+003
1.826799e+002, 3.332454e+003
1.831620e+002, 3.331080e+003
1.836441e+002, 3.330124e+003
1.841263e+002, 3.328958e+003
1.846084e+002, 3.327103e+003
1.850905e+002, 3.324648e+003
1.855726e+002, 3.322094e+003
1.860547e+002, 3.319794e+003
1.865368e+002, 3.317753e+003
1.870190e+002, 3.316760e+003
1.875011e+002, 3.317984e+003
1.879832e+002, 3.319412e+003
1.884653e+002, 3.319745e+003
1.889474e+002, 3.318827e+003
1.894296e+002, 3.316866e+003
1.899117e+002, 3.313575e+003
1.903938e+002, 3.309041e+003
1.908759e+002, 3.305448e+003
1.913580e+002, 3.302972e+003
1.918401e+002, 3.301603e+003
1.923223e+002, 3.301852e+003
1.928044e+002, 3.304112e+003
1.932865e+002, 3.306220e+003
1.937686e+002, 3.305228e+003
1.942507e+002, 3.302129e+003
1.947328e+002, 3.300003e+003
1.952150e+002, 3.300671e+003
1.956971e+002, 3.302787e+003
1.961792e+002, 3.303524e+003
1.966613e+002, 3.302092e+003
1.971434e+002, 3.300492e+003
1.976255e+002, 3.300592e+003
1.981077e+002, 3.301751e+003
1.985898e+002, 3.302329e+003
1.990719e+002, 3.301350e+003
1.995540e+002, 3.299054e+003
2.000361e+002, 3.296492e+003
2.005182e+002, 3.293633e+003
2.010004e+002, 3.290535e+003
2.014825e+002, 3.287197e+003
2.019646e+002, 3.283694e+003
2.024467e+002, 3.280250e+003
2.029288e+002, 3.277175e+003
2.034109e+002, 3.274419e+003
2.038930e+002, 3.271069e+003
2.043752e+002, 3.265908e+003
2.048573e+002, 3.261507e+003
2.053394e+002, 3.260053e+003
2.058215e+002, 3.260316e+003
2.063036e+002, 3.259299e+003
2.067857e+002, 3.254175e+003
2.072679e+002, 3.244682e+003
2.077500e+002, 3.236305e+003
2.082321e+002, 3.228816e+003
2.087142e+002, 3.222741e+003
2.091963e+002, 3.219098e+003
2.096784e+002, 3.217220e+003
2.101606e+002, 3.215398e+003
2.106427e+002, 3.211871e+003
2.111248e+002, 3.206190e+003
2.116069e+002, 3.202993e+003
2.120890e+002, 3.204300e+003
2.125711e+002, 3.205938e+003
2.130533e+002, 3.206793e+003
2.135354e+002, 3.206583e+003
2.140175e+002, 3.205149e+003
2.144996e+002, 3.202140e+003
2.149817e+002, 3.197134e+003
2.154638e+002, 3.193592e+003
2.159460e+002, 3.192153e+003
2.164281e+002, 3.191246e+003
2.169102e+002, 3.190091e+003
2.173923e+002, 3.188710e+003
2.178744e+002, 3.187627e+003
2.183565e+002, 3.187453e+003
2.188387e+002, 3.188375e+003
2.193208e+002, 3.188236e+003
2.198029e+002, 3.186692e+003
2.202850e+002, 3.184511e+003
2.207671e+002, 3.181829e+003
2.212492e+002, 3.178787e+003
2.217314e+002, 3.175927e+003
2.222135e+002, 3.173675e+003
2.226956e+002, 3.172110e+003
2.231777e+002, 3.170978e+003
2.236598e+002, 3.170206e+003
2.241419e+002, 3.169900e+003
2.246240e+002, 3.170580e+003
2.251062e+002, 3.172178e+003
2.255883e+002, 3.173313e+003
2.260704e+002, 3.172641e+003
2.265525e+002, 3.170357e+003
2.270346e+002, 3.168462e+003
2.275167e+002, 3.166754e+003
2.279989e+002, 3.165698e+003
2.284810e+002, 3.166366e+003
2.289631e+002, 3.168882e+003
2.294452e+002, 3.170731e+003
2.299273e+002, 3.169179e+003
2.304094e+002, 3.165528e+003
2.308916e+002, 3.163425e+003
2.313737e+002, 3.164527e+003
2.318558e+002, 3.166848e+003
2.323379e+002, 3.168255e+003
2.328200e+002, 3.168670e+003
2.333021e+002, 3.168677e+003
2.337843e+002, 3.168275e+003
2.342664e+002, 3.167755e+003
2.347485e+002, 3.167512e+003
2.352306e+002, 3.167206e+003
2.357127e+002, 3.167589e+003
2.361948e+002, 3.170273e+003
2.366770e+002, 3.176005e+003
2.371591e+002, 3.180984e+003
2.376412e+002, 3.182853e+003
2.381233e+002, 3.183014e+003
2.386054e+002, 3.182828e+003
2.390875e+002, 3.182739e+003
2.395697e+002, 3.182442e+003
2.400518e+002, 3.181355e+003
2.405339e+002, 3.179243e+003
2.410160e+002, 3.177067e+003
2.414981e+002, 3.175530e+003
2.419802e+002, 3.173975e+003
2.424624e+002, 3.171681e+003
2.429445e+002, 3.168321e+003
2.434266e+002, 3.164379e+003
2.439087e+002, 3.160649e+003
2.443908e+002, 3.157158e+003
2.448729e+002, 3.153792e+003
2.453550e+002, 3.150206e+003
2.458372e+002, 3.146861e+003
2.463193e+002, 3.144404e+003
2.468014e+002, 3.143099e+003
2.472835e+002, 3.142075e+003
2.477656e+002, 3.139719e+003
2.482477e+002, 3.135476e+003
2.487299e+002, 3.131162e+003
2.492120e+002, 3.126494e+003
2.496941e+002, 3.122242e+003
2.501762e+002, 3.119266e+003
2.506583e+002, 3.117787e+003
2.511404e+002, 3.116927e+003
2.516226e+002, 3.115176e+003
2.521047e+002, 3.112130e+003
2.525868e+002, 3.109128e+003
2.530689e+002, 3.106334e+003
2.535510e+002, 3.103620e+003
2.540331e+002, 3.101005e+003
2.545153e+002, 3.098461e+003
2.549974e+002, 3.095746e+003
2.554795e+002, 3.092418e+003
2.559616e+002, 3.088200e+003
2.564437e+002, 3.083990e+003
2.569258e+002, 3.079133e+003
2.574080e+002, 3.074773e+003
2.578901e+002, 3.071920e+003
2.583722e+002, 3.070625e+003
2.588543e+002, 3.069889e+003
2.593364e+002, 3.068355e+003
2.598185e+002, 3.065639e+003
2.603007e+002, 3.063046e+003
2.607828e+002, 3.060275e+003
2.612649e+002, 3.057787e+003
2.617470e+002, 3.055728e+003
2.622291e+002, 3.054181e+003
2.627112e+002, 3.053369e+003
2.631934e+002, 3.053687e+003
2.636755e+002, 3.055745e+003
2.641576e+002, 3.056628e+003
2.646397e+002, 3.055995e+003
2.651218e+002, 3.054715e+003
2.656039e+002, 3.053234e+003
2.660861e+002, 3.051578e+003
2.665682e+002, 3.049411e+003
2.670503e+002, 3.046160e+003
2.675324e+002, 3.041307e+003
2.680145e+002, 3.039041e+003
2.684966e+002, 3.041903e+003
2.689788e+002, 3.044497e+003
2.694609e+002, 3.043862e+003
2.699430e+002, 3.040406e+003
2.704251e+002, 3.036341e+003
2.709072e+002, 3.033339e+003
2.713893e+002, 3.031431e+003
2.718715e+002, 3.030507e+003
2.723536e+002, 3.031555e+003
2.728357e+002, 3.032397e+003
2.733178e+002, 3.031850e+003
2.737999e+002, 3.030283e+003
2.742820e+002, 3.028822e+003
2.747642e+002, 3.028224e+003
2.752463e+002, 3.028420e+003
2.757284e+002, 3.028616e+003
2.762105e+002, 3.028620e+003
2.766926e+002, 3.028812e+003
2.771747e+002, 3.028952e+003
2.776568e+002, 3.029363e+003
2.781389e+002, 3.031258e+003
2.786211e+002, 3.035790e+003
2.791032e+002, 3.041602e+003
2.795853e+002, 3.042494e+003
2.800674e+002, 3.033792e+003
2.805495e+002, 3.026721e+003
2.810316e+002, 3.025660e+003
2.815138e+002, 3.027933e+003
2.819959e+002, 3.028637e+003
2.824780e+002, 3.025521e+003
2.829601e+002, 3.020169e+003
2.834422e+002, 3.016803e+003
2.839243e+002, 3.016895e+003
2.844065e+002, 3.015903e+003
2.848886e+002, 3.012133e+003
2.853707e+002, 3.006941e+003
2.858528e+002, 3.002329e+003
2.863349e+002, 2.998973e+003
2.868170e+002, 2.996202e+003
2.872992e+002, 2.992763e+003
2.877813e+002, 2.988302e+003
2.882634e+002, 2.984471e+003
2.887455e+002, 2.981703e+003
2.892276e+002, 2.979652e+003
2.897097e+002, 2.978337e+003
2.901919e+002, 2.977818e+003
2.906740e+002, 2.976861e+003
2.911561e+002, 2.973642e+003
2.916382e+002, 2.967817e+003
2.921203e+002, 2.962401e+003
2.926024e+002, 2.957690e+003
2.930846e+002, 2.953506e+003
2.935667e+002, 2.949894e+003
2.940488e+002, 2.946821e+003
2.945309e+002, 2.943661e+003
2.950130e+002, 2.939580e+003
2.954951e+002, 2.934607e+003
2.959773e+002, 2.930832e+003
2.964594e+002, 2.929304e+003
2.969415e+002, 2.928277e+003
2.974236e+002, 2.926307e+003
2.979057e+002, 2.923405e+003
2.983878e+002, 2.920544e+003
2.988700e+002, 2.918449e+003
2.993521e+002, 2.916992e+003
2.998342e+002, 2.915226e+003
3.003163e+002, 2.912262e+003
3.007984e+002, 2.909793e+003
3.012805e+002, 2.909402e+003
3.017627e+002, 2.910593e+003
3.022448e+002, 2.911096e+003
3.027269e+002, 2.909733e+003
3.032090e+002, 2.906816e+003
3.036911e+002, 2.903466e+003
3.041732e+002, 2.899448e+003
3.046554e+002, 2.895443e+003
3.051375e+002, 2.891424e+003
3.056196e+002, 2.887643e+003
3.061017e+002, 2.884980e+003
3.065838e+002, 2.884136e+003
3.070659e+002, 2.883921e+003
3.075481e+002, 2.881876e+003
3.080302e+002, 2.877691e+003
3.085123e+002, 2.873534e+003
3.089944e+002, 2.869696e+003
3.094765e+002, 2.866427e+003
3.099586e+002, 2.864476e+003
3.104408e+002, 2.864238e+003
3.109229e+002, 2.864465e+003
3.114050e+002, 2.863408e+003
3.118871e+002, 2.861030e+003
3.123692e+002, 2.858805e+003
3.128513e+002, 2.857361e+003
3.133335e+002, 2.856041e+003
3.138156e+002, 2.853851e+003
3.142977e+002, 2.850610e+003
3.147798e+002, 2.847359e+003
3.152619e+002, 2.845030e+003
3.157440e+002, 2.843595e+003
3.162262e+002, 2.842364e+003
3.167083e+002, 2.842020e+003
3.171904e+002, 2.841327e+003
3.176725e+002, 2.838609e+003
3.181546e+002, 2.834028e+003
3.186367e+002, 2.830294e+003
3.191188e+002, 2.829567e+003
3.196010e+002, 2.831197e+003
3.200831e+002, 2.831571e+003
3.205652e+002, 2.829992e+003
3.210473e+002, 2.827913e+003
3.215294e+002, 2.825981e+003
3.220115e+002, 2.824188e+003
3.224937e+002, 2.822433e+003
3.229758e+002, 2.820645e+003
3.234579e+002, 2.818932e+003
3.239400e+002, 2.817687e+003
3.244221e+002, 2.817344e+003
3.249042e+002, 2.816500e+003
3.253864e+002, 2.814287e+003
3.258685e+002, 2.811300e+003
3.263506e+002, 2.808645e+003
3.268327e+002, 2.806696e+003
3.273148e+002, 2.805087e+003
3.277969e+002, 2.803348e+003
3.282791e+002, 2.801566e+003
3.287612e+002, 2.799323e+003
3.292433e+002, 2.795999e+003
3.297254e+002, 2.792434e+003
3.302075e+002, 2.789754e+003
3.306896e+002, 2.788152e+003
3.311718e+002, 2.786747e+003
3.316539e+002, 2.784684e+003
3.321360e+002, 2.781897e+003
3.326181e+002, 2.778937e+003
3.331002e+002, 2.774921e+003
3.335823e+002, 2.771432e+003
3.340645e+002, 2.770077e+003
3.345466e+002, 2.770640e+003
3.350287e+002, 2.771157e+003
3.355108e+002, 2.770218e+003
3.359929e+002, 2.768029e+003
3.364750e+002, 2.766379e+003
3.369572e+002, 2.765577e+003
3.374393e+002, 2.764873e+003
3.379214e+002, 2.764229e+003
3.384035e+002, 2.763438e+003
3.388856e+002, 2.762005e+003
3.393677e+002, 2.759665e+003
3.398499e+002, 2.756621e+003
3.403320e+002, 2.753280e+003
3.408141e+002, 2.748769e+003
3.412962e+002, 2.745522e+003
3.417783e+002, 2.745311e+003
3.422604e+002, 2.746142e+003
3.427426e+002, 2.745380e+003
3.432247e+002, 2.742277e+003
3.437068e+002, 2.737948e+003
3.441889e+002, 2.733820e+003
3.446710e+002, 2.729842e+003
3.451531e+002, 2.726421e+003
3.456353e+002, 2.723926e+003
3.461174e+002, 2.721784e+003
3.465995e+002, 2.719651e+003
3.470816e+002, 2.717476e+003
3.475637e+002, 2.715238e+003
3.480458e+002, 2.712964e+003
3.485280e+002, 2.710651e+003
3.490101e+002, 2.708102e+003
3.494922e+002, 2.705196e+003
3.499743e+002, 2.702237e+003
3.504564e+002, 2.699145e+003
3.509385e+002, 2.696131e+003
3.514207e+002, 2.693608e+003
3.519028e+002, 2.691845e+003
3.523849e+002, 2.690745e+003
3.528670e+002, 2.689880e+003
3.533491e+002, 2.689946e+003
3.538312e+002, 2.689400e+003
3.543134e+002, 2.686890e+003
3.547955e+002, 2.684140e+003
3.552776e+002, 2.683678e+003
3.557597e+002, 2.686303e+003
3.562418e+002, 2.689866e+003
3.567239e+002, 2.690630e+003
3.572061e+002, 2.686464e+003
3.576882e+002, 2.683736e+003
3.581703e+002, 2.682908e+003
3.586524e+002, 2.683000e+003
3.591345e+002, 2.683605e+003
3.596166e+002, 2.684529e+003
3.600987e+002, 2.685489e+003
3.605808e+002, 2.686187e+003
3.610630e+002, 2.686557e+003
3.615451e+002, 2.687233e+003
3.620272e+002, 2.689184e+003
3.625093e+002, 2.690413e+003
3.629914e+002, 2.689868e+003
3.634735e+002, 2.688130e+003
3.639557e+002, 2.686342e+003
3.644378e+002, 2.685202e+003
3.649199e+002, 2.684533e+003
3.654020e+002, 2.683586e+003
3.658841e+002, 2.682539e+003
3.663662e+002, 2.680925e+003
3.668484e+002, 2.678264e+003
3.673305e+002, 2.675282e+003
3.678126e+002, 2.672957e+003
3.682947e+002, 2.671532e+003
3.687768e+002, 2.669999e+003
3.692589e+002, 2.666381e+003
3.697411e+002, 2.659180e+003
3.702232e+002, 2.654062e+003
3.707053e+002, 2.653509e+003
3.711874e+002, 2.653006e+003
3.716695e+002, 2.649595e+003
3.721516e+002, 2.643688e+003
3.726338e+002, 2.638002e+003
3.731159e+002, 2.635218e+003
3.735980e+002, 2.635219e+003
3.740801e+002, 2.633975e+003
3.745622e+002, 2.629977e+003
3.750443e+002, 2.626553e+003
3.755265e+002, 2.624954e+003
3.760086e+002, 2.624562e+003
3.764907e+002, 2.624614e+003
3.769728e+002, 2.624959e+003
3.774549e+002, 2.625006e+003
3.779370e+002, 2.623294e+003
3.784192e+002, 2.619309e+003
3.789013e+002, 2.615005e+003
3.793834e+002, 2.609750e+003
3.798655e+002, 2.605097e+003
3.803476e+002, 2.602625e+003
3.808297e+002, 2.602628e+003
3.813119e+002, 2.603387e+003
3.817940e+002, 2.603564e+003
3.822761e+002, 2.603156e+003
3.827582e+002, 2.601556e+003
3.832403e+002, 2.597960e+003
3.837224e+002, 2.593966e+003
3.842046e+002, 2.590650e+003
3.846867e+002, 2.587894e+003
3.851688e+002, 2.585128e+003
3.856509e+002, 2.581668e+003
3.861330e+002, 2.578080e+003
3.866151e+002, 2.575883e+003
3.870973e+002, 2.575491e+003
3.875794e+002, 2.574988e+003
3.880615e+002, 2.572965e+003
3.885436e+002, 2.570199e+003
3.890257e+002, 2.567769e+003
3.895078e+002, 2.565962e+003
3.899900e+002, 2.564340e+003
3.904721e+002, 2.562509e+003
3.909542e+002, 2.560488e+003
3.914363e+002, 2.558647e+003
3.919184e+002, 2.557411e+003
3.924005e+002, 2.556001e+003
3.928827e+002, 2.553059e+003
3.933648e+002, 2.548433e+003
3.938469e+002, 2.544469e+003
3.943290e+002, 2.543181e+003
3.948111e+002, 2.542799e+003
3.952932e+002, 2.539974e+003
3.957754e+002, 2.533974e+003
3.962575e+002, 2.528210e+003
3.967396e+002, 2.526004e+003
3.972217e+002, 2.527089e+003
3.977038e+002, 2.527144e+003
3.981859e+002, 2.525870e+003
3.986681e+002, 2.523631e+003
3.991501e+002, 2.519869e+003
3.996323e+002, 2.515156e+003
4.001144e+002, 2.511430e+003
4.005965e+002, 2.509672e+003
4.010786e+002, 2.509491e+003
4.015607e+002, 2.510046e+003
4.020428e+002, 2.512774e+003
4.025250e+002, 2.513624e+003
4.030071e+002, 2.510702e+003
4.034892e+002, 2.506065e+003
4.039713e+002, 2.501775e+003
4.044534e+002, 2.498387e+003
4.049355e+002, 2.495816e+003
4.054177e+002, 2.494074e+003
4.058998e+002, 2.493414e+003
4.063819e+002, 2.492383e+003
4.068640e+002, 2.490875e+003
4.073461e+002, 2.489163e+003
4.078282e+002, 2.487017e+003
4.083104e+002, 2.484766e+003
4.087925e+002, 2.483201e+003
4.092746e+002, 2.482877e+003
4.097567e+002, 2.483455e+003
4.102388e+002, 2.483335e+003
4.107209e+002, 2.481471e+003
4.112031e+002, 2.480265e+003
4.116852e+002, 2.481070e+003
4.121673e+002, 2.481980e+003
4.126494e+002, 2.480822e+003
4.131315e+002, 2.477194e+003
4.136136e+002, 2.472850e+003
4.140958e+002, 2.470266e+003
4.145779e+002, 2.470070e+003
4.150600e+002, 2.469078e+003
4.155421e+002, 2.467085e+003
4.160242e+002, 2.464472e+003
4.165063e+002, 2.460917e+003
4.169885e+002, 2.456824e+003
4.174706e+002, 2.453003e+003
4.179527e+002, 2.449770e+003
4.184348e+002, 2.447344e+003
4.189169e+002, 2.446694e+003
4.193990e+002, 2.448816e+003
4.198812e+002, 2.450526e+003
4.203633e+002, 2.450823e+003
4.208454e+002, 2.450305e+003
4.213275e+002, 2.449452e+003
4.218096e+002, 2.448374e+003
4.222917e+002, 2.446926e+003
4.227739e+002, 2.444901e+003
4.232560e+002, 2.442310e+003
4.237381e+002, 2.439438e+003
4.242202e+002, 2.436165e+003
4.247023e+002, 2.432806e+003
4.251844e+002, 2.429471e+003
4.256666e+002, 2.426208e+003
4.261487e+002, 2.423208e+003
4.266308e+002, 2.420238e+003
4.271129e+002, 2.417709e+003
4.275950e+002, 2.416506e+003
4.280771e+002, 2.416701e+003
4.285593e+002, 2.416922e+003
4.290414e+002, 2.416492e+003
4.295235e+002, 2.415611e+003
4.300056e+002, 2.414820e+003
4.304877e+002, 2.414267e+003
4.309698e+002, 2.413508e+003
4.314520e+002, 2.412149e+003
4.319341e+002, 2.410476e+003
4.324162e+002, 2.409102e+003
4.328983e+002, 2.408226e+003
4.333804e+002, 2.407421e+003
4.338625e+002, 2.406201e+003
4.343447e+002, 2.404509e+003
4.348268e+002, 2.402707e+003
4.353089e+002, 2.399972e+003
4.357910e+002, 2.397825e+003
4.362731e+002, 2.397716e+003
4.367552e+002, 2.399173e+003
4.372374e+002, 2.400497e+003
4.377195e+002, 2.400673e+003
4.382016e+002, 2.400028e+003
4.386837e+002, 2.399819e+003
4.391658e+002, 2.400986e+003
4.396479e+002, 2.401376e+003
4.401301e+002, 2.400219e+003
4.406122e+002, 2.398587e+003
4.410943e+002, 2.397606e+003
4.415764e+002, 2.397449e+003
4.420585e+002, 2.397360e+003
4.425406e+002, 2.396399e+003
4.430227e+002, 2.394375e+003
4.435049e+002, 2.392966e+003
4.439870e+002, 2.393156e+003
4.444691e+002, 2.392967e+003
4.449512e+002, 2.391112e+003
4.454333e+002, 2.388606e+003
4.459154e+002, 2.387241e+003
4.463976e+002, 2.388034e+003
4.468797e+002, 2.389988e+003
4.473618e+002, 2.390882e+003
4.478439e+002, 2.390391e+003
4.483260e+002, 2.389778e+003
4.488081e+002, 2.388492e+003
4.492903e+002, 2.387721e+003
4.497724e+002, 2.388710e+003
4.502545e+002, 2.391283e+003
4.507366e+002, 2.393625e+003
4.512187e+002, 2.394156e+003
4.517008e+002, 2.393257e+003
4.521830e+002, 2.392609e+003
4.526651e+002, 2.392422e+003
4.531472e+002, 2.392013e+003
4.536293e+002, 2.390846e+003
4.541114e+002, 2.389221e+003
4.545935e+002, 2.387493e+003
4.550757e+002, 2.385671e+003
4.555578e+002, 2.383893e+003
4.560399e+002, 2.382496e+003
4.565220e+002, 2.381305e+003
4.570041e+002, 2.379517e+003
4.574862e+002, 2.376863e+003
4.579684e+002, 2.373612e+003
4.584505e+002, 2.370000e+003
4.589326e+002, 2.366061e+003
4.594147e+002, 2.361925e+003
4.598968e+002, 2.357270e+003
4.603789e+002, 2.352711e+003
4.608611e+002, 2.348755e+003
4.613432e+002, 2.345415e+003
4.618253e+002, 2.342550e+003
4.623074e+002, 2.340132e+003
4.627895e+002, 2.338059e+003
4.632716e+002, 2.335836e+003
4.637538e+002, 2.332738e+003
4.642359e+002, 2.330446e+003
4.647180e+002, 2.329704e+003
4.652001e+002, 2.329535e+003
4.656822e+002, 2.328960e+003
4.661643e+002, 2.327777e+003
4.666465e+002, 2.326343e+003
4.671286e+002, 2.324915e+003
4.676107e+002, 2.323348e+003
4.680928e+002, 2.323021e+003
4.685749e+002, 2.326039e+003
4.690570e+002, 2.328016e+003
4.695392e+002, 2.326995e+003
4.700213e+002, 2.324378e+003
4.705034e+002, 2.322414e+003
4.709855e+002, 2.322119e+003
4.714676e+002, 2.322387e+003
4.719497e+002, 2.321226e+003
4.724319e+002, 2.318372e+003
4.729140e+002, 2.315298e+003
4.733961e+002, 2.312100e+003
4.738782e+002, 2.308850e+003
4.743603e+002, 2.305602e+003
4.748424e+002, 2.302369e+003
4.753246e+002, 2.299070e+003
4.758067e+002, 2.295559e+003
4.762888e+002, 2.292021e+003
4.767709e+002, 2.288813e+003
4.772530e+002, 2.285970e+003
4.777351e+002, 2.283331e+003
4.782173e+002, 2.280635e+003
4.786994e+002, 2.278242e+003
4.791815e+002, 2.276924e+003
4.796636e+002, 2.277188e+003
4.801457e+002, 2.276765e+003
4.806278e+002, 2.273617e+003
4.811100e+002, 2.269230e+003
4.815920e+002, 2.266520e+003
4.820742e+002, 2.266046e+003
4.825563e+002, 2.265966e+003
4.830384e+002, 2.264658e+003
4.835205e+002, 2.262109e+003
4.840026e+002, 2.259664e+003
4.844847e+002, 2.257286e+003
4.849669e+002, 2.255032e+003
4.854490e+002, 2.252803e+003
4.859311e+002, 2.250719e+003
4.864132e+002, 2.248933e+003
4.868953e+002, 2.247497e+003
4.873774e+002, 2.246551e+003
4.878596e+002, 2.246574e+003
4.883417e+002, 2.248917e+003
4.888238e+002, 2.248392e+003
4.893059e+002, 2.241485e+003
4.897880e+002, 2.235563e+003
4.902701e+002, 2.235477e+003
4.907523e+002, 2.239265e+003
4.912344e+002, 2.242063e+003
4.917165e+002, 2.240930e+003
4.921986e+002, 2.236933e+003
4.926807e+002, 2.232749e+003
4.931628e+002, 2.228098e+003
4.936450e+002, 2.224087e+003
4.941271e+002, 2.220722e+003
4.946092e+002, 2.218292e+003
4.950913e+002, 2.217663e+003
4.955734e+002, 2.218584e+003
4.960555e+002, 2.219012e+003
4.965377e+002, 2.217158e+003
4.970198e+002, 2.213771e+003
4.975019e+002, 2.210852e+003
4.979840e+002, 2.208479e+003
4.984661e+002, 2.206393e+003
4.989482e+002, 2.204755e+003
4.994304e+002, 2.203166e+003
4.999125e+002, 2.200760e+003
5.003946e+002, 2.196961e+003
5.008767e+002, 2.193648e+003
5.013588e+002, 2.192420e+003
5.018409e+002, 2.192116e+003
5.023231e+002, 2.190698e+003
5.028052e+002, 2.187756e+003
5.032873e+002, 2.183787e+003
5.037694e+002, 2.179000e+003
5.042515e+002, 2.173322e+003
5.047336e+002, 2.168901e+003
5.052158e+002, 2.166431e+003
5.056979e+002, 2.164292e+003
5.061800e+002, 2.161818e+003
5.066621e+002, 2.159322e+003
5.071442e+002, 2.157472e+003
5.076263e+002, 2.156473e+003
5.081085e+002, 2.155699e+003
5.085906e+002, 2.154056e+003
5.090727e+002, 2.150974e+003
5.095548e+002, 2.149040e+003
5.100369e+002, 2.149666e+003
5.105190e+002, 2.150012e+003
5.110012e+002, 2.148874e+003
5.114833e+002, 2.146667e+003
5.119654e+002, 2.144265e+003
5.124475e+002, 2.142051e+003
5.129296e+002, 2.140001e+003
5.134117e+002, 2.138102e+003
5.138939e+002, 2.136366e+003
5.143760e+002, 2.134636e+003
5.148581e+002, 2.132864e+003
5.153402e+002, 2.131101e+003
5.158223e+002, 2.129507e+003
5.163044e+002, 2.128028e+003
5.167866e+002, 2.126298e+003
5.172687e+002, 2.123765e+003
5.177508e+002, 2.121123e+003
5.182329e+002, 2.119264e+003
5.187150e+002, 2.118172e+003
5.191971e+002, 2.117485e+003
5.196793e+002, 2.117209e+003
5.201614e+002, 2.117031e+003
5.206435e+002, 2.116224e+003
5.211256e+002, 2.114713e+003
5.216077e+002, 2.112947e+003
5.220898e+002, 2.111053e+003
5.225720e+002, 2.108896e+003
5.230541e+002, 2.106152e+003
5.235362e+002, 2.102964e+003
5.240183e+002, 2.099845e+003
5.245004e+002, 2.097098e+003
5.249825e+002, 2.094853e+003
5.254647e+002, 2.093805e+003
5.259468e+002, 2.095485e+003
5.264289e+002, 2.096200e+003
5.269110e+002, 2.094882e+003
5.273931e+002, 2.093054e+003
5.278752e+002, 2.091994e+003
5.283574e+002, 2.091813e+003
5.288395e+002, 2.091774e+003
5.293216e+002, 2.091302e+003
5.298037e+002, 2.090426e+003
5.302858e+002, 2.089126e+003
5.307679e+002, 2.086940e+003
5.312501e+002, 2.085426e+003
5.317322e+002, 2.086471e+003
5.322143e+002, 2.087947e+003
5.326964e+002, 2.087266e+003
5.331785e+002, 2.083704e+003
5.336606e+002, 2.080384e+003
5.341428e+002, 2.079710e+003
5.346249e+002, 2.080653e+003
5.351070e+002, 2.081100e+003
5.355891e+002, 2.080780e+003
5.360712e+002, 2.080020e+003
5.365533e+002, 2.079223e+003
5.370355e+002, 2.078173e+003
5.375176e+002, 2.075805e+003
5.379997e+002, 2.070328e+003
5.384818e+002, 2.065831e+003
5.389639e+002, 2.064478e+003
5.394460e+002, 2.064260e+003
5.399282e+002, 2.062634e+003
5.404103e+002, 2.059112e+003
5.408924e+002, 2.054859e+003
5.413745e+002, 2.051077e+003
5.418566e+002, 2.047783e+003
5.423387e+002, 2.044378e+003
5.428209e+002, 2.040492e+003
5.433029e+002, 2.036978e+003
5.437850e+002, 2.034018e+003
5.442672e+002, 2.031522e+003
5.447493e+002, 2.029383e+003
5.452314e+002, 2.027572e+003
5.457135e+002, 2.026156e+003
5.461956e+002, 2.025696e+003
5.466777e+002, 2.026010e+003
5.471599e+002, 2.024757e+003
5.476420e+002, 2.021146e+003
5.481241e+002, 2.017407e+003
5.486062e+002, 2.014973e+003
5.490883e+002, 2.013330e+003
5.495704e+002, 2.011753e+003
5.500526e+002, 2.010320e+003
5.505347e+002, 2.008547e+003
5.510168e+002, 2.005416e+003
5.514989e+002, 2.001844e+003
5.519810e+002, 2.000088e+003
5.524631e+002, 2.000657e+003
5.529453e+002, 2.001464e+003
5.534274e+002, 2.000483e+003
5.539095e+002, 1.997694e+003
5.543916e+002, 1.995561e+003
5.548737e+002, 1.994488e+003
5.553558e+002, 1.993471e+003
5.558380e+002, 1.992528e+003
5.563201e+002, 1.991344e+003
5.568022e+002, 1.989352e+003
5.572843e+002, 1.986503e+003
5.577664e+002, 1.983619e+003
5.582485e+002, 1.981729e+003
5.587307e+002, 1.980894e+003
5.592128e+002, 1.979583e+003
5.596949e+002, 1.977398e+003
5.601770e+002, 1.975319e+003
5.606591e+002, 1.973897e+003
5.611412e+002, 1.972656e+003
5.616234e+002, 1.970840e+003
5.621055e+002, 1.968197e+003
5.625876e+002, 1.965781e+003
5.630697e+002, 1.964592e+003
5.635518e+002, 1.964381e+003
5.640339e+002, 1.964560e+003
5.645161e+002, 1.965262e+003
5.649982e+002, 1.965284e+003
5.654803e+002, 1.963440e+003
5.659624e+002, 1.960170e+003
5.664445e+002, 1.957602e+003
5.669266e+002, 1.955995e+003
5.674088e+002, 1.954713e+003
5.678909e+002, 1.953800e+003
5.683730e+002, 1.952967e+003
5.688551e+002, 1.951758e+003
5.693372e+002, 1.950145e+003
5.698193e+002, 1.948537e+003
5.703015e+002, 1.947360e+003
5.707836e+002, 1.946574e+003
5.712657e+002, 1.945560e+003
5.717478e+002, 1.944080e+003
5.722299e+002, 1.942669e+003
5.727120e+002, 1.941484e+003
5.731942e+002, 1.940344e+003
5.736763e+002, 1.939143e+003
5.741584e+002, 1.937826e+003
5.746405e+002, 1.936281e+003
5.751226e+002, 1.933922e+003
5.756047e+002, 1.931187e+003
5.760869e+002, 1.930374e+003
5.765690e+002, 1.932158e+003
5.770511e+002, 1.932929e+003
5.775332e+002, 1.929848e+003
5.780153e+002, 1.925403e+003
5.784974e+002, 1.923893e+003
5.789796e+002, 1.926155e+003
5.794617e+002, 1.927872e+003
5.799438e+002, 1.927307e+003
5.804259e+002, 1.925426e+003
5.809080e+002, 1.923058e+003
5.813901e+002, 1.920399e+003
5.818723e+002, 1.917647e+003
5.823544e+002, 1.914844e+003
5.828365e+002, 1.912221e+003
5.833186e+002, 1.910552e+003
5.838007e+002, 1.910557e+003
5.842828e+002, 1.910485e+003
5.847650e+002, 1.910619e+003
5.852471e+002, 1.910430e+003
5.857292e+002, 1.909461e+003
5.862113e+002, 1.907846e+003
5.866934e+002, 1.906036e+003
5.871755e+002, 1.904254e+003
5.876577e+002, 1.902564e+003
5.881398e+002, 1.901115e+003
5.886219e+002, 1.899897e+003
5.891040e+002, 1.899005e+003
5.895861e+002, 1.898871e+003
5.900682e+002, 1.898594e+003
5.905504e+002, 1.897148e+003
5.910325e+002, 1.894728e+003
5.915146e+002, 1.892616e+003
5.919967e+002, 1.891203e+003
5.924788e+002, 1.890247e+003
5.929609e+002, 1.889651e+003
5.934431e+002, 1.889358e+003
5.939252e+002, 1.889331e+003
5.944073e+002, 1.889591e+003
5.948894e+002, 1.889744e+003
5.953715e+002, 1.889175e+003
5.958536e+002, 1.887639e+003
5.963358e+002, 1.886497e+003
5.968179e+002, 1.885949e+003
5.973000e+002, 1.885513e+003
5.977821e+002, 1.885331e+003
5.982642e+002, 1.885038e+003
5.987463e+002, 1.884032e+003
5.992285e+002, 1.882127e+003
5.997106e+002, 1.879961e+003
6.001927e+002, 1.878256e+003
6.006748e+002, 1.876993e+003
6.011569e+002, 1.875953e+003
6.016390e+002, 1.875301e+003
6.021212e+002, 1.874496e+003
6.026033e+002, 1.873014e+003
6.030854e+002, 1.871239e+003
6.035675e+002, 1.869849e+003
6.040496e+002, 1.869134e+003
6.045317e+002, 1.868157e+003
6.050139e+002, 1.866503e+003
6.054960e+002, 1.864266e+003
6.059781e+002, 1.861055e+003
6.064602e+002, 1.857065e+003
6.069423e+002, 1.854211e+003
6.074244e+002, 1.854165e+003
6.079066e+002, 1.856079e+003
6.083887e+002, 1.856075e+003
6.088708e+002, 1.852793e+003
6.093529e+002, 1.849450e+003
6.098350e+002, 1.845144e+003
6.103171e+002, 1.841659e+003
6.107993e+002, 1.840927e+003
6.112814e+002, 1.842287e+003
6.117635e+002, 1.843279e+003
6.122456e+002, 1.842319e+003
6.127277e+002, 1.840085e+003
6.132098e+002, 1.837692e+003
6.136920e+002, 1.835039e+003
6.141741e+002, 1.833285e+003
6.146562e+002, 1.833001e+003
6.151383e+002, 1.833305e+003
6.156204e+002, 1.833442e+003
6.161025e+002, 1.833414e+003
6.165847e+002, 1.833205e+003
6.170668e+002, 1.833032e+003
6.175489e+002, 1.832452e+003
6.180310e+002, 1.830724e+003
6.185131e+002, 1.828463e+003
6.189952e+002, 1.826986e+003
6.194774e+002, 1.826669e+003
6.199595e+002, 1.826757e+003
6.204416e+002, 1.826348e+003
6.209237e+002, 1.825394e+003
6.214058e+002, 1.824736e+003
6.218879e+002, 1.824835e+003
6.223701e+002, 1.824681e+003
6.228522e+002, 1.823905e+003
6.233343e+002, 1.822884e+003
6.238164e+002, 1.822024e+003
6.242985e+002, 1.821401e+003
6.247806e+002, 1.820771e+003
6.252628e+002, 1.819736e+003
6.257448e+002, 1.818575e+003
6.262269e+002, 1.818400e+003
6.267090e+002, 1.819387e+003
6.271912e+002, 1.819282e+003
6.276733e+002, 1.816370e+003
6.281554e+002, 1.812423e+003
6.286375e+002, 1.811075e+003
6.291196e+002, 1.812855e+003
6.296017e+002, 1.814073e+003
6.300839e+002, 1.814005e+003
6.305660e+002, 1.813367e+003
6.310481e+002, 1.812659e+003
6.315302e+002, 1.811780e+003
6.320123e+002, 1.810296e+003
6.324944e+002, 1.808010e+003
6.329766e+002, 1.805398e+003
6.334587e+002, 1.803309e+003
6.339408e+002, 1.801855e+003
6.344229e+002, 1.800277e+003
6.349050e+002, 1.798437e+003
6.353871e+002, 1.796651e+003
6.358693e+002, 1.794955e+003
6.363514e+002, 1.793432e+003
6.368335e+002, 1.792374e+003
6.373156e+002, 1.792056e+003
6.377977e+002, 1.791284e+003
6.382798e+002, 1.788539e+003
6.387620e+002, 1.784973e+003
6.392441e+002, 1.782747e+003
6.397262e+002, 1.782109e+003
6.402083e+002, 1.782249e+003
6.406904e+002, 1.782809e+003
6.411725e+002, 1.783571e+003
6.416547e+002, 1.783797e+003
6.421368e+002, 1.782363e+003
6.426189e+002, 1.782073e+003
6.431010e+002, 1.783395e+003
6.435831e+002, 1.785426e+003
6.440652e+002, 1.788175e+003
6.445474e+002, 1.791124e+003
6.450295e+002, 1.793268e+003
6.455116e+002, 1.794042e+003
6.459937e+002, 1.793921e+003
6.464758e+002, 1.793209e+003
6.469579e+002, 1.791923e+003
6.474401e+002, 1.792223e+003
6.479222e+002, 1.795137e+003
6.484043e+002, 1.798175e+003
6.488864e+002, 1.798777e+003
6.493685e+002, 1.797991e+003
6.498506e+002, 1.799120e+003
6.503328e+002, 1.803503e+003
6.508149e+002, 1.808161e+003
6.512970e+002, 1.811881e+003
6.517791e+002, 1.815279e+003
6.522612e+002, 1.819101e+003
6.527433e+002, 1.823392e+003
6.532255e+002, 1.827604e+003
6.537076e+002, 1.831226e+003
6.541897e+002, 1.834661e+003
6.546718e+002, 1.839396e+003
6.551539e+002, 1.845319e+003
6.556360e+002, 1.852771e+003
6.561182e+002, 1.863734e+003
6.566003e+002, 1.874582e+003
6.570824e+002, 1.882747e+003
6.575645e+002, 1.889079e+003
6.580466e+002, 1.896361e+003
6.585287e+002, 1.905988e+003
6.590109e+002, 1.916417e+003
6.594930e+002, 1.926140e+003
6.599751e+002, 1.935475e+003
6.604572e+002, 1.945836e+003
6.609393e+002, 1.957549e+003
6.614214e+002, 1.968699e+003
6.619036e+002, 1.977748e+003
6.623857e+002, 1.984765e+003
6.628678e+002, 1.990290e+003
6.633499e+002, 1.995466e+003
6.638320e+002, 1.997568e+003
6.643141e+002, 1.995483e+003
6.647963e+002, 1.990944e+003
6.652784e+002, 1.985157e+003
6.657605e+002, 1.978238e+003
6.662426e+002, 1.969872e+003
6.667247e+002, 1.959891e+003
6.672068e+002, 1.948217e+003
6.676890e+002, 1.933967e+003
6.681711e+002, 1.917231e+003
6.686532e+002, 1.901073e+003
6.691353e+002, 1.886326e+003
6.696174e+002, 1.872113e+003
6.700995e+002, 1.857643e+003
6.705817e+002, 1.843012e+003
6.710638e+002, 1.829570e+003
6.715459e+002, 1.817534e+003
6.720280e+002, 1.806434e+003
6.725101e+002, 1.796263e+003
6.729922e+002, 1.786986e+003
6.734744e+002, 1.778678e+003
6.739565e+002, 1.771249e+003
6.744386e+002, 1.764299e+003
6.749207e+002, 1.757530e+003
6.754028e+002, 1.750931e+003
6.758849e+002, 1.744215e+003
6.763671e+002, 1.737038e+003
6.768492e+002, 1.731362e+003
6.773313e+002, 1.728454e+003
6.778134e+002, 1.726151e+003
6.782955e+002, 1.722889e+003
6.787776e+002, 1.718813e+003
6.792598e+002, 1.714409e+003
6.797419e+002, 1.709673e+003
6.802240e+002, 1.704790e+003
6.807061e+002, 1.699528e+003
6.811882e+002, 1.694327e+003
6.816703e+002, 1.689759e+003
6.821525e+002, 1.685976e+003
6.826346e+002, 1.682977e+003
6.831167e+002, 1.680824e+003
6.835988e+002, 1.679399e+003
6.840809e+002, 1.678163e+003
6.845630e+002, 1.677409e+003
6.850452e+002, 1.676211e+003
6.855273e+002, 1.673933e+003
6.860094e+002, 1.671636e+003
6.864915e+002, 1.670286e+003
6.869736e+002, 1.669441e+003
6.874557e+002, 1.667668e+003
6.879379e+002, 1.663975e+003
6.884200e+002, 1.659980e+003
6.889021e+002, 1.657216e+003
6.893842e+002, 1.655230e+003
6.898663e+002, 1.652899e+003
6.903484e+002, 1.650018e+003
6.908306e+002, 1.647407e+003
6.913127e+002, 1.645774e+003
6.917948e+002, 1.644875e+003
6.922769e+002, 1.643432e+003
6.927590e+002, 1.641035e+003
6.932411e+002, 1.638756e+003
6.937233e+002, 1.636482e+003
6.942054e+002, 1.634524e+003
6.946875e+002, 1.633398e+003
6.951696e+002, 1.632733e+003
6.956517e+002, 1.631537e+003
6.961339e+002, 1.629216e+003
6.966160e+002, 1.626750e+003
6.970981e+002, 1.625413e+003
6.975802e+002, 1.624852e+003
6.980623e+002, 1.623665e+003
6.985444e+002, 1.621598e+003
6.990266e+002, 1.619643e+003
6.995087e+002, 1.618579e+003
6.999908e+002, 1.618100e+003
7.004729e+002, 1.617086e+003
7.009550e+002, 1.615271e+003
7.014371e+002, 1.613278e+003
7.019193e+002, 1.610814e+003
7.024014e+002, 1.608440e+003
7.028835e+002, 1.606266e+003
7.033656e+002, 1.604494e+003
7.038477e+002, 1.603647e+003
7.043298e+002, 1.604064e+003
7.048120e+002, 1.604508e+003
7.052941e+002, 1.603194e+003
7.057762e+002, 1.600528e+003
7.062583e+002, 1.598517e+003
7.067404e+002, 1.597443e+003
7.072225e+002, 1.596443e+003
7.077046e+002, 1.595079e+003
7.081867e+002, 1.593401e+003
7.086688e+002, 1.591512e+003
7.091509e+002, 1.589404e+003
7.096331e+002, 1.587104e+003
7.101152e+002, 1.583700e+003
7.105973e+002, 1.580959e+003
7.110794e+002, 1.580308e+003
7.115615e+002, 1.580958e+003
7.120436e+002, 1.581495e+003
7.125258e+002, 1.581396e+003
7.130079e+002, 1.581023e+003
7.134900e+002, 1.580878e+003
7.139721e+002, 1.580853e+003
7.144542e+002, 1.580398e+003
7.149363e+002, 1.579534e+003
7.154185e+002, 1.577978e+003
7.159006e+002, 1.575286e+003
7.163827e+002, 1.572180e+003
7.168648e+002, 1.569927e+003
7.173469e+002, 1.568683e+003
7.178290e+002, 1.567314e+003
7.183112e+002, 1.565954e+003
7.187933e+002, 1.564223e+003
7.192754e+002, 1.561400e+003
7.197575e+002, 1.558316e+003
7.202396e+002, 1.556326e+003
7.207217e+002, 1.555676e+003
7.212039e+002, 1.555145e+003
7.216860e+002, 1.553282e+003
7.221681e+002, 1.550628e+003
7.226502e+002, 1.549622e+003
7.231323e+002, 1.550528e+003
7.236144e+002, 1.550793e+003
7.240966e+002, 1.549361e+003
7.245787e+002, 1.547367e+003
7.250608e+002, 1.546389e+003
7.255429e+002, 1.546383e+003
7.260250e+002, 1.545136e+003
7.265071e+002, 1.540900e+003
7.269893e+002, 1.537374e+003
7.274714e+002, 1.536682e+003
7.279535e+002, 1.536937e+003
7.284356e+002, 1.535869e+003
7.289177e+002, 1.533361e+003
7.293998e+002, 1.530914e+003
7.298820e+002, 1.529609e+003
7.303641e+002, 1.529102e+003
7.308462e+002, 1.528719e+003
7.313283e+002, 1.528464e+003
7.318104e+002, 1.528035e+003
7.322925e+002, 1.527372e+003
7.327747e+002, 1.526481e+003
7.332568e+002, 1.525143e+003
7.337389e+002, 1.523536e+003
7.342210e+002, 1.522575e+003
7.347031e+002, 1.522403e+003
7.351852e+002, 1.522625e+003
7.356674e+002, 1.524330e+003
7.361495e+002, 1.525448e+003
7.366316e+002, 1.523724e+003
7.371137e+002, 1.519899e+003
7.375958e+002, 1.516330e+003
7.380779e+002, 1.514153e+003
7.385601e+002, 1.512764e+003
7.390422e+002, 1.511455e+003
7.395243e+002, 1.510193e+003
7.400064e+002, 1.508464e+003
7.404885e+002, 1.506103e+003
7.409706e+002, 1.503881e+003
7.414528e+002, 1.502139e+003
7.419349e+002, 1.500891e+003
7.424170e+002, 1.500345e+003
7.428991e+002, 1.500943e+003
7.433812e+002, 1.500710e+003
7.438633e+002, 1.498834e+003
7.443455e+002, 1.496789e+003
7.448276e+002, 1.495473e+003
7.453097e+002, 1.494461e+003
7.457918e+002, 1.492898e+003
7.462739e+002, 1.490614e+003
7.467560e+002, 1.488430e+003
7.472382e+002, 1.487241e+003
7.477203e+002, 1.486768e+003
7.482024e+002, 1.486128e+003
7.486845e+002, 1.485316e+003
7.491666e+002, 1.484771e+003
7.496487e+002, 1.484758e+003
7.501309e+002, 1.484777e+003
7.506130e+002, 1.484218e+003
7.510951e+002, 1.483041e+003
7.515772e+002, 1.481859e+003
7.520593e+002, 1.480363e+003
7.525414e+002, 1.479229e+003
7.530236e+002, 1.478889e+003
7.535057e+002, 1.478734e+003
7.539878e+002, 1.478379e+003
7.544699e+002, 1.477671e+003
7.549520e+002, 1.476310e+003
7.554341e+002, 1.473816e+003
7.559163e+002, 1.471206e+003
7.563984e+002, 1.470119e+003
7.568805e+002, 1.470201e+003
7.573626e+002, 1.470102e+003
7.578447e+002, 1.469640e+003
7.583268e+002, 1.468407e+003
7.588090e+002, 1.465910e+003
7.592911e+002, 1.462642e+003
7.597732e+002, 1.460238e+003
7.602553e+002, 1.459295e+003
7.607374e+002, 1.458197e+003
7.612195e+002, 1.456580e+003
7.617017e+002, 1.455258e+003
7.621838e+002, 1.455176e+003
7.626659e+002, 1.455471e+003
7.631480e+002, 1.454589e+003
7.636301e+002, 1.452061e+003
7.641122e+002, 1.449559e+003
7.645944e+002, 1.448359e+003
7.650765e+002, 1.447945e+003
7.655586e+002, 1.447674e+003
7.660407e+002, 1.447451e+003
7.665228e+002, 1.447001e+003
7.670049e+002, 1.446197e+003
7.674871e+002, 1.445270e+003
7.679692e+002, 1.444530e+003
7.684513e+002, 1.443966e+003
7.689334e+002, 1.443363e+003
7.694155e+002, 1.442696e+003
7.698976e+002, 1.441979e+003
7.703798e+002, 1.441359e+003
7.708619e+002, 1.440561e+003
7.713440e+002, 1.439216e+003
7.718261e+002, 1.437447e+003
7.723082e+002, 1.435900e+003
7.727903e+002, 1.434942e+003
7.732725e+002, 1.434090e+003
7.737546e+002, 1.433160e+003
7.742367e+002, 1.432066e+003
7.747188e+002, 1.430389e+003
7.752009e+002, 1.428279e+003
7.756830e+002, 1.426772e+003
7.761652e+002, 1.426599e+003
7.766473e+002, 1.427213e+003
7.771294e+002, 1.427390e+003
7.776115e+002, 1.427140e+003
7.780936e+002, 1.426362e+003
7.785757e+002, 1.424707e+003
7.790579e+002, 1.423166e+003
7.795400e+002, 1.422568e+003
7.800221e+002, 1.422297e+003
7.805042e+002, 1.421313e+003
7.809863e+002, 1.419461e+003
7.814684e+002, 1.417491e+003
7.819506e+002, 1.415409e+003
7.824327e+002, 1.413437e+003
7.829148e+002, 1.411429e+003
7.833969e+002, 1.409718e+003
7.838790e+002, 1.408956e+003
7.843611e+002, 1.409236e+003
7.848433e+002, 1.409919e+003
7.853254e+002, 1.410641e+003
7.858075e+002, 1.411179e+003
7.862896e+002, 1.410712e+003
7.867717e+002, 1.409226e+003
7.872538e+002, 1.407778e+003
7.877360e+002, 1.406702e+003
7.882181e+002, 1.405489e+003
7.887002e+002, 1.403502e+003
7.891823e+002, 1.400912e+003
7.896644e+002, 1.399240e+003
7.901465e+002, 1.399047e+003
7.906286e+002, 1.398916e+003
7.911107e+002, 1.399054e+003
7.915928e+002, 1.398938e+003
7.920750e+002, 1.397755e+003
7.925571e+002, 1.396150e+003
7.930392e+002, 1.395704e+003
7.935213e+002, 1.397151e+003
7.940034e+002, 1.398375e+003
7.944855e+002, 1.396897e+003
7.949677e+002, 1.394188e+003
7.954498e+002, 1.393300e+003
7.959319e+002, 1.394073e+003
7.964140e+002, 1.394178e+003
7.968961e+002, 1.392601e+003
7.973782e+002, 1.390472e+003
7.978604e+002, 1.389435e+003
7.983425e+002, 1.389557e+003
7.988246e+002, 1.388710e+003
7.993067e+002, 1.386014e+003
7.997888e+002, 1.383909e+003
8.002709e+002, 1.383636e+003
8.007531e+002, 1.383661e+003
8.012352e+002, 1.382714e+003
8.017173e+002, 1.381001e+003
8.021994e+002, 1.379734e+003
8.026815e+002, 1.379640e+003
8.031636e+002, 1.379457e+003
8.036458e+002, 1.378193e+003
8.041279e+002, 1.376712e+003
8.046100e+002, 1.376128e+003
8.050921e+002, 1.376361e+003
8.055742e+002, 1.376676e+003
8.060563e+002, 1.376696e+003
8.065385e+002, 1.376460e+003
8.070206e+002, 1.376113e+003
8.075027e+002, 1.375627e+003
8.079848e+002, 1.374422e+003
8.084669e+002, 1.372319e+003
8.089490e+002, 1.370268e+003
8.094312e+002, 1.368680e+003
8.099133e+002, 1.367381e+003
8.103954e+002, 1.366117e+003
8.108775e+002, 1.364866e+003
8.113596e+002, 1.363836e+003
8.118417e+002, 1.363426e+003
8.123239e+002, 1.362736e+003
8.128060e+002, 1.360863e+003
8.132881e+002, 1.359082e+003
8.137702e+002, 1.359020e+003
8.142523e+002, 1.360338e+003
8.147344e+002, 1.361073e+003
8.152166e+002, 1.360155e+003
8.156987e+002, 1.358490e+003
8.161808e+002, 1.356588e+003
8.166629e+002, 1.354766e+003
8.171450e+002, 1.354005e+003
8.176271e+002, 1.354258e+003
8.181093e+002, 1.354091e+003
8.185914e+002, 1.352609e+003
8.190735e+002, 1.350654e+003
8.195556e+002, 1.350033e+003
8.200377e+002, 1.351103e+003
8.205198e+002, 1.351087e+003
8.210020e+002, 1.349331e+003
8.214841e+002, 1.347691e+003
8.219662e+002, 1.347047e+003
8.224483e+002, 1.346725e+003
8.229304e+002, 1.346052e+003
8.234125e+002, 1.345023e+003
8.238947e+002, 1.343778e+003
8.243768e+002, 1.341857e+003
8.248589e+002, 1.340338e+003
8.253410e+002, 1.339954e+003
8.258231e+002, 1.340058e+003
8.263052e+002, 1.339989e+003
8.267874e+002, 1.339692e+003
8.272695e+002, 1.339452e+003
8.277516e+002, 1.339477e+003
8.282337e+002, 1.339417e+003
8.287158e+002, 1.338695e+003
8.291979e+002, 1.337449e+003
8.296801e+002, 1.336163e+003
8.301622e+002, 1.334884e+003
8.306443e+002, 1.333875e+003
8.311264e+002, 1.333362e+003
8.316085e+002, 1.332890e+003
8.320906e+002, 1.331610e+003
8.325728e+002, 1.329315e+003
8.330549e+002, 1.327697e+003
8.335370e+002, 1.327165e+003
8.340191e+002, 1.326725e+003
8.345012e+002, 1.326525e+003
8.349833e+002, 1.326031e+003
8.354655e+002, 1.324490e+003
8.359476e+002, 1.322169e+003
8.364297e+002, 1.320406e+003
8.369118e+002, 1.319869e+003
8.373939e+002, 1.319564e+003
8.378760e+002, 1.318790e+003
8.383582e+002, 1.318072e+003
8.388403e+002, 1.318443e+003
8.393224e+002, 1.319481e+003
8.398045e+002, 1.319555e+003
8.402866e+002, 1.317895e+003
8.407687e+002, 1.315669e+003
8.412509e+002, 1.314626e+003
8.417330e+002, 1.314485e+003
8.422151e+002, 1.313552e+003
8.426972e+002, 1.311755e+003
8.431793e+002, 1.309835e+003
8.436614e+002, 1.307848e+003
8.441436e+002, 1.306472e+003
8.446257e+002, 1.306700e+003
8.451078e+002, 1.308473e+003
8.455899e+002, 1.309498e+003
8.460720e+002, 1.309519e+003
8.465541e+002, 1.309101e+003
8.470363e+002, 1.307888e+003
8.475184e+002, 1.306633e+003
8.480005e+002, 1.305973e+003
8.484826e+002, 1.305598e+003
8.489647e+002, 1.304715e+003
8.494468e+002, 1.303009e+003
8.499290e+002, 1.301308e+003
8.504111e+002, 1.299477e+003
8.508932e+002, 1.298336e+003
8.513753e+002, 1.299600e+003
8.518574e+002, 1.302086e+003
8.523395e+002, 1.302980e+003
8.528217e+002, 1.301492e+003
8.533038e+002, 1.299020e+003
8.537859e+002, 1.296786e+003
8.542680e+002, 1.294775e+003
8.547501e+002, 1.293019e+003
8.552322e+002, 1.291519e+003
8.557144e+002, 1.289815e+003
8.561965e+002, 1.287703e+003
8.566786e+002, 1.285879e+003
8.571607e+002, 1.284811e+003
8.576428e+002, 1.284474e+003
8.581249e+002, 1.284855e+003
8.586071e+002, 1.286628e+003
8.590892e+002, 1.287629e+003
8.595713e+002, 1.287448e+003
8.600534e+002, 1.286979e+003
8.605355e+002, 1.286524e+003
8.610176e+002, 1.285945e+003
8.614998e+002, 1.284642e+003
8.619819e+002, 1.282679e+003
8.624640e+002, 1.282013e+003
8.629461e+002, 1.285765e+003
8.634282e+002, 1.288552e+003
8.639103e+002, 1.285433e+003
8.643925e+002, 1.279734e+003
8.648746e+002, 1.276201e+003
8.653567e+002, 1.275071e+003
8.658388e+002, 1.273879e+003
8.663209e+002, 1.271149e+003
8.668030e+002, 1.267975e+003
8.672852e+002, 1.266041e+003
8.677673e+002, 1.265176e+003
8.682494e+002, 1.264424e+003
8.687315e+002, 1.263729e+003
8.692136e+002, 1.263410e+003
8.696957e+002, 1.263651e+003
8.701779e+002, 1.264202e+003
8.706600e+002, 1.264937e+003
8.711421e+002, 1.265875e+003
8.716242e+002, 1.264918e+003
8.721063e+002, 1.260370e+003
8.725884e+002, 1.256904e+003
8.730705e+002, 1.255906e+003
8.735526e+002, 1.255644e+003
8.740347e+002, 1.255565e+003
8.745168e+002, 1.255374e+003
8.749990e+002, 1.254273e+003
8.754811e+002, 1.251609e+003
8.759632e+002, 1.249664e+003
8.764453e+002, 1.249787e+003
8.769274e+002, 1.250393e+003
8.774095e+002, 1.250383e+003
8.778917e+002, 1.249998e+003
8.783738e+002, 1.250152e+003
8.788559e+002, 1.250834e+003
8.793380e+002, 1.250359e+003
8.798201e+002, 1.246633e+003
8.803022e+002, 1.241927e+003
8.807844e+002, 1.240122e+003
8.812665e+002, 1.240572e+003
8.817486e+002, 1.241185e+003
8.822307e+002, 1.241567e+003
8.827128e+002, 1.241243e+003
8.831949e+002, 1.239831e+003
8.836771e+002, 1.237868e+003
8.841592e+002, 1.236421e+003
8.846413e+002, 1.235482e+003
8.851234e+002, 1.235156e+003
8.856055e+002, 1.235800e+003
8.860876e+002, 1.236157e+003
8.865698e+002, 1.235768e+003
8.870519e+002, 1.234919e+003
8.875340e+002, 1.233800e+003
8.880161e+002, 1.232435e+003
8.884982e+002, 1.231219e+003
8.889803e+002, 1.230123e+003
8.894625e+002, 1.229229e+003
8.899446e+002, 1.228642e+003
8.904267e+002, 1.228178e+003
8.909088e+002, 1.227710e+003
8.913909e+002, 1.227281e+003
8.918730e+002, 1.227005e+003
8.923552e+002, 1.226918e+003
8.928373e+002, 1.226904e+003
8.933194e+002, 1.227313e+003
8.938015e+002, 1.227411e+003
8.942836e+002, 1.226152e+003
8.947657e+002, 1.224052e+003
8.952479e+002, 1.222078e+003
8.957300e+002, 1.220515e+003
8.962121e+002, 1.219432e+003
8.966942e+002, 1.218957e+003
8.971763e+002, 1.218750e+003
8.976584e+002, 1.217973e+003
8.981406e+002, 1.216731e+003
8.986227e+002, 1.216346e+003
8.991048e+002, 1.217043e+003
8.995869e+002, 1.216994e+003
9.000690e+002, 1.215007e+003
9.005511e+002, 1.212802e+003
9.010333e+002, 1.213264e+003
9.015154e+002, 1.216617e+003
9.019975e+002, 1.217363e+003
9.024796e+002, 1.213610e+003
9.029617e+002, 1.210766e+003
9.034438e+002, 1.210352e+003
9.039260e+002, 1.210654e+003
9.044081e+002, 1.210664e+003
9.048902e+002, 1.210476e+003
9.053723e+002, 1.210408e+003
9.058544e+002, 1.210742e+003
9.063365e+002, 1.210497e+003
9.068187e+002, 1.209160e+003
9.073008e+002, 1.207467e+003
9.077829e+002, 1.205632e+003
9.082650e+002, 1.203834e+003
9.087471e+002, 1.202226e+003
9.092292e+002, 1.200849e+003
9.097114e+002, 1.199675e+003
9.101935e+002, 1.198561e+003
9.106756e+002, 1.197850e+003
9.111577e+002, 1.198571e+003
9.116398e+002, 1.199661e+003
9.121219e+002, 1.198745e+003
9.126041e+002, 1.196068e+003
9.130862e+002, 1.193954e+003
9.135683e+002, 1.193508e+003
9.140504e+002, 1.193688e+003
9.145325e+002, 1.193001e+003
9.150146e+002, 1.191705e+003
9.154968e+002, 1.191487e+003
9.159789e+002, 1.192416e+003
9.164610e+002, 1.192596e+003
9.169431e+002, 1.191520e+003
9.174252e+002, 1.189643e+003
9.179073e+002, 1.186996e+003
9.183895e+002, 1.184126e+003
9.188716e+002, 1.183132e+003
9.193537e+002, 1.185037e+003
9.198358e+002, 1.186165e+003
9.203179e+002, 1.186086e+003
9.208000e+002, 1.185802e+003
9.212822e+002, 1.185740e+003
9.217643e+002, 1.185618e+003
9.222464e+002, 1.184955e+003
9.227285e+002, 1.183785e+003
9.232106e+002, 1.183108e+003
9.236927e+002, 1.183345e+003
9.241749e+002, 1.183694e+003
9.246570e+002, 1.184314e+003
9.251391e+002, 1.184622e+003
9.256212e+002, 1.183731e+003
9.261033e+002, 1.182290e+003
9.265854e+002, 1.181831e+003
9.270676e+002, 1.182842e+003
9.275497e+002, 1.183624e+003
9.280318e+002, 1.182707e+003
9.285139e+002, 1.181353e+003
9.289960e+002, 1.180737e+003
9.294781e+002, 1.180686e+003
9.299603e+002, 1.180923e+003
9.304424e+002, 1.181312e+003
9.309245e+002, 1.181573e+003
9.314066e+002, 1.181500e+003
9.318887e+002, 1.181345e+003
9.323708e+002, 1.181454e+003
9.328530e+002, 1.181814e+003
9.333351e+002, 1.182445e+003
9.338172e+002, 1.183325e+003
9.342993e+002, 1.184192e+003
9.347814e+002, 1.184934e+003
9.352635e+002, 1.185691e+003
9.357457e+002, 1.186699e+003
9.362278e+002, 1.187796e+003
9.367099e+002, 1.187959e+003
9.371920e+002, 1.186903e+003
9.376741e+002, 1.186215e+003
9.381563e+002, 1.186487e+003
9.386384e+002, 1.186199e+003
9.391205e+002, 1.184350e+003
9.396026e+002, 1.181542e+003
9.400847e+002, 1.178628e+003
9.405668e+002, 1.175380e+003
9.410490e+002, 1.173436e+003
9.415311e+002, 1.174224e+003
9.420132e+002, 1.174324e+003
9.424953e+002, 1.172867e+003
9.429774e+002, 1.170734e+003
9.434595e+002, 1.168292e+003
9.439417e+002, 1.165744e+003
9.444238e+002, 1.163453e+003
9.449059e+002, 1.161420e+003
9.453880e+002, 1.159911e+003
9.458701e+002, 1.159957e+003
9.463522e+002, 1.159559e+003
9.468344e+002, 1.157205e+003
9.473165e+002, 1.153704e+003
9.477986e+002, 1.149777e+003
9.482807e+002, 1.145858e+003
9.487628e+002, 1.142863e+003
9.492449e+002, 1.141568e+003
9.497271e+002, 1.140620e+003
9.502092e+002, 1.138589e+003
9.506913e+002, 1.136136e+003
9.511734e+002, 1.134274e+003
9.516555e+002, 1.132934e+003
9.521376e+002, 1.131543e+003
9.526198e+002, 1.129927e+003
9.531019e+002, 1.128501e+003
9.535840e+002, 1.127735e+003
9.540661e+002, 1.127344e+003
9.545482e+002, 1.126624e+003
9.550303e+002, 1.125623e+003
9.555124e+002, 1.124708e+003
9.559945e+002, 1.123922e+003
9.564766e+002, 1.122947e+003
9.569587e+002, 1.121590e+003
9.574409e+002, 1.120007e+003
9.579230e+002, 1.118250e+003
9.584051e+002, 1.116339e+003
9.588872e+002, 1.116580e+003
9.593693e+002, 1.119887e+003
9.598514e+002, 1.121289e+003
9.603336e+002, 1.119184e+003
9.608157e+002, 1.116123e+003
9.612978e+002, 1.113703e+003
9.617799e+002, 1.111935e+003
9.622620e+002, 1.110904e+003
9.627441e+002, 1.110858e+003
9.632263e+002, 1.110789e+003
9.637084e+002, 1.110793e+003
9.641905e+002, 1.110651e+003
9.646726e+002, 1.110538e+003
9.651547e+002, 1.110082e+003
9.656368e+002, 1.108729e+003
9.661190e+002, 1.106700e+003
9.666011e+002, 1.104946e+003
9.670832e+002, 1.103110e+003
9.675653e+002, 1.102504e+003
9.680474e+002, 1.104977e+003
9.685295e+002, 1.107058e+003
9.690117e+002, 1.106192e+003
9.694938e+002, 1.104051e+003
9.699759e+002, 1.103164e+003
9.704580e+002, 1.103631e+003
9.709401e+002, 1.103299e+003
9.714222e+002, 1.100553e+003
9.719044e+002, 1.097872e+003
9.723865e+002, 1.097223e+003
9.728686e+002, 1.097112e+003
9.733507e+002, 1.095598e+003
9.738328e+002, 1.093360e+003
9.743149e+002, 1.092344e+003
9.747971e+002, 1.093052e+003
9.752792e+002, 1.094055e+003
9.757613e+002, 1.094258e+003
9.762434e+002, 1.094110e+003
9.767255e+002, 1.094405e+003
9.772076e+002, 1.094742e+003
9.776898e+002, 1.093938e+003
9.781719e+002, 1.092169e+003
9.786540e+002, 1.091119e+003
9.791361e+002, 1.091575e+003
9.796182e+002, 1.092201e+003
9.801003e+002, 1.091039e+003
9.805825e+002, 1.088808e+003
9.810646e+002, 1.088132e+003
9.815467e+002, 1.088802e+003
9.820288e+002, 1.089125e+003
9.825109e+002, 1.088767e+003
9.829930e+002, 1.088093e+003
9.834752e+002, 1.087306e+003
9.839573e+002, 1.086523e+003
9.844394e+002, 1.085895e+003
9.849215e+002, 1.085418e+003
9.854036e+002, 1.085845e+003
9.858857e+002, 1.087522e+003
9.863679e+002, 1.087756e+003
9.868500e+002, 1.085268e+003
9.873321e+002, 1.083057e+003
9.878142e+002, 1.083808e+003
9.882963e+002, 1.086461e+003
9.887784e+002, 1.087584e+003
9.892606e+002, 1.086446e+003
9.897427e+002, 1.086409e+003
9.902248e+002, 1.088253e+003
9.907069e+002, 1.089672e+003
9.911890e+002, 1.089756e+003
9.916711e+002, 1.089347e+003
9.921533e+002, 1.089218e+003
9.926354e+002, 1.089307e+003
9.931175e+002, 1.089252e+003
9.935996e+002, 1.088962e+003
9.940817e+002, 1.088700e+003
9.945638e+002, 1.088185e+003
9.950460e+002, 1.088045e+003
9.955281e+002, 1.089134e+003
9.960102e+002, 1.090299e+003
9.964923e+002, 1.089729e+003
9.969744e+002, 1.087791e+003
9.974565e+002, 1.087615e+003
9.979387e+002, 1.091491e+003
9.984208e+002, 1.094321e+003
9.989029e+002, 1.094010e+003
9.993850e+002, 1.093117e+003
9.998671e+002, 1.092909e+003
1.000349e+003, 1.093303e+003
1.000831e+003, 1.094240e+003
1.001313e+003, 1.095588e+003
1.001796e+003, 1.096605e+003
1.002278e+003, 1.097385e+003
1.002760e+003, 1.097145e+003
1.003242e+003, 1.093975e+003
1.003724e+003, 1.090882e+003
1.004206e+003, 1.091608e+003
1.004688e+003, 1.094301e+003
1.005170e+003, 1.094541e+003
1.005653e+003, 1.091539e+003
1.006135e+003, 1.089236e+003
1.006617e+003, 1.090797e+003
1.007099e+003, 1.093160e+003
1.007581e+003, 1.093340e+003
1.008063e+003, 1.092586e+003
1.008545e+003, 1.092645e+003
1.009027e+003, 1.093423e+003
1.009509e+003, 1.094089e+003
1.009992e+003, 1.094343e+003
1.010474e+003, 1.094387e+003
1.010956e+003, 1.094037e+003
1.011438e+003, 1.093978e+003
1.011920e+003, 1.095582e+003
1.012402e+003, 1.098194e+003
1.012884e+003, 1.100526e+003
1.013366e+003, 1.102317e+003
1.013849e+003, 1.103128e+003
1.014331e+003, 1.102809e+003
1.014813e+003, 1.102644e+003
1.015295e+003, 1.104306e+003
1.015777e+003, 1.107003e+003
1.016259e+003, 1.108546e+003
1.016741e+003, 1.109281e+003
1.017223e+003, 1.111148e+003
1.017705e+003, 1.114256e+003
1.018188e+003, 1.116432e+003
1.018670e+003, 1.116515e+003
1.019152e+003, 1.115840e+003
1.019634e+003, 1.116154e+003
1.020116e+003, 1.117330e+003
1.020598e+003, 1.119150e+003
1.021080e+003, 1.121535e+003
1.021562e+003, 1.122141e+003
1.022044e+003, 1.120432e+003
1.022527e+003, 1.119584e+003
1.023009e+003, 1.121591e+003
1.023491e+003, 1.124635e+003
1.023973e+003, 1.125664e+003
1.024455e+003, 1.124853e+003
1.024937e+003, 1.125227e+003
1.025419e+003, 1.126979e+003
1.025901e+003, 1.128175e+003
1.026384e+003, 1.128268e+003
1.026866e+003, 1.128695e+003
1.027348e+003, 1.130416e+003
1.027830e+003, 1.132911e+003
1.028312e+003, 1.135341e+003
1.028794e+003, 1.137763e+003
1.029276e+003, 1.138978e+003
1.029758e+003, 1.138461e+003
1.030240e+003, 1.138718e+003
1.030723e+003, 1.140639e+003
1.031205e+003, 1.142481e+003
1.031687e+003, 1.143308e+003
1.032169e+003, 1.143069e+003
1.032651e+003, 1.141487e+003
1.033133e+003, 1.138312e+003
1.033615e+003, 1.135964e+003
1.034097e+003, 1.135359e+003
1.034579e+003, 1.133480e+003
1.035062e+003, 1.129112e+003
1.035544e+003, 1.124288e+003
1.036026e+003, 1.120301e+003
1.036508e+003, 1.116821e+003
1.036990e+003, 1.113154e+003
1.037472e+003, 1.109207e+003
1.037954e+003, 1.105607e+003
1.038436e+003, 1.102926e+003
1.038919e+003, 1.099678e+003
1.039401e+003, 1.094438e+003
1.039883e+003, 1.089874e+003
1.040365e+003, 1.088636e+003
1.040847e+003, 1.088995e+003
1.041329e+003, 1.087038e+003
1.041811e+003, 1.082037e+003
1.042293e+003, 1.078602e+003
1.042776e+003, 1.078224e+003
1.043258e+003, 1.077441e+003
1.043740e+003, 1.075787e+003
1.044222e+003, 1.073381e+003
1.044704e+003, 1.069924e+003
1.045186e+003, 1.065906e+003
1.045668e+003, 1.062174e+003
1.046150e+003, 1.058750e+003
1.046632e+003, 1.055933e+003
1.047115e+003, 1.054554e+003
1.047597e+003, 1.052673e+003
1.048079e+003, 1.049341e+003
1.048561e+003, 1.045824e+003
1.049043e+003, 1.042963e+003
1.049525e+003, 1.040544e+003
1.050007e+003, 1.038092e+003
1.050489e+003, 1.035578e+003
1.050971e+003, 1.032917e+003
1.051454e+003, 1.029423e+003
1.051936e+003, 1.026710e+003
1.052418e+003, 1.025873e+003
1.052900e+003, 1.025385e+003
1.053382e+003, 1.024106e+003
1.053864e+003, 1.022387e+003
1.054346e+003, 1.020977e+003
1.054828e+003, 1.019982e+003
1.055311e+003, 1.019080e+003
1.055793e+003, 1.018809e+003
1.056275e+003, 1.017777e+003
1.056757e+003, 1.014336e+003
1.057239e+003, 1.011104e+003
1.057721e+003, 1.010578e+003
1.058203e+003, 1.011445e+003
1.058685e+003, 1.011143e+003
1.059167e+003, 1.009301e+003
1.059650e+003, 1.007798e+003
1.060132e+003, 1.007592e+003
1.060614e+003, 1.007360e+003
1.061096e+003, 1.006252e+003
1.061578e+003, 1.005262e+003
1.062060e+003, 1.005483e+003
1.062542e+003, 1.006193e+003
1.063024e+003, 1.006095e+003
1.063506e+003, 1.005026e+003
1.063989e+003, 1.003894e+003
1.064471e+003, 1.002927e+003
1.064953e+003, 1.002083e+003
1.065435e+003, 1.001529e+003
1.065917e+003, 1.000903e+003
1.066399e+003, 9.997521e+002
1.066881e+003, 9.984295e+002
1.067363e+003, 9.975371e+002
1.067846e+003, 9.971286e+002
1.068328e+003, 9.967501e+002
1.068810e+003, 9.963320e+002
1.069292e+003, 9.957541e+002
1.069774e+003, 9.948649e+002
1.070256e+003, 9.939068e+002
1.070738e+003, 9.929700e+002
1.071220e+003, 9.921369e+002
1.071703e+003, 9.916490e+002
1.072185e+003, 9.914091e+002
1.072667e+003, 9.906954e+002
1.073149e+003, 9.888822e+002
1.073631e+003, 9.873961e+002
1.074113e+003, 9.873529e+002
1.074595e+003, 9.873992e+002
1.075077e+003, 9.864221e+002
1.075559e+003, 9.850131e+002
1.076042e+003, 9.839286e+002
1.076524e+003, 9.832587e+002
1.077006e+003, 9.828184e+002
1.077488e+003, 9.826072e+002
1.077970e+003, 9.824092e+002
1.078452e+003, 9.824639e+002
1.078934e+003, 9.821264e+002
1.079416e+003, 9.802976e+002
1.079898e+003, 9.782940e+002
1.080380e+003, 9.781320e+002
1.080863e+003, 9.792947e+002
1.081345e+003, 9.793132e+002
1.081827e+003, 9.771677e+002
1.082309e+003, 9.751813e+002
1.082791e+003, 9.744575e+002
1.083273e+003, 9.741198e+002
1.083755e+003, 9.736634e+002
1.084237e+003, 9.732855e+002
1.084720e+003, 9.733419e+002
1.085202e+003, 9.736579e+002
1.085684e+003, 9.737159e+002
1.086166e+003, 9.733524e+002
1.086648e+003, 9.729758e+002
1.087130e+003, 9.732014e+002
1.087612e+003, 9.728996e+002
1.088094e+003, 9.709290e+002
1.088577e+003, 9.686319e+002
1.089059e+003, 9.671613e+002
1.089541e+003, 9.664113e+002
1.090023e+003, 9.660612e+002
1.090505e+003, 9.660447e+002
1.090987e+003, 9.657687e+002
1.091469e+003, 9.648609e+002
1.091951e+003, 9.638670e+002
1.092433e+003, 9.630194e+002
1.092916e+003, 9.621936e+002
1.093398e+003, 9.613106e+002
1.093880e+003, 9.603859e+002
1.094362e+003, 9.594222e+002
1.094844e+003, 9.584382e+002
1.095326e+003, 9.575787e+002
1.095808e+003, 9.569785e+002
1.096290e+003, 9.563888e+002
1.096772e+003, 9.554188e+002
1.097255e+003, 9.547670e+002
1.097737e+003, 9.551752e+002
1.098219e+003, 9.559788e+002
1.098701e+003, 9.562557e+002
1.099183e+003, 9.559894e+002
1.099665e+003, 9.558190e+002
1.100147e+003, 9.560777e+002
1.100629e+003, 9.560271e+002
1.101112e+003, 9.553754e+002
1.101594e+003, 9.544812e+002
1.102076e+003, 9.531500e+002
1.102558e+003, 9.519379e+002
1.103040e+003, 9.516414e+002
1.103522e+003, 9.519880e+002
1.104004e+003, 9.518011e+002
1.104486e+003, 9.506435e+002
1.104969e+003, 9.497973e+002
1.105451e+003, 9.500458e+002
1.105933e+003, 9.499133e+002
1.106415e+003, 9.482998e+002
1.106897e+003, 9.466436e+002
1.107379e+003, 9.460993e+002
1.107861e+003, 9.464202e+002
1.108343e+003, 9.469475e+002
1.108825e+003, 9.476755e+002
1.109307e+003, 9.483542e+002
1.109790e+003, 9.494998e+002
1.110272e+003, 9.498246e+002
1.110754e+003, 9.483050e+002
1.111236e+003, 9.467039e+002
1.111718e+003, 9.462238e+002
1.112200e+003, 9.462740e+002
1.112682e+003, 9.457534e+002
1.113164e+003, 9.445983e+002
1.113647e+003, 9.441390e+002
1.114129e+003, 9.456880e+002
1.114611e+003, 9.457355e+002
1.115093e+003, 9.427161e+002
1.115575e+003, 9.399886e+002
1.116057e+003, 9.390129e+002
1.116539e+003, 9.390108e+002
1.117021e+003, 9.393393e+002
1.117504e+003, 9.398902e+002
1.117986e+003, 9.398147e+002
1.118468e+003, 9.386336e+002
1.118950e+003, 9.380118e+002
1.119432e+003, 9.384799e+002
1.119914e+003, 9.383968e+002
1.120396e+003, 9.368135e+002
1.120878e+003, 9.352380e+002
1.121360e+003, 9.351304e+002
1.121843e+003, 9.358920e+002
1.122325e+003, 9.356954e+002
1.122807e+003, 9.342957e+002
1.123289e+003, 9.335531e+002
1.123771e+003, 9.338732e+002
1.124253e+003, 9.333254e+002
1.124735e+003, 9.310965e+002
1.125217e+003, 9.291803e+002
1.125699e+003, 9.288932e+002
1.126182e+003, 9.295834e+002
1.126664e+003, 9.302415e+002
1.127146e+003, 9.308439e+002
1.127628e+003, 9.308698e+002
1.128110e+003, 9.302343e+002
1.128592e+003, 9.297340e+002
1.129074e+003, 9.294528e+002
1.129556e+003, 9.294837e+002
1.130039e+003, 9.299132e+002
1.130521e+003, 9.304034e+002
1.131003e+003, 9.305830e+002
1.131485e+003, 9.304881e+002
1.131967e+003, 9.302899e+002
1.132449e+003, 9.299724e+002
1.132931e+003, 9.292119e+002
1.133413e+003, 9.279965e+002
1.133896e+003, 9.265782e+002
1.134378e+003, 9.250363e+002
1.134860e+003, 9.243909e+002
1.135342e+003, 9.255511e+002
1.135824e+003, 9.274610e+002
1.136306e+003, 9.283486e+002
1.136788e+003, 9.283305e+002
1.137270e+003, 9.276581e+002
1.137752e+003, 9.264763e+002
1.138234e+003, 9.254795e+002
1.138717e+003, 9.247433e+002
1.139199e+003, 9.236108e+002
1.139681e+003, 9.217347e+002
1.140163e+003, 9.203412e+002
1.140645e+003, 9.214083e+002
1.141127e+003, 9.232849e+002
1.141609e+003, 9.225292e+002
1.142091e+003, 9.203903e+002
1.142574e+003, 9.196884e+002
1.143056e+003, 9.203005e+002
1.143538e+003, 9.206918e+002
1.144020e+003, 9.203842e+002
1.144502e+003, 9.198811e+002
1.144984e+003, 9.193998e+002
1.145466e+003, 9.192012e+002
1.145948e+003, 9.201453e+002
1.146431e+003, 9.210514e+002
1.146913e+003, 9.198215e+002
1.147395e+003, 9.176854e+002
1.147877e+003, 9.171981e+002
1.148359e+003, 9.183897e+002
1.148841e+003, 9.193329e+002
1.149323e+003, 9.192148e+002
1.149805e+003, 9.187660e+002
1.150287e+003, 9.183643e+002
1.150770e+003, 9.178864e+002
1.151252e+003, 9.171993e+002
1.151734e+003, 9.164244e+002
1.152216e+003, 9.156218e+002
1.152698e+003, 9.148668e+002
1.153180e+003, 9.142743e+002
1.153662e+003, 9.138710e+002
1.154144e+003, 9.136228e+002
1.154626e+003, 9.139708e+002
1.155109e+003, 9.138355e+002
1.155591e+003, 9.123392e+002
1.156073e+003, 9.108341e+002
1.156555e+003, 9.100024e+002
1.157037e+003, 9.097578e+002
1.157519e+003, 9.103060e+002
1.158001e+003, 9.114006e+002
1.158483e+003, 9.114119e+002
1.158966e+003, 9.090667e+002
1.159448e+003, 9.080422e+002
1.159930e+003, 9.101962e+002
1.160412e+003, 9.114317e+002
1.160894e+003, 9.097285e+002
1.161376e+003, 9.078005e+002
1.161858e+003, 9.076871e+002
1.162340e+003, 9.087455e+002
1.162822e+003, 9.097714e+002
1.163305e+003, 9.108959e+002
1.163787e+003, 9.103837e+002
1.164269e+003, 9.071550e+002
1.164751e+003, 9.056027e+002
1.165233e+003, 9.068972e+002
1.165715e+003, 9.081836e+002
1.166197e+003, 9.081478e+002
1.166679e+003, 9.073910e+002
1.167161e+003, 9.064796e+002
1.167644e+003, 9.055908e+002
1.168126e+003, 9.056046e+002
1.168608e+003, 9.065658e+002
1.169090e+003, 9.069888e+002
1.169572e+003, 9.068029e+002
1.170054e+003, 9.061809e+002
1.170536e+003, 9.051554e+002
1.171018e+003, 9.044688e+002
1.171500e+003, 9.047043e+002
1.171983e+003, 9.050475e+002
1.172465e+003, 9.039149e+002
1.172947e+003, 9.019266e+002
1.173429e+003, 9.011213e+002
1.173911e+003, 9.013104e+002
1.174393e+003, 9.020856e+002
1.174875e+003, 9.031539e+002
1.175357e+003, 9.034747e+002
1.175840e+003, 9.027010e+002
1.176322e+003, 9.016593e+002
1.176804e+003, 9.009308e+002
1.177286e+003, 9.004958e+002
1.177768e+003, 9.005773e+002
1.178250e+003, 9.007531e+002
1.178732e+003, 9.002216e+002
1.179214e+003, 8.993738e+002
1.179697e+003, 8.992184e+002
1.180179e+003, 8.996664e+002
1.180661e+003, 8.995895e+002
1.181143e+003, 8.984548e+002
1.181625e+003, 8.972957e+002
1.182107e+003, 8.966572e+002
1.182589e+003, 8.963008e+002
1.183071e+003, 8.962173e+002
1.183553e+003, 8.962122e+002
1.184036e+003, 8.962942e+002
1.184518e+003, 8.962379e+002
1.185000e+003, 8.954118e+002
1.185482e+003, 8.938211e+002
1.185964e+003, 8.930533e+002
1.186446e+003, 8.943410e+002
1.186928e+003, 8.950651e+002
1.187410e+003, 8.946453e+002
1.187892e+003, 8.937740e+002
1.188375e+003, 8.922635e+002
1.188857e+003, 8.908633e+002
1.189339e+003, 8.902784e+002
1.189821e+003, 8.903387e+002
1.190303e+003, 8.906778e+002
1.190785e+003, 8.915098e+002
1.191267e+003, 8.912634e+002
1.191749e+003, 8.892836e+002
1.192232e+003, 8.881371e+002
1.192714e+003, 8.885101e+002
1.193196e+003, 8.888404e+002
1.193678e+003, 8.881794e+002
1.194160e+003, 8.876782e+002
1.194642e+003, 8.890490e+002
1.195124e+003, 8.913818e+002
1.195606e+003, 8.903971e+002
1.196089e+003, 8.863094e+002
1.196571e+003, 8.857421e+002
1.197053e+003, 8.887654e+002
1.197535e+003, 8.904023e+002
1.198017e+003, 8.894333e+002
1.198499e+003, 8.873663e+002
1.198981e+003, 8.850493e+002
1.199463e+003, 8.833407e+002
1.199945e+003, 8.837741e+002
1.200427e+003, 8.853237e+002
1.200910e+003, 8.864079e+002
1.201392e+003, 8.867986e+002
1.201874e+003, 8.852634e+002
1.202356e+003, 8.826608e+002
1.202838e+003, 8.820167e+002
1.203320e+003, 8.838121e+002
1.203802e+003, 8.850215e+002
1.204284e+003, 8.836422e+002
1.204767e+003, 8.819009e+002
1.205249e+003, 8.816053e+002
1.205731e+003, 8.815189e+002
1.206213e+003, 8.802504e+002
1.206695e+003, 8.788740e+002
1.207177e+003, 8.788854e+002
1.207659e+003, 8.799211e+002
1.208141e+003, 8.808677e+002
1.208624e+003, 8.815520e+002
1.209106e+003, 8.813448e+002
1.209588e+003, 8.790795e+002
1.210070e+003, 8.774363e+002
1.210552e+003, 8.773067e+002
1.211034e+003, 8.775125e+002
1.211516e+003, 8.777946e+002
1.211998e+003, 8.778290e+002
1.212480e+003, 8.770906e+002
1.212963e+003, 8.758639e+002
1.213445e+003, 8.752835e+002
1.213927e+003, 8.754778e+002
1.214409e+003, 8.756746e+002
1.214891e+003, 8.759726e+002
1.215373e+003, 8.758992e+002
1.215855e+003, 8.754314e+002
1.216337e+003, 8.740576e+002
1.216819e+003, 8.712761e+002
1.217302e+003, 8.688217e+002
1.217784e+003, 8.690878e+002
1.218266e+003, 8.709333e+002
1.218748e+003, 8.705191e+002
1.219230e+003, 8.684449e+002
1.219712e+003, 8.679261e+002
1.220194e+003, 8.687532e+002
1.220676e+003, 8.687596e+002
1.221159e+003, 8.675809e+002
1.221641e+003, 8.663831e+002
1.222123e+003, 8.657819e+002
1.222605e+003, 8.656036e+002
1.223087e+003, 8.657451e+002
1.223569e+003, 8.661293e+002
1.224051e+003, 8.668373e+002
1.224533e+003, 8.675892e+002
1.225016e+003, 8.682556e+002
1.225498e+003, 8.685491e+002
1.225980e+003, 8.676334e+002
1.226462e+003, 8.657016e+002
1.226944e+003, 8.646077e+002
1.227426e+003, 8.652763e+002
1.227908e+003, 8.659717e+002
1.228390e+003, 8.661795e+002
1.228872e+003, 8.661757e+002
1.229354e+003, 8.658972e+002
1.229837e+003, 8.656243e+002
1.230319e+003, 8.657585e+002
1.230801e+003, 8.659547e+002
1.231283e+003, 8.655245e+002
1.231765e+003, 8.644983e+002
1.232247e+003, 8.638558e+002
1.232729e+003, 8.640938e+002
1.233211e+003, 8.629823e+002
1.233694e+003, 8.596684e+002
1.234176e+003, 8.578595e+002
1.234658e+003, 8.589182e+002
1.235140e+003, 8.607857e+002
1.235622e+003, 8.621826e+002
1.236104e+003, 8.626207e+002
1.236586e+003, 8.607891e+002
1.237068e+003, 8.575191e+002
1.237551e+003, 8.566056e+002
1.238033e+003, 8.574297e+002
1.238515e+003, 8.571354e+002
1.238997e+003, 8.556895e+002
1.239479e+003, 8.543568e+002
1.239961e+003, 8.535899e+002
1.240443e+003, 8.536275e+002
1.240925e+003, 8.547975e+002
1.241407e+003, 8.558958e+002
1.241890e+003, 8.554205e+002
1.242372e+003, 8.546789e+002
1.242854e+003, 8.552258e+002
1.243336e+003, 8.560623e+002
1.243818e+003, 8.558638e+002
1.244300e+003, 8.549389e+002
1.244782e+003, 8.541472e+002
1.245264e+003, 8.536396e+002
1.245746e+003, 8.532412e+002
1.246229e+003, 8.530233e+002
1.246711e+003, 8.527009e+002
1.247193e+003, 8.520205e+002
1.247675e+003, 8.515058e+002
1.248157e+003, 8.515450e+002
1.248639e+003, 8.515245e+002
1.249121e+003, 8.508079e+002
1.249603e+003, 8.499655e+002
1.250085e+003, 8.501699e+002
1.250568e+003, 8.513089e+002
1.251050e+003, 8.513453e+002
1.251532e+003, 8.501213e+002
1.252014e+003, 8.495474e+002
1.252496e+003, 8.497909e+002
1.252978e+003, 8.498527e+002
1.253460e+003, 8.494327e+002
1.253942e+003, 8.489276e+002
1.254425e+003, 8.485981e+002
1.254907e+003, 8.484652e+002
1.255389e+003, 8.487359e+002
1.255871e+003, 8.490969e+002
1.256353e+003, 8.488127e+002
1.256835e+003, 8.482620e+002
1.257317e+003, 8.482731e+002
1.257799e+003, 8.486183e+002
1.258281e+003, 8.485764e+002
1.258764e+003, 8.480305e+002
1.259246e+003, 8.473536e+002
1.259728e+003, 8.466986e+002
1.260210e+003, 8.459699e+002
1.260692e+003, 8.445956e+002
1.261174e+003, 8.438373e+002
1.261656e+003, 8.449203e+002
1.262138e+003, 8.462070e+002
1.262620e+003, 8.464567e+002
1.263103e+003, 8.460632e+002
1.263585e+003, 8.456396e+002
1.264067e+003, 8.452098e+002
1.264549e+003, 8.449918e+002
1.265031e+003, 8.451559e+002
1.265513e+003, 8.448935e+002
1.265995e+003, 8.441158e+002
1.266477e+003, 8.431249e+002
1.266960e+003, 8.418555e+002
1.267442e+003, 8.414618e+002
1.267924e+003, 8.427083e+002
1.268406e+003, 8.439798e+002
1.268888e+003, 8.431756e+002
1.269370e+003, 8.413563e+002
1.269852e+003, 8.410878e+002
1.270334e+003, 8.417188e+002
1.270817e+003, 8.415656e+002
1.271299e+003, 8.408567e+002
1.271781e+003, 8.405117e+002
1.272263e+003, 8.405723e+002
1.272745e+003, 8.404539e+002
1.273227e+003, 8.399348e+002
1.273709e+003, 8.393770e+002
1.274191e+003, 8.387080e+002
1.274673e+003, 8.384630e+002
1.275156e+003, 8.395187e+002
1.275638e+003, 8.403881e+002
1.276120e+003, 8.395072e+002
1.276602e+003, 8.383485e+002
1.277084e+003, 8.388916e+002
1.277566e+003, 8.405641e+002
1.278048e+003, 8.413088e+002
1.278530e+003, 8.410471e+002
1.279012e+003, 8.405310e+002
1.279495e+003, 8.395711e+002
1.279977e+003, 8.389399e+002
1.280459e+003, 8.388396e+002
1.280941e+003, 8.385836e+002
1.281423e+003, 8.378698e+002
1.281905e+003, 8.374046e+002
1.282387e+003, 8.377930e+002
1.282869e+003, 8.385029e+002
1.283352e+003, 8.387067e+002
1.283834e+003, 8.384235e+002
1.284316e+003, 8.376292e+002
1.284798e+003, 8.363637e+002
##END=



