##NAMES=Zhanghuifenite
##RRUFFID=R141027
##IDEAL CHEMISTRY=Na_3_Mn^2+^_4_Mg_2_Al(PO_4_)_6_
##LOCALITY=Santa Ana Pegmatite, Totoral pegmatitic field, Coronel Pringles Department, San Luis, Argentina
##OWNER=RRUFF
##SOURCE=William W. Pinch
##DESCRIPTION=Dark green massive, lighter green when thin, associated with quartz.
##STATUS=The identification of this mineral is confirmed by single-crystal X-ray diffraction and chemical analysis.
##URL=rruff.info/R141027
##MEASURED CHEMISTRY=(Na_2.83_Ca_0.09_)_Σ2.92_(Mn_3.10_Fe_0.80_)_Σ3.90_(Mg_1.70_Fe^2+^_0.30_)_Σ2.00_(Al_0.82_Fe^3+^_0.18_)_Σ1.00_(PO_4_)_6_
8.818457e+001, 5.959427e+002
8.866669e+001, 5.953795e+002
8.914880e+001, 5.953744e+002
8.963092e+001, 5.959366e+002
9.011304e+001, 5.969681e+002
9.059515e+001, 5.986423e+002
9.107727e+001, 6.001434e+002
9.155939e+001, 5.950641e+002
9.204150e+001, 5.792335e+002
9.252362e+001, 5.631027e+002
9.300574e+001, 5.476147e+002
9.348785e+001, 5.331248e+002
9.396997e+001, 5.197173e+002
9.445209e+001, 5.073450e+002
9.493420e+001, 4.962522e+002
9.541632e+001, 4.844986e+002
9.589844e+001, 4.731740e+002
9.638055e+001, 4.629104e+002
9.686267e+001, 4.540473e+002
9.734479e+001, 4.466571e+002
9.782690e+001, 4.405908e+002
9.830902e+001, 4.349799e+002
9.879114e+001, 4.299033e+002
9.927325e+001, 4.249105e+002
9.975537e+001, 4.196922e+002
1.002375e+002, 4.142679e+002
1.007196e+002, 4.089051e+002
1.012017e+002, 4.037181e+002
1.016838e+002, 3.986876e+002
1.021660e+002, 3.943695e+002
1.026481e+002, 3.910186e+002
1.031302e+002, 3.881075e+002
1.036123e+002, 3.849985e+002
1.040944e+002, 3.814928e+002
1.045765e+002, 3.782123e+002
1.050587e+002, 3.762270e+002
1.055408e+002, 3.752705e+002
1.060229e+002, 3.739492e+002
1.065050e+002, 3.715651e+002
1.069871e+002, 3.682617e+002
1.074692e+002, 3.646699e+002
1.079514e+002, 3.606837e+002
1.084335e+002, 3.566263e+002
1.089156e+002, 3.525568e+002
1.093977e+002, 3.485114e+002
1.098798e+002, 3.448336e+002
1.103619e+002, 3.420630e+002
1.108441e+002, 3.405508e+002
1.113262e+002, 3.386650e+002
1.118083e+002, 3.355892e+002
1.122904e+002, 3.324694e+002
1.127725e+002, 3.302245e+002
1.132546e+002, 3.291121e+002
1.137368e+002, 3.285725e+002
1.142189e+002, 3.273104e+002
1.147010e+002, 3.244713e+002
1.151831e+002, 3.219657e+002
1.156652e+002, 3.202852e+002
1.161473e+002, 3.189029e+002
1.166295e+002, 3.171186e+002
1.171116e+002, 3.145140e+002
1.175937e+002, 3.113129e+002
1.180758e+002, 3.088403e+002
1.185579e+002, 3.077325e+002
1.190400e+002, 3.065394e+002
1.195222e+002, 3.045036e+002
1.200043e+002, 3.018917e+002
1.204864e+002, 2.997028e+002
1.209685e+002, 2.987950e+002
1.214506e+002, 2.989689e+002
1.219327e+002, 2.984178e+002
1.224149e+002, 2.965699e+002
1.228970e+002, 2.943521e+002
1.233791e+002, 2.925680e+002
1.238612e+002, 2.912743e+002
1.243433e+002, 2.901415e+002
1.248254e+002, 2.888115e+002
1.253076e+002, 2.874426e+002
1.257897e+002, 2.863831e+002
1.262718e+002, 2.859569e+002
1.267539e+002, 2.859471e+002
1.272360e+002, 2.857071e+002
1.277181e+002, 2.852036e+002
1.282003e+002, 2.844766e+002
1.286824e+002, 2.836009e+002
1.291645e+002, 2.825642e+002
1.296466e+002, 2.813375e+002
1.301287e+002, 2.797638e+002
1.306108e+002, 2.777868e+002
1.310930e+002, 2.762087e+002
1.315751e+002, 2.753377e+002
1.320572e+002, 2.746352e+002
1.325393e+002, 2.740089e+002
1.330214e+002, 2.734012e+002
1.335035e+002, 2.727330e+002
1.339857e+002, 2.718805e+002
1.344678e+002, 2.706778e+002
1.349499e+002, 2.697322e+002
1.354320e+002, 2.691582e+002
1.359141e+002, 2.687179e+002
1.363962e+002, 2.682599e+002
1.368784e+002, 2.677426e+002
1.373605e+002, 2.672210e+002
1.378426e+002, 2.667911e+002
1.383247e+002, 2.666059e+002
1.388068e+002, 2.662323e+002
1.392889e+002, 2.655452e+002
1.397711e+002, 2.646842e+002
1.402532e+002, 2.638844e+002
1.407353e+002, 2.632664e+002
1.412174e+002, 2.626133e+002
1.416995e+002, 2.613309e+002
1.421816e+002, 2.591582e+002
1.426638e+002, 2.572235e+002
1.431459e+002, 2.560005e+002
1.436280e+002, 2.553977e+002
1.441101e+002, 2.550780e+002
1.445922e+002, 2.550684e+002
1.450743e+002, 2.551577e+002
1.455565e+002, 2.550869e+002
1.460386e+002, 2.549028e+002
1.465207e+002, 2.544202e+002
1.470028e+002, 2.531975e+002
1.474849e+002, 2.510823e+002
1.479670e+002, 2.494752e+002
1.484492e+002, 2.496585e+002
1.489313e+002, 2.502976e+002
1.494134e+002, 2.503129e+002
1.498955e+002, 2.492984e+002
1.503776e+002, 2.477731e+002
1.508597e+002, 2.466730e+002
1.513419e+002, 2.461731e+002
1.518240e+002, 2.457928e+002
1.523061e+002, 2.453622e+002
1.527882e+002, 2.449795e+002
1.532703e+002, 2.448321e+002
1.537524e+002, 2.450556e+002
1.542346e+002, 2.454670e+002
1.547167e+002, 2.452625e+002
1.551988e+002, 2.437832e+002
1.556809e+002, 2.423510e+002
1.561630e+002, 2.411818e+002
1.566451e+002, 2.401899e+002
1.571273e+002, 2.392160e+002
1.576094e+002, 2.381431e+002
1.580915e+002, 2.369851e+002
1.585736e+002, 2.360589e+002
1.590557e+002, 2.354065e+002
1.595378e+002, 2.348987e+002
1.600200e+002, 2.346965e+002
1.605021e+002, 2.346521e+002
1.609842e+002, 2.343594e+002
1.614663e+002, 2.334577e+002
1.619484e+002, 2.319297e+002
1.624305e+002, 2.306401e+002
1.629127e+002, 2.297267e+002
1.633948e+002, 2.289158e+002
1.638769e+002, 2.280771e+002
1.643590e+002, 2.271972e+002
1.648411e+002, 2.262202e+002
1.653232e+002, 2.249888e+002
1.658054e+002, 2.235712e+002
1.662875e+002, 2.224879e+002
1.667696e+002, 2.221019e+002
1.672517e+002, 2.219399e+002
1.677338e+002, 2.214325e+002
1.682159e+002, 2.204836e+002
1.686981e+002, 2.194097e+002
1.691802e+002, 2.184715e+002
1.696623e+002, 2.176115e+002
1.701444e+002, 2.166982e+002
1.706265e+002, 2.156410e+002
1.711086e+002, 2.144912e+002
1.715908e+002, 2.133881e+002
1.720729e+002, 2.123698e+002
1.725550e+002, 2.113460e+002
1.730371e+002, 2.102681e+002
1.735192e+002, 2.091416e+002
1.740013e+002, 2.079961e+002
1.744835e+002, 2.067660e+002
1.749656e+002, 2.054689e+002
1.754477e+002, 2.044724e+002
1.759298e+002, 2.042537e+002
1.764119e+002, 2.038495e+002
1.768940e+002, 2.026993e+002
1.773762e+002, 2.010071e+002
1.778583e+002, 1.993642e+002
1.783404e+002, 1.983704e+002
1.788225e+002, 1.981520e+002
1.793046e+002, 1.976158e+002
1.797867e+002, 1.964520e+002
1.802689e+002, 1.952447e+002
1.807510e+002, 1.942022e+002
1.812331e+002, 1.933311e+002
1.817152e+002, 1.925454e+002
1.821973e+002, 1.917552e+002
1.826794e+002, 1.909750e+002
1.831616e+002, 1.901365e+002
1.836437e+002, 1.891231e+002
1.841258e+002, 1.881541e+002
1.846079e+002, 1.874023e+002
1.850900e+002, 1.868628e+002
1.855721e+002, 1.863614e+002
1.860543e+002, 1.856777e+002
1.865364e+002, 1.847000e+002
1.870185e+002, 1.838782e+002
1.875006e+002, 1.833033e+002
1.879827e+002, 1.828125e+002
1.884648e+002, 1.822553e+002
1.889470e+002, 1.816017e+002
1.894291e+002, 1.809746e+002
1.899112e+002, 1.805784e+002
1.903933e+002, 1.805045e+002
1.908754e+002, 1.801852e+002
1.913575e+002, 1.792729e+002
1.918397e+002, 1.781922e+002
1.923218e+002, 1.774855e+002
1.928039e+002, 1.772984e+002
1.932860e+002, 1.773436e+002
1.937681e+002, 1.773111e+002
1.942502e+002, 1.772136e+002
1.947324e+002, 1.770180e+002
1.952145e+002, 1.766335e+002
1.956966e+002, 1.761512e+002
1.961787e+002, 1.757871e+002
1.966608e+002, 1.756590e+002
1.971429e+002, 1.755021e+002
1.976251e+002, 1.749135e+002
1.981072e+002, 1.739675e+002
1.985893e+002, 1.732522e+002
1.990714e+002, 1.732900e+002
1.995535e+002, 1.738864e+002
2.000356e+002, 1.741442e+002
2.005178e+002, 1.737551e+002
2.009999e+002, 1.732087e+002
2.014820e+002, 1.728322e+002
2.019641e+002, 1.726225e+002
2.024462e+002, 1.725190e+002
2.029283e+002, 1.725062e+002
2.034105e+002, 1.725823e+002
2.038926e+002, 1.726834e+002
2.043747e+002, 1.731231e+002
2.048568e+002, 1.732594e+002
2.053389e+002, 1.725026e+002
2.058210e+002, 1.710364e+002
2.063032e+002, 1.696656e+002
2.067853e+002, 1.692281e+002
2.072674e+002, 1.698733e+002
2.077495e+002, 1.704312e+002
2.082316e+002, 1.709877e+002
2.087137e+002, 1.713663e+002
2.091959e+002, 1.714053e+002
2.096780e+002, 1.711524e+002
2.101601e+002, 1.708274e+002
2.106422e+002, 1.706773e+002
2.111243e+002, 1.707795e+002
2.116064e+002, 1.707237e+002
2.120886e+002, 1.704167e+002
2.125707e+002, 1.700473e+002
2.130528e+002, 1.696579e+002
2.135349e+002, 1.692778e+002
2.140170e+002, 1.689490e+002
2.144992e+002, 1.687117e+002
2.149813e+002, 1.685455e+002
2.154634e+002, 1.685702e+002
2.159455e+002, 1.689483e+002
2.164276e+002, 1.693437e+002
2.169097e+002, 1.696148e+002
2.173919e+002, 1.697262e+002
2.178740e+002, 1.696738e+002
2.183561e+002, 1.694278e+002
2.188382e+002, 1.689014e+002
2.193203e+002, 1.685273e+002
2.198024e+002, 1.685127e+002
2.202846e+002, 1.684819e+002
2.207667e+002, 1.680985e+002
2.212488e+002, 1.673658e+002
2.217309e+002, 1.666324e+002
2.222130e+002, 1.662813e+002
2.226951e+002, 1.664240e+002
2.231773e+002, 1.664632e+002
2.236594e+002, 1.662994e+002
2.241415e+002, 1.661001e+002
2.246236e+002, 1.660096e+002
2.251057e+002, 1.660426e+002
2.255878e+002, 1.661029e+002
2.260700e+002, 1.661273e+002
2.265521e+002, 1.661108e+002
2.270342e+002, 1.659244e+002
2.275163e+002, 1.652470e+002
2.279984e+002, 1.645760e+002
2.284805e+002, 1.645096e+002
2.289627e+002, 1.651361e+002
2.294448e+002, 1.657829e+002
2.299269e+002, 1.657959e+002
2.304090e+002, 1.652687e+002
2.308911e+002, 1.647747e+002
2.313732e+002, 1.643546e+002
2.318554e+002, 1.640301e+002
2.323375e+002, 1.638874e+002
2.328196e+002, 1.639665e+002
2.333017e+002, 1.639933e+002
2.337838e+002, 1.636622e+002
2.342659e+002, 1.631098e+002
2.347481e+002, 1.626437e+002
2.352302e+002, 1.623592e+002
2.357123e+002, 1.621960e+002
2.361944e+002, 1.621327e+002
2.366765e+002, 1.622310e+002
2.371586e+002, 1.621856e+002
2.376408e+002, 1.615636e+002
2.381229e+002, 1.606985e+002
2.386050e+002, 1.600909e+002
2.390871e+002, 1.599967e+002
2.395692e+002, 1.601931e+002
2.400513e+002, 1.603643e+002
2.405335e+002, 1.605598e+002
2.410156e+002, 1.605669e+002
2.414977e+002, 1.600891e+002
2.419798e+002, 1.594239e+002
2.424619e+002, 1.589498e+002
2.429440e+002, 1.588913e+002
2.434262e+002, 1.589910e+002
2.439083e+002, 1.587534e+002
2.443904e+002, 1.580856e+002
2.448725e+002, 1.573045e+002
2.453546e+002, 1.563193e+002
2.458367e+002, 1.553727e+002
2.463189e+002, 1.547695e+002
2.468010e+002, 1.546779e+002
2.472831e+002, 1.548203e+002
2.477652e+002, 1.545891e+002
2.482473e+002, 1.536949e+002
2.487294e+002, 1.531134e+002
2.492116e+002, 1.534623e+002
2.496937e+002, 1.540136e+002
2.501758e+002, 1.540984e+002
2.506579e+002, 1.534602e+002
2.511400e+002, 1.523938e+002
2.516221e+002, 1.514093e+002
2.521043e+002, 1.504005e+002
2.525864e+002, 1.497317e+002
2.530685e+002, 1.496066e+002
2.535506e+002, 1.496909e+002
2.540327e+002, 1.496480e+002
2.545148e+002, 1.493861e+002
2.549970e+002, 1.491798e+002
2.554791e+002, 1.496586e+002
2.559612e+002, 1.516344e+002
2.564433e+002, 1.525493e+002
2.569254e+002, 1.515842e+002
2.574075e+002, 1.501154e+002
2.578896e+002, 1.490868e+002
2.583718e+002, 1.487518e+002
2.588539e+002, 1.488137e+002
2.593360e+002, 1.488113e+002
2.598181e+002, 1.485995e+002
2.603002e+002, 1.486463e+002
2.607823e+002, 1.492881e+002
2.612645e+002, 1.499019e+002
2.617466e+002, 1.500576e+002
2.622287e+002, 1.496935e+002
2.627108e+002, 1.490477e+002
2.631929e+002, 1.484071e+002
2.636750e+002, 1.477101e+002
2.641572e+002, 1.472004e+002
2.646393e+002, 1.468832e+002
2.651214e+002, 1.467056e+002
2.656035e+002, 1.467032e+002
2.660856e+002, 1.468388e+002
2.665677e+002, 1.469833e+002
2.670499e+002, 1.470029e+002
2.675320e+002, 1.468921e+002
2.680141e+002, 1.466543e+002
2.684962e+002, 1.461788e+002
2.689783e+002, 1.457005e+002
2.694604e+002, 1.453090e+002
2.699426e+002, 1.450234e+002
2.704247e+002, 1.448457e+002
2.709068e+002, 1.447904e+002
2.713889e+002, 1.448753e+002
2.718710e+002, 1.449154e+002
2.723531e+002, 1.449112e+002
2.728353e+002, 1.448729e+002
2.733174e+002, 1.448472e+002
2.737995e+002, 1.448002e+002
2.742816e+002, 1.446028e+002
2.747637e+002, 1.441121e+002
2.752458e+002, 1.433380e+002
2.757280e+002, 1.430085e+002
2.762101e+002, 1.436342e+002
2.766922e+002, 1.440716e+002
2.771743e+002, 1.438217e+002
2.776564e+002, 1.430453e+002
2.781385e+002, 1.421235e+002
2.786207e+002, 1.412551e+002
2.791028e+002, 1.404663e+002
2.795849e+002, 1.399505e+002
2.800670e+002, 1.399518e+002
2.805491e+002, 1.398914e+002
2.810313e+002, 1.395463e+002
2.815134e+002, 1.390359e+002
2.819955e+002, 1.385968e+002
2.824776e+002, 1.383512e+002
2.829597e+002, 1.382283e+002
2.834418e+002, 1.379985e+002
2.839240e+002, 1.374834e+002
2.844061e+002, 1.371332e+002
2.848882e+002, 1.372050e+002
2.853703e+002, 1.374609e+002
2.858524e+002, 1.375410e+002
2.863345e+002, 1.373080e+002
2.868167e+002, 1.368756e+002
2.872988e+002, 1.364578e+002
2.877809e+002, 1.360722e+002
2.882630e+002, 1.356519e+002
2.887451e+002, 1.349775e+002
2.892272e+002, 1.343408e+002
2.897094e+002, 1.342212e+002
2.901915e+002, 1.347642e+002
2.906736e+002, 1.354569e+002
2.911557e+002, 1.355551e+002
2.916378e+002, 1.348974e+002
2.921199e+002, 1.344146e+002
2.926021e+002, 1.343278e+002
2.930842e+002, 1.343805e+002
2.935663e+002, 1.342962e+002
2.940484e+002, 1.340318e+002
2.945305e+002, 1.337685e+002
2.950126e+002, 1.337204e+002
2.954948e+002, 1.339098e+002
2.959769e+002, 1.339161e+002
2.964590e+002, 1.335926e+002
2.969411e+002, 1.331728e+002
2.974232e+002, 1.328133e+002
2.979053e+002, 1.325282e+002
2.983875e+002, 1.323202e+002
2.988696e+002, 1.322205e+002
2.993517e+002, 1.322123e+002
2.998338e+002, 1.321193e+002
3.003159e+002, 1.319331e+002
3.007980e+002, 1.316728e+002
3.012802e+002, 1.312630e+002
3.017623e+002, 1.307555e+002
3.022444e+002, 1.304301e+002
3.027265e+002, 1.305699e+002
3.032086e+002, 1.309296e+002
3.036907e+002, 1.306496e+002
3.041729e+002, 1.291801e+002
3.046550e+002, 1.278809e+002
3.051371e+002, 1.274522e+002
3.056192e+002, 1.276702e+002
3.061013e+002, 1.279828e+002
3.065834e+002, 1.282143e+002
3.070656e+002, 1.283412e+002
3.075477e+002, 1.282894e+002
3.080298e+002, 1.280224e+002
3.085119e+002, 1.277393e+002
3.089940e+002, 1.274657e+002
3.094761e+002, 1.272228e+002
3.099583e+002, 1.270870e+002
3.104404e+002, 1.271050e+002
3.109225e+002, 1.271155e+002
3.114046e+002, 1.267904e+002
3.118867e+002, 1.260674e+002
3.123688e+002, 1.256554e+002
3.128510e+002, 1.260442e+002
3.133331e+002, 1.266562e+002
3.138152e+002, 1.267450e+002
3.142973e+002, 1.261828e+002
3.147794e+002, 1.254214e+002
3.152615e+002, 1.248582e+002
3.157437e+002, 1.244950e+002
3.162258e+002, 1.242110e+002
3.167079e+002, 1.241276e+002
3.171900e+002, 1.240293e+002
3.176721e+002, 1.236630e+002
3.181542e+002, 1.230478e+002
3.186364e+002, 1.225076e+002
3.191185e+002, 1.222825e+002
3.196006e+002, 1.223387e+002
3.200827e+002, 1.223706e+002
3.205648e+002, 1.225723e+002
3.210469e+002, 1.225712e+002
3.215291e+002, 1.219730e+002
3.220112e+002, 1.209475e+002
3.224933e+002, 1.201263e+002
3.229754e+002, 1.198331e+002
3.234575e+002, 1.199141e+002
3.239396e+002, 1.199489e+002
3.244218e+002, 1.199216e+002
3.249039e+002, 1.198895e+002
3.253860e+002, 1.199103e+002
3.258681e+002, 1.199360e+002
3.263502e+002, 1.198443e+002
3.268323e+002, 1.195706e+002
3.273145e+002, 1.192621e+002
3.277966e+002, 1.191992e+002
3.282787e+002, 1.194504e+002
3.287608e+002, 1.195652e+002
3.292429e+002, 1.193838e+002
3.297250e+002, 1.190600e+002
3.302072e+002, 1.187346e+002
3.306893e+002, 1.184331e+002
3.311714e+002, 1.182203e+002
3.316535e+002, 1.182045e+002
3.321356e+002, 1.184111e+002
3.326177e+002, 1.184678e+002
3.330999e+002, 1.182352e+002
3.335820e+002, 1.179456e+002
3.340641e+002, 1.177136e+002
3.345462e+002, 1.175634e+002
3.350283e+002, 1.175926e+002
3.355105e+002, 1.179494e+002
3.359926e+002, 1.185480e+002
3.364747e+002, 1.187469e+002
3.369568e+002, 1.181013e+002
3.374389e+002, 1.175665e+002
3.379211e+002, 1.176776e+002
3.384032e+002, 1.182132e+002
3.388853e+002, 1.186646e+002
3.393674e+002, 1.188063e+002
3.398495e+002, 1.186849e+002
3.403316e+002, 1.183742e+002
3.408138e+002, 1.176087e+002
3.412959e+002, 1.171471e+002
3.417780e+002, 1.173098e+002
3.422601e+002, 1.177881e+002
3.427422e+002, 1.182284e+002
3.432243e+002, 1.185308e+002
3.437065e+002, 1.187111e+002
3.441886e+002, 1.187746e+002
3.446707e+002, 1.186542e+002
3.451528e+002, 1.186080e+002
3.456349e+002, 1.186614e+002
3.461170e+002, 1.187727e+002
3.465992e+002, 1.189582e+002
3.470813e+002, 1.191950e+002
3.475634e+002, 1.193710e+002
3.480455e+002, 1.193860e+002
3.485276e+002, 1.192320e+002
3.490097e+002, 1.190401e+002
3.494919e+002, 1.188037e+002
3.499740e+002, 1.185460e+002
3.504561e+002, 1.181472e+002
3.509382e+002, 1.177305e+002
3.514203e+002, 1.176033e+002
3.519024e+002, 1.179714e+002
3.523846e+002, 1.186870e+002
3.528667e+002, 1.191386e+002
3.533488e+002, 1.192104e+002
3.538309e+002, 1.191676e+002
3.543130e+002, 1.188399e+002
3.547951e+002, 1.184924e+002
3.552773e+002, 1.185026e+002
3.557594e+002, 1.189793e+002
3.562415e+002, 1.196198e+002
3.567236e+002, 1.199182e+002
3.572057e+002, 1.197403e+002
3.576878e+002, 1.194579e+002
3.581700e+002, 1.188456e+002
3.586521e+002, 1.183073e+002
3.591342e+002, 1.182216e+002
3.596163e+002, 1.185411e+002
3.600984e+002, 1.188575e+002
3.605805e+002, 1.187631e+002
3.610627e+002, 1.182157e+002
3.615448e+002, 1.177699e+002
3.620269e+002, 1.175100e+002
3.625090e+002, 1.172582e+002
3.629911e+002, 1.169539e+002
3.634732e+002, 1.166184e+002
3.639554e+002, 1.162846e+002
3.644375e+002, 1.159647e+002
3.649196e+002, 1.156826e+002
3.654017e+002, 1.155473e+002
3.658838e+002, 1.157989e+002
3.663659e+002, 1.158593e+002
3.668481e+002, 1.155604e+002
3.673302e+002, 1.151122e+002
3.678123e+002, 1.147138e+002
3.682944e+002, 1.144242e+002
3.687765e+002, 1.141635e+002
3.692586e+002, 1.138098e+002
3.697408e+002, 1.133278e+002
3.702229e+002, 1.128415e+002
3.707050e+002, 1.122428e+002
3.711871e+002, 1.117340e+002
3.716692e+002, 1.114933e+002
3.721513e+002, 1.114635e+002
3.726335e+002, 1.114220e+002
3.731156e+002, 1.111635e+002
3.735977e+002, 1.107013e+002
3.740798e+002, 1.103268e+002
3.745619e+002, 1.101790e+002
3.750440e+002, 1.099362e+002
3.755262e+002, 1.094389e+002
3.760083e+002, 1.088080e+002
3.764904e+002, 1.082116e+002
3.769725e+002, 1.077207e+002
3.774546e+002, 1.073186e+002
3.779367e+002, 1.069510e+002
3.784189e+002, 1.065758e+002
3.789010e+002, 1.063645e+002
3.793831e+002, 1.065692e+002
3.798652e+002, 1.068182e+002
3.803473e+002, 1.068296e+002
3.808294e+002, 1.065569e+002
3.813116e+002, 1.061742e+002
3.817937e+002, 1.058493e+002
3.822758e+002, 1.055810e+002
3.827579e+002, 1.052442e+002
3.832400e+002, 1.047685e+002
3.837221e+002, 1.042921e+002
3.842043e+002, 1.038237e+002
3.846864e+002, 1.034102e+002
3.851685e+002, 1.031947e+002
3.856506e+002, 1.033815e+002
3.861327e+002, 1.037757e+002
3.866148e+002, 1.039413e+002
3.870970e+002, 1.038403e+002
3.875791e+002, 1.036554e+002
3.880612e+002, 1.034984e+002
3.885433e+002, 1.033027e+002
3.890254e+002, 1.029426e+002
3.895075e+002, 1.023163e+002
3.899897e+002, 1.017102e+002
3.904718e+002, 1.013836e+002
3.909539e+002, 1.013098e+002
3.914360e+002, 1.012932e+002
3.919181e+002, 1.012576e+002
3.924002e+002, 1.012914e+002
3.928824e+002, 1.016680e+002
3.933645e+002, 1.024081e+002
3.938466e+002, 1.026730e+002
3.943287e+002, 1.017324e+002
3.948108e+002, 1.002665e+002
3.952929e+002, 9.932246e+001
3.957751e+002, 9.904739e+001
3.962572e+002, 9.903251e+001
3.967393e+002, 9.902440e+001
3.972214e+002, 9.901365e+001
3.977035e+002, 9.895323e+001
3.981856e+002, 9.874796e+001
3.986678e+002, 9.857671e+001
3.991499e+002, 9.860027e+001
3.996320e+002, 9.876078e+001
4.001141e+002, 9.886218e+001
4.005962e+002, 9.881446e+001
4.010783e+002, 9.865637e+001
4.015605e+002, 9.845714e+001
4.020426e+002, 9.813992e+001
4.025247e+002, 9.795170e+001
4.030068e+002, 9.802377e+001
4.034889e+002, 9.820261e+001
4.039710e+002, 9.832966e+001
4.044532e+002, 9.837280e+001
4.049353e+002, 9.836580e+001
4.054174e+002, 9.831893e+001
4.058995e+002, 9.820070e+001
4.063816e+002, 9.831959e+001
4.068637e+002, 9.898540e+001
4.073459e+002, 9.955078e+001
4.078280e+002, 9.960075e+001
4.083101e+002, 9.931524e+001
4.087922e+002, 9.912370e+001
4.092743e+002, 9.927258e+001
4.097564e+002, 9.968456e+001
4.102386e+002, 1.000812e+002
4.107207e+002, 1.005392e+002
4.112028e+002, 1.008682e+002
4.116849e+002, 1.009016e+002
4.121670e+002, 1.009004e+002
4.126491e+002, 1.011141e+002
4.131313e+002, 1.015819e+002
4.136134e+002, 1.021381e+002
4.140955e+002, 1.025737e+002
4.145776e+002, 1.028494e+002
4.150597e+002, 1.032201e+002
4.155418e+002, 1.039939e+002
4.160240e+002, 1.045617e+002
4.165061e+002, 1.045684e+002
4.169882e+002, 1.042162e+002
4.174703e+002, 1.039243e+002
4.179524e+002, 1.039632e+002
4.184345e+002, 1.041925e+002
4.189167e+002, 1.041502e+002
4.193988e+002, 1.036243e+002
4.198809e+002, 1.033227e+002
4.203630e+002, 1.037528e+002
4.208451e+002, 1.042611e+002
4.213272e+002, 1.042659e+002
4.218094e+002, 1.036673e+002
4.222915e+002, 1.029008e+002
4.227736e+002, 1.023473e+002
4.232557e+002, 1.020004e+002
4.237378e+002, 1.017806e+002
4.242199e+002, 1.017598e+002
4.247021e+002, 1.017502e+002
4.251842e+002, 1.016414e+002
4.256663e+002, 1.014499e+002
4.261484e+002, 1.012107e+002
4.266305e+002, 1.009092e+002
4.271126e+002, 1.005891e+002
4.275948e+002, 1.002766e+002
4.280769e+002, 9.996445e+001
4.285590e+002, 9.980408e+001
4.290411e+002, 9.996558e+001
4.295232e+002, 1.002512e+002
4.300053e+002, 1.002883e+002
4.304875e+002, 9.998666e+001
4.309696e+002, 9.976329e+001
4.314517e+002, 9.989453e+001
4.319338e+002, 1.002289e+002
4.324159e+002, 1.005122e+002
4.328980e+002, 1.007088e+002
4.333802e+002, 1.007378e+002
4.338623e+002, 1.004142e+002
4.343444e+002, 9.973649e+001
4.348265e+002, 9.941579e+001
4.353086e+002, 9.968159e+001
4.357907e+002, 1.001256e+002
4.362729e+002, 1.006295e+002
4.367550e+002, 1.011168e+002
4.372371e+002, 1.013700e+002
4.377192e+002, 1.012456e+002
4.382013e+002, 1.009165e+002
4.386834e+002, 1.008521e+002
4.391656e+002, 1.012712e+002
4.396477e+002, 1.016316e+002
4.401298e+002, 1.018137e+002
4.406119e+002, 1.019881e+002
4.410940e+002, 1.023390e+002
4.415761e+002, 1.028710e+002
4.420583e+002, 1.034214e+002
4.425404e+002, 1.038362e+002
4.430225e+002, 1.041091e+002
4.435046e+002, 1.043332e+002
4.439867e+002, 1.043826e+002
4.444688e+002, 1.045216e+002
4.449510e+002, 1.048932e+002
4.454331e+002, 1.053727e+002
4.459152e+002, 1.057848e+002
4.463973e+002, 1.060526e+002
4.468794e+002, 1.062276e+002
4.473615e+002, 1.063830e+002
4.478437e+002, 1.064802e+002
4.483258e+002, 1.066786e+002
4.488079e+002, 1.070427e+002
4.492900e+002, 1.074775e+002
4.497721e+002, 1.080506e+002
4.502542e+002, 1.086829e+002
4.507364e+002, 1.090942e+002
4.512185e+002, 1.089572e+002
4.517006e+002, 1.084534e+002
4.521827e+002, 1.082842e+002
4.526648e+002, 1.085885e+002
4.531469e+002, 1.088544e+002
4.536291e+002, 1.087533e+002
4.541112e+002, 1.085099e+002
4.545933e+002, 1.083679e+002
4.550754e+002, 1.083884e+002
4.555575e+002, 1.084513e+002
4.560396e+002, 1.085206e+002
4.565218e+002, 1.085648e+002
4.570039e+002, 1.084140e+002
4.574860e+002, 1.079584e+002
4.579681e+002, 1.074802e+002
4.584502e+002, 1.072853e+002
4.589323e+002, 1.073377e+002
4.594145e+002, 1.074643e+002
4.598966e+002, 1.076881e+002
4.603787e+002, 1.079347e+002
4.608608e+002, 1.081764e+002
4.613429e+002, 1.083959e+002
4.618250e+002, 1.085161e+002
4.623072e+002, 1.084733e+002
4.627893e+002, 1.083484e+002
4.632714e+002, 1.083691e+002
4.637535e+002, 1.086282e+002
4.642356e+002, 1.088478e+002
4.647177e+002, 1.090188e+002
4.651999e+002, 1.091246e+002
4.656820e+002, 1.090635e+002
4.661641e+002, 1.088738e+002
4.666462e+002, 1.088126e+002
4.671283e+002, 1.091506e+002
4.676104e+002, 1.098893e+002
4.680926e+002, 1.104093e+002
4.685747e+002, 1.105498e+002
4.690568e+002, 1.106451e+002
4.695389e+002, 1.108993e+002
4.700210e+002, 1.110899e+002
4.705031e+002, 1.108752e+002
4.709853e+002, 1.101465e+002
4.714674e+002, 1.092131e+002
4.719495e+002, 1.085426e+002
4.724316e+002, 1.081932e+002
4.729137e+002, 1.078397e+002
4.733958e+002, 1.075569e+002
4.738780e+002, 1.071770e+002
4.743601e+002, 1.064946e+002
4.748422e+002, 1.056504e+002
4.753243e+002, 1.050048e+002
4.758064e+002, 1.048324e+002
4.762885e+002, 1.048828e+002
4.767707e+002, 1.046430e+002
4.772528e+002, 1.040650e+002
4.777349e+002, 1.035453e+002
4.782170e+002, 1.032942e+002
4.786991e+002, 1.031086e+002
4.791812e+002, 1.027007e+002
4.796634e+002, 1.020348e+002
4.801455e+002, 1.014973e+002
4.806276e+002, 1.013700e+002
4.811097e+002, 1.014605e+002
4.815918e+002, 1.014168e+002
4.820739e+002, 1.011942e+002
4.825561e+002, 1.010327e+002
4.830382e+002, 1.011942e+002
4.835203e+002, 1.015649e+002
4.840024e+002, 1.015214e+002
4.844845e+002, 1.005212e+002
4.849666e+002, 9.976035e+001
4.854488e+002, 9.985493e+001
4.859309e+002, 1.003823e+002
4.864130e+002, 1.007250e+002
4.868951e+002, 1.007038e+002
4.873772e+002, 1.004950e+002
4.878593e+002, 1.003076e+002
4.883415e+002, 1.001351e+002
4.888236e+002, 1.000195e+002
4.893057e+002, 9.994899e+001
4.897878e+002, 9.993686e+001
4.902699e+002, 1.000434e+002
4.907520e+002, 1.002020e+002
4.912342e+002, 1.003306e+002
4.917163e+002, 1.003931e+002
4.921984e+002, 1.003352e+002
4.926805e+002, 9.999051e+001
4.931626e+002, 9.920568e+001
4.936447e+002, 9.858974e+001
4.941269e+002, 9.820170e+001
4.946090e+002, 9.800437e+001
4.950911e+002, 9.811340e+001
4.955732e+002, 9.843055e+001
4.960553e+002, 9.863970e+001
4.965374e+002, 9.851860e+001
4.970196e+002, 9.816996e+001
4.975017e+002, 9.782045e+001
4.979838e+002, 9.746633e+001
4.984659e+002, 9.713769e+001
4.989480e+002, 9.682681e+001
4.994301e+002, 9.656592e+001
4.999123e+002, 9.639985e+001
5.003944e+002, 9.634227e+001
5.008765e+002, 9.630849e+001
5.013586e+002, 9.636295e+001
5.018407e+002, 9.637920e+001
5.023228e+002, 9.605608e+001
5.028050e+002, 9.535758e+001
5.032871e+002, 9.473214e+001
5.037692e+002, 9.455563e+001
5.042513e+002, 9.475921e+001
5.047334e+002, 9.480159e+001
5.052155e+002, 9.453625e+001
5.056977e+002, 9.430676e+001
5.061798e+002, 9.429936e+001
5.066619e+002, 9.434428e+001
5.071440e+002, 9.417138e+001
5.076261e+002, 9.373129e+001
5.081082e+002, 9.326968e+001
5.085904e+002, 9.309892e+001
5.090725e+002, 9.327776e+001
5.095546e+002, 9.329062e+001
5.100367e+002, 9.299262e+001
5.105188e+002, 9.268547e+001
5.110009e+002, 9.247354e+001
5.114831e+002, 9.229861e+001
5.119652e+002, 9.205644e+001
5.124473e+002, 9.170615e+001
5.129294e+002, 9.133244e+001
5.134115e+002, 9.109946e+001
5.138936e+002, 9.103691e+001
5.143757e+002, 9.084029e+001
5.148578e+002, 9.040191e+001
5.153400e+002, 8.990321e+001
5.158221e+002, 8.938332e+001
5.163042e+002, 8.889246e+001
5.167863e+002, 8.857742e+001
5.172684e+002, 8.867886e+001
5.177505e+002, 8.878769e+001
5.182327e+002, 8.827907e+001
5.187148e+002, 8.722903e+001
5.191969e+002, 8.642785e+001
5.196790e+002, 8.622400e+001
5.201611e+002, 8.624129e+001
5.206432e+002, 8.588887e+001
5.211254e+002, 8.514124e+001
5.216075e+002, 8.448843e+001
5.220896e+002, 8.403716e+001
5.225717e+002, 8.368502e+001
5.230538e+002, 8.334821e+001
5.235359e+002, 8.303809e+001
5.240181e+002, 8.284439e+001
5.245002e+002, 8.283170e+001
5.249823e+002, 8.290885e+001
5.254644e+002, 8.282005e+001
5.259465e+002, 8.244769e+001
5.264286e+002, 8.207928e+001
5.269108e+002, 8.170496e+001
5.273929e+002, 8.134468e+001
5.278750e+002, 8.103966e+001
5.283571e+002, 8.076495e+001
5.288392e+002, 8.042506e+001
5.293214e+002, 7.991568e+001
5.298035e+002, 7.932602e+001
5.302856e+002, 7.901159e+001
5.307677e+002, 7.907937e+001
5.312498e+002, 7.914183e+001
5.317319e+002, 7.911330e+001
5.322141e+002, 7.902261e+001
5.326962e+002, 7.888882e+001
5.331783e+002, 7.871278e+001
5.336604e+002, 7.847777e+001
5.341425e+002, 7.805864e+001
5.346246e+002, 7.760667e+001
5.351068e+002, 7.747818e+001
5.355889e+002, 7.770837e+001
5.360710e+002, 7.793879e+001
5.365531e+002, 7.795570e+001
5.370352e+002, 7.784811e+001
5.375173e+002, 7.786646e+001
5.379995e+002, 7.810526e+001
5.384816e+002, 7.823572e+001
5.389637e+002, 7.809711e+001
5.394458e+002, 7.784347e+001
5.399279e+002, 7.759753e+001
5.404100e+002, 7.739523e+001
5.408922e+002, 7.730814e+001
5.413743e+002, 7.742310e+001
5.418564e+002, 7.769174e+001
5.423385e+002, 7.771345e+001
5.428206e+002, 7.700527e+001
5.433027e+002, 7.668556e+001
5.437849e+002, 7.716753e+001
5.442670e+002, 7.787627e+001
5.447491e+002, 7.832584e+001
5.452312e+002, 7.844296e+001
5.457133e+002, 7.843764e+001
5.461954e+002, 7.848145e+001
5.466776e+002, 7.856812e+001
5.471597e+002, 7.864664e+001
5.476418e+002, 7.868755e+001
5.481239e+002, 7.878990e+001
5.486060e+002, 7.901855e+001
5.490881e+002, 7.932339e+001
5.495703e+002, 7.971143e+001
5.500524e+002, 8.021146e+001
5.505345e+002, 8.056178e+001
5.510166e+002, 8.041438e+001
5.514987e+002, 8.006152e+001
5.519808e+002, 8.013401e+001
5.524630e+002, 8.070768e+001
5.529451e+002, 8.125333e+001
5.534272e+002, 8.137383e+001
5.539093e+002, 8.117075e+001
5.543914e+002, 8.117005e+001
5.548735e+002, 8.157338e+001
5.553557e+002, 8.186731e+001
5.558378e+002, 8.183183e+001
5.563199e+002, 8.171520e+001
5.568020e+002, 8.175768e+001
5.572841e+002, 8.199377e+001
5.577662e+002, 8.234032e+001
5.582484e+002, 8.273923e+001
5.587305e+002, 8.317925e+001
5.592126e+002, 8.353960e+001
5.596947e+002, 8.376875e+001
5.601768e+002, 8.399879e+001
5.606589e+002, 8.420090e+001
5.611411e+002, 8.444924e+001
5.616232e+002, 8.483041e+001
5.621053e+002, 8.534683e+001
5.625874e+002, 8.589777e+001
5.630695e+002, 8.642316e+001
5.635516e+002, 8.692033e+001
5.640338e+002, 8.738140e+001
5.645159e+002, 8.780845e+001
5.649980e+002, 8.819128e+001
5.654801e+002, 8.848476e+001
5.659622e+002, 8.875367e+001
5.664443e+002, 8.913382e+001
5.669265e+002, 8.966209e+001
5.674086e+002, 9.017758e+001
5.678907e+002, 9.063553e+001
5.683728e+002, 9.104593e+001
5.688549e+002, 9.149199e+001
5.693370e+002, 9.193407e+001
5.698192e+002, 9.209663e+001
5.703013e+002, 9.173976e+001
5.707834e+002, 9.103971e+001
5.712655e+002, 9.072978e+001
5.717476e+002, 9.117965e+001
5.722297e+002, 9.148380e+001
5.727119e+002, 9.157911e+001
5.731940e+002, 9.153991e+001
5.736761e+002, 9.139769e+001
5.741582e+002, 9.116895e+001
5.746403e+002, 9.086880e+001
5.751224e+002, 9.048508e+001
5.756046e+002, 9.006212e+001
5.760867e+002, 8.972000e+001
5.765688e+002, 8.945788e+001
5.770509e+002, 8.927665e+001
5.775330e+002, 8.918518e+001
5.780151e+002, 8.917346e+001
5.784973e+002, 8.929111e+001
5.789794e+002, 8.952280e+001
5.794615e+002, 8.959586e+001
5.799436e+002, 8.917297e+001
5.804257e+002, 8.871397e+001
5.809078e+002, 8.880458e+001
5.813900e+002, 8.933105e+001
5.818721e+002, 8.969209e+001
5.823542e+002, 8.960307e+001
5.828364e+002, 8.930338e+001
5.833185e+002, 8.922175e+001
5.838006e+002, 8.940191e+001
5.842827e+002, 8.971122e+001
5.847648e+002, 9.022166e+001
5.852469e+002, 9.078204e+001
5.857291e+002, 9.144038e+001
5.862112e+002, 9.206796e+001
5.866933e+002, 9.235722e+001
5.871754e+002, 9.214880e+001
5.876575e+002, 9.185495e+001
5.881396e+002, 9.229624e+001
5.886218e+002, 9.360013e+001
5.891039e+002, 9.450019e+001
5.895860e+002, 9.457954e+001
5.900681e+002, 9.462979e+001
5.905502e+002, 9.511012e+001
5.910323e+002, 9.591448e+001
5.915145e+002, 9.684001e+001
5.919966e+002, 9.793487e+001
5.924787e+002, 9.895980e+001
5.929608e+002, 9.965264e+001
5.934429e+002, 1.001352e+002
5.939250e+002, 1.007574e+002
5.944072e+002, 1.016089e+002
5.948893e+002, 1.024133e+002
5.953714e+002, 1.028710e+002
5.958535e+002, 1.029877e+002
5.963356e+002, 1.033750e+002
5.968177e+002, 1.042323e+002
5.972999e+002, 1.050675e+002
5.977820e+002, 1.058528e+002
5.982641e+002, 1.065199e+002
5.987462e+002, 1.070653e+002
5.992283e+002, 1.074519e+002
5.997104e+002, 1.075094e+002
6.001926e+002, 1.069452e+002
6.006747e+002, 1.058935e+002
6.011568e+002, 1.053661e+002
6.016389e+002, 1.055236e+002
6.021210e+002, 1.058172e+002
6.026031e+002, 1.062870e+002
6.030853e+002, 1.066615e+002
6.035674e+002, 1.066213e+002
6.040495e+002, 1.061396e+002
6.045316e+002, 1.056455e+002
6.050137e+002, 1.054516e+002
6.054958e+002, 1.053045e+002
6.059780e+002, 1.048226e+002
6.064601e+002, 1.040380e+002
6.069422e+002, 1.032650e+002
6.074243e+002, 1.026319e+002
6.079064e+002, 1.021652e+002
6.083885e+002, 1.019406e+002
6.088707e+002, 1.021632e+002
6.093528e+002, 1.021476e+002
6.098349e+002, 1.017858e+002
6.103170e+002, 1.013038e+002
6.107991e+002, 1.007672e+002
6.112813e+002, 1.002074e+002
6.117634e+002, 9.967268e+001
6.122455e+002, 9.918540e+001
6.127276e+002, 9.868279e+001
6.132097e+002, 9.802461e+001
6.136918e+002, 9.718993e+001
6.141740e+002, 9.655137e+001
6.146561e+002, 9.633414e+001
6.151382e+002, 9.600898e+001
6.156203e+002, 9.511177e+001
6.161024e+002, 9.389077e+001
6.165845e+002, 9.281207e+001
6.170667e+002, 9.198683e+001
6.175488e+002, 9.126691e+001
6.180309e+002, 9.063084e+001
6.185130e+002, 9.002111e+001
6.189951e+002, 8.932371e+001
6.194772e+002, 8.852843e+001
6.199594e+002, 8.773587e+001
6.204415e+002, 8.701892e+001
6.209236e+002, 8.637820e+001
6.214057e+002, 8.581712e+001
6.218878e+002, 8.535909e+001
6.223699e+002, 8.495591e+001
6.228521e+002, 8.472449e+001
6.233342e+002, 8.445286e+001
6.238163e+002, 8.392025e+001
6.242984e+002, 8.317703e+001
6.247805e+002, 8.247823e+001
6.252626e+002, 8.197189e+001
6.257448e+002, 8.162862e+001
6.262269e+002, 8.140454e+001
6.267090e+002, 8.130141e+001
6.271911e+002, 8.129803e+001
6.276732e+002, 8.151415e+001
6.281553e+002, 8.164719e+001
6.286375e+002, 8.118489e+001
6.291196e+002, 8.023336e+001
6.296017e+002, 7.963338e+001
6.300838e+002, 7.972550e+001
6.305659e+002, 7.997522e+001
6.310480e+002, 8.017113e+001
6.315302e+002, 8.029759e+001
6.320123e+002, 8.031606e+001
6.324944e+002, 8.022576e+001
6.329765e+002, 8.012818e+001
6.334586e+002, 8.014903e+001
6.339407e+002, 8.028922e+001
6.344229e+002, 8.033492e+001
6.349050e+002, 8.025034e+001
6.353871e+002, 8.012066e+001
6.358692e+002, 7.992479e+001
6.363513e+002, 7.972465e+001
6.368334e+002, 7.956743e+001
6.373156e+002, 7.946275e+001
6.377977e+002, 7.942507e+001
6.382798e+002, 7.958559e+001
6.387619e+002, 7.976458e+001
6.392440e+002, 7.961696e+001
6.397261e+002, 7.915659e+001
6.402083e+002, 7.864272e+001
6.406904e+002, 7.815683e+001
6.411725e+002, 7.773341e+001
6.416546e+002, 7.744590e+001
6.421367e+002, 7.736382e+001
6.426188e+002, 7.716422e+001
6.431010e+002, 7.670553e+001
6.435831e+002, 7.627971e+001
6.440652e+002, 7.611362e+001
6.445473e+002, 7.604012e+001
6.450294e+002, 7.575550e+001
6.455115e+002, 7.516776e+001
6.459937e+002, 7.450060e+001
6.464758e+002, 7.401716e+001
6.469579e+002, 7.371078e+001
6.474400e+002, 7.350611e+001
6.479221e+002, 7.346729e+001
6.484042e+002, 7.336906e+001
6.488864e+002, 7.302973e+001
6.493685e+002, 7.260851e+001
6.498506e+002, 7.234118e+001
6.503327e+002, 7.227415e+001
6.508148e+002, 7.216039e+001
6.512969e+002, 7.181602e+001
6.517791e+002, 7.144377e+001
6.522612e+002, 7.125113e+001
6.527433e+002, 7.122659e+001
6.532254e+002, 7.129104e+001
6.537075e+002, 7.141282e+001
6.541896e+002, 7.153130e+001
6.546718e+002, 7.153172e+001
6.551539e+002, 7.139385e+001
6.556360e+002, 7.120225e+001
6.561181e+002, 7.094974e+001
6.566002e+002, 7.064516e+001
6.570823e+002, 7.013789e+001
6.575645e+002, 6.963497e+001
6.580466e+002, 6.947397e+001
6.585287e+002, 6.977055e+001
6.590108e+002, 7.015440e+001
6.594929e+002, 7.035033e+001
6.599750e+002, 7.039596e+001
6.604572e+002, 7.036942e+001
6.609393e+002, 7.027772e+001
6.614214e+002, 7.014391e+001
6.619035e+002, 6.997954e+001
6.623856e+002, 6.978439e+001
6.628677e+002, 6.955296e+001
6.633499e+002, 6.922848e+001
6.638320e+002, 6.899026e+001
6.643141e+002, 6.884200e+001
6.647962e+002, 6.878172e+001
6.652783e+002, 6.887251e+001
6.657604e+002, 6.903938e+001
6.662426e+002, 6.915689e+001
6.667247e+002, 6.917336e+001
6.672068e+002, 6.909363e+001
6.676889e+002, 6.888705e+001
6.681710e+002, 6.856461e+001
6.686531e+002, 6.827542e+001
6.691353e+002, 6.798977e+001
6.696174e+002, 6.785610e+001
6.700995e+002, 6.807121e+001
6.705816e+002, 6.845590e+001
6.710637e+002, 6.861967e+001
6.715458e+002, 6.848181e+001
6.720280e+002, 6.835450e+001
6.725101e+002, 6.842245e+001
6.729922e+002, 6.846523e+001
6.734743e+002, 6.820434e+001
6.739564e+002, 6.773615e+001
6.744385e+002, 6.738763e+001
6.749207e+002, 6.732254e+001
6.754028e+002, 6.742262e+001
6.758849e+002, 6.747511e+001
6.763670e+002, 6.746732e+001
6.768491e+002, 6.747590e+001
6.773312e+002, 6.747050e+001
6.778134e+002, 6.752950e+001
6.782955e+002, 6.780711e+001
6.787776e+002, 6.812181e+001
6.792597e+002, 6.817289e+001
6.797418e+002, 6.786150e+001
6.802239e+002, 6.756048e+001
6.807061e+002, 6.758057e+001
6.811882e+002, 6.767677e+001
6.816703e+002, 6.744252e+001
6.821524e+002, 6.692818e+001
6.826345e+002, 6.653690e+001
6.831166e+002, 6.648634e+001
6.835988e+002, 6.665712e+001
6.840809e+002, 6.680925e+001
6.845630e+002, 6.690051e+001
6.850451e+002, 6.710048e+001
6.855272e+002, 6.768342e+001
6.860093e+002, 6.807413e+001
6.864915e+002, 6.797182e+001
6.869736e+002, 6.760030e+001
6.874557e+002, 6.724338e+001
6.879378e+002, 6.697292e+001
6.884199e+002, 6.679535e+001
6.889020e+002, 6.677711e+001
6.893842e+002, 6.683565e+001
6.898663e+002, 6.677305e+001
6.903484e+002, 6.658891e+001
6.908305e+002, 6.647923e+001
6.913126e+002, 6.655141e+001
6.917947e+002, 6.672159e+001
6.922769e+002, 6.683516e+001
6.927590e+002, 6.687103e+001
6.932411e+002, 6.691963e+001
6.937232e+002, 6.707420e+001
6.942053e+002, 6.713917e+001
6.946874e+002, 6.698934e+001
6.951696e+002, 6.672424e+001
6.956517e+002, 6.649192e+001
6.961338e+002, 6.632944e+001
6.966159e+002, 6.613322e+001
6.970980e+002, 6.570958e+001
6.975801e+002, 6.518703e+001
6.980623e+002, 6.498363e+001
6.985444e+002, 6.512074e+001
6.990265e+002, 6.529815e+001
6.995086e+002, 6.539659e+001
6.999907e+002, 6.546789e+001
7.004728e+002, 6.560330e+001
7.009550e+002, 6.583173e+001
7.014371e+002, 6.597234e+001
7.019192e+002, 6.596261e+001
7.024013e+002, 6.593140e+001
7.028834e+002, 6.594174e+001
7.033655e+002, 6.595801e+001
7.038477e+002, 6.590336e+001
7.043298e+002, 6.577525e+001
7.048119e+002, 6.569129e+001
7.052940e+002, 6.582903e+001
7.057761e+002, 6.607885e+001
7.062582e+002, 6.595724e+001
7.067404e+002, 6.539995e+001
7.072225e+002, 6.509175e+001
7.077046e+002, 6.536219e+001
7.081867e+002, 6.580463e+001
7.086688e+002, 6.589848e+001
7.091509e+002, 6.565043e+001
7.096331e+002, 6.551687e+001
7.101152e+002, 6.552762e+001
7.105973e+002, 6.565636e+001
7.110794e+002, 6.605008e+001
7.115615e+002, 6.647269e+001
7.120436e+002, 6.662997e+001
7.125258e+002, 6.649029e+001
7.130079e+002, 6.620380e+001
7.134900e+002, 6.584772e+001
7.139721e+002, 6.549289e+001
7.144542e+002, 6.538796e+001
7.149363e+002, 6.556441e+001
7.154185e+002, 6.572771e+001
7.159006e+002, 6.581721e+001
7.163827e+002, 6.586951e+001
7.168648e+002, 6.591479e+001
7.173469e+002, 6.595059e+001
7.178290e+002, 6.596458e+001
7.183112e+002, 6.600532e+001
7.187933e+002, 6.595998e+001
7.192754e+002, 6.570401e+001
7.197575e+002, 6.539976e+001
7.202396e+002, 6.518105e+001
7.207217e+002, 6.508076e+001
7.212039e+002, 6.513700e+001
7.216860e+002, 6.539797e+001
7.221681e+002, 6.572445e+001
7.226502e+002, 6.578877e+001
7.231323e+002, 6.556365e+001
7.236144e+002, 6.539462e+001
7.240966e+002, 6.532086e+001
7.245787e+002, 6.531033e+001
7.250608e+002, 6.537508e+001
7.255429e+002, 6.548260e+001
7.260250e+002, 6.556700e+001
7.265071e+002, 6.566338e+001
7.269893e+002, 6.564259e+001
7.274714e+002, 6.532413e+001
7.279535e+002, 6.498681e+001
7.284356e+002, 6.486508e+001
7.289177e+002, 6.493607e+001
7.293998e+002, 6.510515e+001
7.298820e+002, 6.532860e+001
7.303641e+002, 6.554505e+001
7.308462e+002, 6.563265e+001
7.313283e+002, 6.559005e+001
7.318104e+002, 6.570064e+001
7.322925e+002, 6.607979e+001
7.327747e+002, 6.629295e+001
7.332568e+002, 6.604460e+001
7.337389e+002, 6.557375e+001
7.342210e+002, 6.527095e+001
7.347031e+002, 6.515928e+001
7.351852e+002, 6.501369e+001
7.356674e+002, 6.470287e+001
7.361495e+002, 6.443036e+001
7.366316e+002, 6.431414e+001
7.371137e+002, 6.432788e+001
7.375958e+002, 6.445905e+001
7.380779e+002, 6.468430e+001
7.385601e+002, 6.487611e+001
7.390422e+002, 6.486417e+001
7.395243e+002, 6.472329e+001
7.400064e+002, 6.487267e+001
7.404885e+002, 6.539503e+001
7.409706e+002, 6.571099e+001
7.414528e+002, 6.554642e+001
7.419349e+002, 6.526536e+001
7.424170e+002, 6.531150e+001
7.428991e+002, 6.562644e+001
7.433812e+002, 6.572048e+001
7.438633e+002, 6.528667e+001
7.443455e+002, 6.495742e+001
7.448276e+002, 6.507956e+001
7.453097e+002, 6.532819e+001
7.457918e+002, 6.535476e+001
7.462739e+002, 6.515144e+001
7.467560e+002, 6.489082e+001
7.472382e+002, 6.465188e+001
7.477203e+002, 6.452148e+001
7.482024e+002, 6.474935e+001
7.486845e+002, 6.532732e+001
7.491666e+002, 6.571433e+001
7.496487e+002, 6.581915e+001
7.501309e+002, 6.578584e+001
7.506130e+002, 6.566410e+001
7.510951e+002, 6.548786e+001
7.515772e+002, 6.537106e+001
7.520593e+002, 6.535297e+001
7.525414e+002, 6.529490e+001
7.530236e+002, 6.511256e+001
7.535057e+002, 6.494787e+001
7.539878e+002, 6.487948e+001
7.544699e+002, 6.489764e+001
7.549520e+002, 6.499354e+001
7.554341e+002, 6.516015e+001
7.559163e+002, 6.531720e+001
7.563984e+002, 6.542276e+001
7.568805e+002, 6.544828e+001
7.573626e+002, 6.522459e+001
7.578447e+002, 6.473788e+001
7.583268e+002, 6.436526e+001
7.588090e+002, 6.426670e+001
7.592911e+002, 6.433125e+001
7.597732e+002, 6.441819e+001
7.602553e+002, 6.452551e+001
7.607374e+002, 6.468259e+001
7.612195e+002, 6.505767e+001
7.617017e+002, 6.526766e+001
7.621838e+002, 6.508533e+001
7.626659e+002, 6.478642e+001
7.631480e+002, 6.463816e+001
7.636301e+002, 6.464560e+001
7.641122e+002, 6.463873e+001
7.645944e+002, 6.451640e+001
7.650765e+002, 6.433265e+001
7.655586e+002, 6.407536e+001
7.660407e+002, 6.380925e+001
7.665228e+002, 6.387017e+001
7.670049e+002, 6.432749e+001
7.674871e+002, 6.468491e+001
7.679692e+002, 6.452609e+001
7.684513e+002, 6.403828e+001
7.689334e+002, 6.392609e+001
7.694155e+002, 6.457375e+001
7.698976e+002, 6.485921e+001
7.703798e+002, 6.438474e+001
7.708619e+002, 6.396932e+001
7.713440e+002, 6.407557e+001
7.718261e+002, 6.444497e+001
7.723082e+002, 6.464936e+001
7.727903e+002, 6.458112e+001
7.732725e+002, 6.441734e+001
7.737546e+002, 6.420310e+001
7.742367e+002, 6.400095e+001
7.747188e+002, 6.390644e+001
7.752009e+002, 6.390023e+001
7.756830e+002, 6.390776e+001
7.761652e+002, 6.390130e+001
7.766473e+002, 6.386683e+001
7.771294e+002, 6.377209e+001
7.776115e+002, 6.362174e+001
7.780936e+002, 6.359818e+001
7.785757e+002, 6.382070e+001
7.790579e+002, 6.389985e+001
7.795400e+002, 6.357002e+001
7.800221e+002, 6.321093e+001
7.805042e+002, 6.316237e+001
7.809863e+002, 6.336338e+001
7.814684e+002, 6.350128e+001
7.819506e+002, 6.348108e+001
7.824327e+002, 6.341808e+001
7.829148e+002, 6.331601e+001
7.833969e+002, 6.323331e+001
7.838790e+002, 6.327351e+001
7.843611e+002, 6.340843e+001
7.848433e+002, 6.349049e+001
7.853254e+002, 6.342991e+001
7.858075e+002, 6.333078e+001
7.862896e+002, 6.339210e+001
7.867717e+002, 6.360963e+001
7.872538e+002, 6.379285e+001
7.877360e+002, 6.396038e+001
7.882181e+002, 6.395970e+001
7.887002e+002, 6.359602e+001
7.891823e+002, 6.312052e+001
7.896644e+002, 6.302515e+001
7.901465e+002, 6.341277e+001
7.906287e+002, 6.362416e+001
7.911108e+002, 6.355262e+001
7.915929e+002, 6.338436e+001
7.920750e+002, 6.303274e+001
7.925571e+002, 6.272004e+001
7.930392e+002, 6.278487e+001
7.935214e+002, 6.320684e+001
7.940035e+002, 6.354510e+001
7.944856e+002, 6.346268e+001
7.949677e+002, 6.317847e+001
7.954498e+002, 6.300261e+001
7.959319e+002, 6.291742e+001
7.964141e+002, 6.283125e+001
7.968962e+002, 6.272309e+001
7.973783e+002, 6.271523e+001
7.978604e+002, 6.293039e+001
7.983425e+002, 6.327572e+001
7.988246e+002, 6.340752e+001
7.993068e+002, 6.316840e+001
7.997889e+002, 6.304966e+001
8.002710e+002, 6.320737e+001
8.007531e+002, 6.332916e+001
8.012352e+002, 6.326310e+001
8.017173e+002, 6.309985e+001
8.021995e+002, 6.295188e+001
8.026816e+002, 6.283437e+001
8.031637e+002, 6.281477e+001
8.036458e+002, 6.297113e+001
8.041279e+002, 6.320271e+001
8.046100e+002, 6.350885e+001
8.050922e+002, 6.379560e+001
8.055743e+002, 6.383578e+001
8.060564e+002, 6.358615e+001
8.065385e+002, 6.326133e+001
8.070206e+002, 6.305439e+001
8.075027e+002, 6.294911e+001
8.079849e+002, 6.288702e+001
8.084670e+002, 6.287146e+001
8.089491e+002, 6.287947e+001
8.094312e+002, 6.291816e+001
8.099133e+002, 6.295714e+001
8.103954e+002, 6.296250e+001
8.108776e+002, 6.295004e+001
8.113597e+002, 6.298383e+001
8.118418e+002, 6.311211e+001
8.123239e+002, 6.318908e+001
8.128060e+002, 6.309245e+001
8.132881e+002, 6.303986e+001
8.137703e+002, 6.319686e+001
8.142524e+002, 6.348447e+001
8.147345e+002, 6.382586e+001
8.152166e+002, 6.418034e+001
8.156987e+002, 6.431541e+001
8.161808e+002, 6.381675e+001
8.166630e+002, 6.306597e+001
8.171451e+002, 6.283657e+001
8.176272e+002, 6.303587e+001
8.181093e+002, 6.308144e+001
8.185914e+002, 6.279278e+001
8.190735e+002, 6.254196e+001
8.195557e+002, 6.273650e+001
8.200378e+002, 6.327829e+001
8.205199e+002, 6.346572e+001
8.210020e+002, 6.309908e+001
8.214841e+002, 6.283531e+001
8.219662e+002, 6.278270e+001
8.224484e+002, 6.281582e+001
8.229305e+002, 6.285144e+001
8.234126e+002, 6.292445e+001
8.238947e+002, 6.315846e+001
8.243768e+002, 6.368080e+001
8.248589e+002, 6.395118e+001
8.253411e+002, 6.345097e+001
8.258232e+002, 6.290007e+001
8.263053e+002, 6.298990e+001
8.267874e+002, 6.345502e+001
8.272695e+002, 6.371305e+001
8.277516e+002, 6.359969e+001
8.282338e+002, 6.338758e+001
8.287159e+002, 6.331095e+001
8.291980e+002, 6.334458e+001
8.296801e+002, 6.345781e+001
8.301622e+002, 6.364534e+001
8.306443e+002, 6.370674e+001
8.311265e+002, 6.357703e+001
8.316086e+002, 6.339024e+001
8.320907e+002, 6.322517e+001
8.325728e+002, 6.310691e+001
8.330549e+002, 6.315784e+001
8.335370e+002, 6.356880e+001
8.340192e+002, 6.382314e+001
8.345013e+002, 6.390894e+001
8.349834e+002, 6.386283e+001
8.354655e+002, 6.358400e+001
8.359476e+002, 6.323558e+001
8.364297e+002, 6.306414e+001
8.369119e+002, 6.312073e+001
8.373940e+002, 6.319581e+001
8.378761e+002, 6.312857e+001
8.383582e+002, 6.308303e+001
8.388403e+002, 6.324978e+001
8.393224e+002, 6.354049e+001
8.398046e+002, 6.379745e+001
8.402867e+002, 6.397416e+001
8.407688e+002, 6.407352e+001
8.412509e+002, 6.409922e+001
8.417330e+002, 6.404083e+001
8.422151e+002, 6.384747e+001
8.426973e+002, 6.351539e+001
8.431794e+002, 6.316921e+001
8.436615e+002, 6.276472e+001
8.441436e+002, 6.257614e+001
8.446257e+002, 6.282665e+001
8.451078e+002, 6.335033e+001
8.455900e+002, 6.381598e+001
8.460721e+002, 6.430150e+001
8.465542e+002, 6.447137e+001
8.470363e+002, 6.399335e+001
8.475184e+002, 6.361382e+001
8.480005e+002, 6.369777e+001
8.484827e+002, 6.391804e+001
8.489648e+002, 6.389874e+001
8.494469e+002, 6.363697e+001
8.499290e+002, 6.342191e+001
8.504111e+002, 6.341195e+001
8.508932e+002, 6.346196e+001
8.513754e+002, 6.347905e+001
8.518575e+002, 6.346355e+001
8.523396e+002, 6.340723e+001
8.528217e+002, 6.331656e+001
8.533038e+002, 6.319581e+001
8.537859e+002, 6.304107e+001
8.542681e+002, 6.294545e+001
8.547502e+002, 6.314546e+001
8.552323e+002, 6.361651e+001
8.557144e+002, 6.372345e+001
8.561965e+002, 6.335941e+001
8.566786e+002, 6.316642e+001
8.571608e+002, 6.345325e+001
8.576429e+002, 6.387805e+001
8.581250e+002, 6.403194e+001
8.586071e+002, 6.391044e+001
8.590892e+002, 6.383850e+001
8.595714e+002, 6.369920e+001
8.600535e+002, 6.377143e+001
8.605356e+002, 6.443760e+001
8.610177e+002, 6.500263e+001
8.614998e+002, 6.487160e+001
8.619819e+002, 6.429813e+001
8.624641e+002, 6.389921e+001
8.629462e+002, 6.386671e+001
8.634283e+002, 6.391117e+001
8.639104e+002, 6.381907e+001
8.643925e+002, 6.374656e+001
8.648746e+002, 6.392115e+001
8.653568e+002, 6.424593e+001
8.658389e+002, 6.449892e+001
8.663210e+002, 6.460636e+001
8.668031e+002, 6.455695e+001
8.672852e+002, 6.429655e+001
8.677673e+002, 6.392749e+001
8.682495e+002, 6.376288e+001
8.687316e+002, 6.380167e+001
8.692137e+002, 6.384169e+001
8.696958e+002, 6.384853e+001
8.701779e+002, 6.385954e+001
8.706600e+002, 6.390294e+001
8.711422e+002, 6.396367e+001
8.716243e+002, 6.399982e+001
8.721064e+002, 6.398609e+001
8.725885e+002, 6.402140e+001
8.730706e+002, 6.420749e+001
8.735527e+002, 6.431931e+001
8.740349e+002, 6.427953e+001
8.745170e+002, 6.414642e+001
8.749991e+002, 6.390119e+001
8.754812e+002, 6.358471e+001
8.759633e+002, 6.346819e+001
8.764454e+002, 6.390573e+001
8.769276e+002, 6.422031e+001
8.774097e+002, 6.388664e+001
8.778918e+002, 6.335916e+001
8.783739e+002, 6.310412e+001
8.788560e+002, 6.313921e+001
8.793381e+002, 6.336274e+001
8.798203e+002, 6.373365e+001
8.803024e+002, 6.405347e+001
8.807845e+002, 6.403470e+001
8.812666e+002, 6.379425e+001
8.817487e+002, 6.367284e+001
8.822308e+002, 6.366450e+001
8.827130e+002, 6.361921e+001
8.831951e+002, 6.348479e+001
8.836772e+002, 6.337815e+001
8.841593e+002, 6.342034e+001
8.846414e+002, 6.358248e+001
8.851235e+002, 6.372294e+001
8.856057e+002, 6.385384e+001
8.860878e+002, 6.391916e+001
8.865699e+002, 6.388316e+001
8.870520e+002, 6.382518e+001
8.875341e+002, 6.374475e+001
8.880162e+002, 6.368930e+001
8.884984e+002, 6.378268e+001
8.889805e+002, 6.408250e+001
8.894626e+002, 6.417952e+001
8.899447e+002, 6.367270e+001
8.904268e+002, 6.336696e+001
8.909089e+002, 6.381776e+001
8.913911e+002, 6.447913e+001
8.918732e+002, 6.479696e+001
8.923553e+002, 6.475629e+001
8.928374e+002, 6.460372e+001
8.933195e+002, 6.441087e+001
8.938016e+002, 6.427300e+001
8.942838e+002, 6.435865e+001
8.947659e+002, 6.450898e+001
8.952480e+002, 6.442812e+001
8.957301e+002, 6.416454e+001
8.962122e+002, 6.398101e+001
8.966943e+002, 6.397593e+001
8.971765e+002, 6.403018e+001
8.976586e+002, 6.398162e+001
8.981407e+002, 6.389298e+001
8.986228e+002, 6.409105e+001
8.991049e+002, 6.459140e+001
8.995870e+002, 6.499683e+001
9.000692e+002, 6.524991e+001
9.005513e+002, 6.530165e+001
9.010334e+002, 6.505569e+001
9.015155e+002, 6.464273e+001
9.019976e+002, 6.443430e+001
9.024797e+002, 6.449117e+001
9.029619e+002, 6.458238e+001
9.034440e+002, 6.477013e+001
9.039261e+002, 6.491154e+001
9.044082e+002, 6.485428e+001
9.048903e+002, 6.480918e+001
9.053724e+002, 6.505858e+001
9.058546e+002, 6.556136e+001
9.063367e+002, 6.589391e+001
9.068188e+002, 6.592666e+001
9.073009e+002, 6.581877e+001
9.077830e+002, 6.544141e+001
9.082651e+002, 6.510568e+001
9.087473e+002, 6.510096e+001
9.092294e+002, 6.536068e+001
9.097115e+002, 6.574778e+001
9.101936e+002, 6.620788e+001
9.106757e+002, 6.654997e+001
9.111578e+002, 6.654729e+001
9.116400e+002, 6.637527e+001
9.121221e+002, 6.626160e+001
9.126042e+002, 6.620196e+001
9.130863e+002, 6.618835e+001
9.135684e+002, 6.621178e+001
9.140505e+002, 6.619999e+001
9.145327e+002, 6.608409e+001
9.150148e+002, 6.597942e+001
9.154969e+002, 6.622233e+001
9.159790e+002, 6.680415e+001
9.164611e+002, 6.699438e+001
9.169432e+002, 6.666495e+001
9.174254e+002, 6.654621e+001
9.179075e+002, 6.701619e+001
9.183896e+002, 6.762811e+001
9.188717e+002, 6.778959e+001
9.193538e+002, 6.751790e+001
9.198359e+002, 6.750589e+001
9.203181e+002, 6.797862e+001
9.208002e+002, 6.831226e+001
9.212823e+002, 6.840634e+001
9.217644e+002, 6.837826e+001
9.222465e+002, 6.816881e+001
9.227286e+002, 6.791750e+001
9.232108e+002, 6.786469e+001
9.236929e+002, 6.804257e+001
9.241750e+002, 6.835786e+001
9.246571e+002, 6.895638e+001
9.251392e+002, 6.948926e+001
9.256213e+002, 6.973233e+001
9.261035e+002, 6.985480e+001
9.265856e+002, 7.007751e+001
9.270677e+002, 7.037813e+001
9.275498e+002, 7.054135e+001
9.280319e+002, 7.041951e+001
9.285140e+002, 7.032457e+001
9.289962e+002, 7.053804e+001
9.294783e+002, 7.093353e+001
9.299604e+002, 7.138872e+001
9.304425e+002, 7.185700e+001
9.309246e+002, 7.225475e+001
9.314067e+002, 7.255486e+001
9.318889e+002, 7.276258e+001
9.323710e+002, 7.282425e+001
9.328531e+002, 7.288396e+001
9.333352e+002, 7.333144e+001
9.338173e+002, 7.412852e+001
9.342994e+002, 7.500636e+001
9.347816e+002, 7.593661e+001
9.352637e+002, 7.670007e+001
9.357458e+002, 7.715268e+001
9.362279e+002, 7.744915e+001
9.367100e+002, 7.783572e+001
9.371921e+002, 7.831141e+001
9.376743e+002, 7.885104e+001
9.381564e+002, 7.944575e+001
9.386385e+002, 8.013086e+001
9.391206e+002, 8.098076e+001
9.396027e+002, 8.182710e+001
9.400848e+002, 8.252000e+001
9.405670e+002, 8.311118e+001
9.410491e+002, 8.380453e+001
9.415312e+002, 8.476718e+001
9.420133e+002, 8.543567e+001
9.424954e+002, 8.535043e+001
9.429775e+002, 8.549867e+001
9.434597e+002, 8.655563e+001
9.439418e+002, 8.781297e+001
9.444239e+002, 8.846574e+001
9.449060e+002, 8.854929e+001
9.453881e+002, 8.870647e+001
9.458702e+002, 8.922111e+001
9.463524e+002, 8.969352e+001
9.468345e+002, 8.990746e+001
9.473166e+002, 9.002032e+001
9.477987e+002, 9.006884e+001
9.482808e+002, 9.016171e+001
9.487629e+002, 9.050680e+001
9.492451e+002, 9.114029e+001
9.497272e+002, 9.183498e+001
9.502093e+002, 9.241781e+001
9.506914e+002, 9.297245e+001
9.511735e+002, 9.359457e+001
9.516556e+002, 9.427036e+001
9.521378e+002, 9.492843e+001
9.526199e+002, 9.559660e+001
9.531020e+002, 9.646239e+001
9.535841e+002, 9.762725e+001
9.540662e+002, 9.891224e+001
9.545483e+002, 1.000094e+002
9.550305e+002, 1.010202e+002
9.555126e+002, 1.024360e+002
9.559947e+002, 1.042475e+002
9.564768e+002, 1.061547e+002
9.569589e+002, 1.081102e+002
9.574410e+002, 1.098713e+002
9.579232e+002, 1.111947e+002
9.584053e+002, 1.123553e+002
9.588874e+002, 1.141215e+002
9.593695e+002, 1.166172e+002
9.598516e+002, 1.190336e+002
9.603337e+002, 1.214315e+002
9.608159e+002, 1.235786e+002
9.612980e+002, 1.252724e+002
9.617801e+002, 1.268551e+002
9.622622e+002, 1.286768e+002
9.627443e+002, 1.306986e+002
9.632264e+002, 1.326410e+002
9.637086e+002, 1.342074e+002
9.641907e+002, 1.361765e+002
9.646728e+002, 1.388744e+002
9.651549e+002, 1.415956e+002
9.656370e+002, 1.440193e+002
9.661191e+002, 1.463254e+002
9.666013e+002, 1.485614e+002
9.670834e+002, 1.507685e+002
9.675655e+002, 1.537065e+002
9.680476e+002, 1.580990e+002
9.685297e+002, 1.624971e+002
9.690118e+002, 1.660747e+002
9.694940e+002, 1.698469e+002
9.699761e+002, 1.748107e+002
9.704582e+002, 1.805316e+002
9.709403e+002, 1.859585e+002
9.714224e+002, 1.908430e+002
9.719045e+002, 1.961803e+002
9.723867e+002, 2.027665e+002
9.728688e+002, 2.097393e+002
9.733509e+002, 2.167265e+002
9.738330e+002, 2.234442e+002
9.743151e+002, 2.295002e+002
9.747972e+002, 2.349068e+002
9.752794e+002, 2.400400e+002
9.757615e+002, 2.450706e+002
9.762436e+002, 2.493373e+002
9.767257e+002, 2.524219e+002
9.772078e+002, 2.541930e+002
9.776899e+002, 2.544284e+002
9.781721e+002, 2.531544e+002
9.786542e+002, 2.503886e+002
9.791363e+002, 2.461770e+002
9.796184e+002, 2.406917e+002
9.801005e+002, 2.339901e+002
9.805826e+002, 2.263674e+002
9.810648e+002, 2.180567e+002
9.815469e+002, 2.092254e+002
9.820290e+002, 2.007041e+002
9.825111e+002, 1.925279e+002
9.829932e+002, 1.845717e+002
9.834753e+002, 1.768145e+002
9.839575e+002, 1.693519e+002
9.844396e+002, 1.622273e+002
9.849217e+002, 1.555518e+002
9.854038e+002, 1.496396e+002
9.858859e+002, 1.445413e+002
9.863680e+002, 1.399253e+002
9.868502e+002, 1.358568e+002
9.873323e+002, 1.319212e+002
9.878144e+002, 1.278597e+002
9.882965e+002, 1.240032e+002
9.887786e+002, 1.207349e+002
9.892607e+002, 1.180095e+002
9.897429e+002, 1.155348e+002
9.902250e+002, 1.133827e+002
9.907071e+002, 1.113084e+002
9.911892e+002, 1.093141e+002
9.916713e+002, 1.073776e+002
9.921534e+002, 1.053891e+002
9.926356e+002, 1.035048e+002
9.931177e+002, 1.019265e+002
9.935998e+002, 1.006527e+002
9.940819e+002, 9.954799e+001
9.945640e+002, 9.885841e+001
9.950461e+002, 9.796422e+001
9.955283e+002, 9.645329e+001
9.960104e+002, 9.508680e+001
9.964925e+002, 9.442573e+001
9.969746e+002, 9.410033e+001
9.974567e+002, 9.356730e+001
9.979388e+002, 9.276649e+001
9.984210e+002, 9.187070e+001
9.989031e+002, 9.080924e+001
9.993852e+002, 8.980461e+001
9.998673e+002, 8.881702e+001
1.000349e+003, 8.802532e+001
1.000832e+003, 8.771584e+001
1.001314e+003, 8.766065e+001
1.001796e+003, 8.737880e+001
1.002278e+003, 8.675798e+001
1.002760e+003, 8.621172e+001
1.003242e+003, 8.617107e+001
1.003724e+003, 8.601472e+001
1.004206e+003, 8.508002e+001
1.004688e+003, 8.397950e+001
1.005171e+003, 8.345214e+001
1.005653e+003, 8.341402e+001
1.006135e+003, 8.342934e+001
1.006617e+003, 8.334237e+001
1.007099e+003, 8.321143e+001
1.007581e+003, 8.315534e+001
1.008063e+003, 8.301120e+001
1.008545e+003, 8.242374e+001
1.009028e+003, 8.169948e+001
1.009510e+003, 8.139462e+001
1.009992e+003, 8.152174e+001
1.010474e+003, 8.184729e+001
1.010956e+003, 8.226844e+001
1.011438e+003, 8.251706e+001
1.011920e+003, 8.210478e+001
1.012402e+003, 8.143668e+001
1.012884e+003, 8.130257e+001
1.013367e+003, 8.154229e+001
1.013849e+003, 8.168689e+001
1.014331e+003, 8.164799e+001
1.014813e+003, 8.148251e+001
1.015295e+003, 8.121231e+001
1.015777e+003, 8.099431e+001
1.016259e+003, 8.113335e+001
1.016741e+003, 8.150064e+001
1.017224e+003, 8.164330e+001
1.017706e+003, 8.158024e+001
1.018188e+003, 8.146696e+001
1.018670e+003, 8.133769e+001
1.019152e+003, 8.111411e+001
1.019634e+003, 8.072661e+001
1.020116e+003, 8.032826e+001
1.020598e+003, 8.023147e+001
1.021080e+003, 8.040867e+001
1.021563e+003, 8.058312e+001
1.022045e+003, 8.075578e+001
1.022527e+003, 8.076118e+001
1.023009e+003, 8.054768e+001
1.023491e+003, 8.023548e+001
1.023973e+003, 7.987749e+001
1.024455e+003, 7.958077e+001
1.024937e+003, 7.969786e+001
1.025419e+003, 8.028715e+001
1.025902e+003, 8.020141e+001
1.026384e+003, 7.928625e+001
1.026866e+003, 7.859583e+001
1.027348e+003, 7.846091e+001
1.027830e+003, 7.844353e+001
1.028312e+003, 7.817677e+001
1.028794e+003, 7.779350e+001
1.029276e+003, 7.769074e+001
1.029759e+003, 7.796218e+001
1.030241e+003, 7.795271e+001
1.030723e+003, 7.748762e+001
1.031205e+003, 7.727174e+001
1.031687e+003, 7.762339e+001
1.032169e+003, 7.804420e+001
1.032651e+003, 7.813342e+001
1.033133e+003, 7.796535e+001
1.033615e+003, 7.776214e+001
1.034098e+003, 7.746984e+001
1.034580e+003, 7.733633e+001
1.035062e+003, 7.742725e+001
1.035544e+003, 7.754920e+001
1.036026e+003, 7.764573e+001
1.036508e+003, 7.776231e+001
1.036990e+003, 7.798389e+001
1.037472e+003, 7.824742e+001
1.037954e+003, 7.834496e+001
1.038437e+003, 7.825711e+001
1.038919e+003, 7.805074e+001
1.039401e+003, 7.746598e+001
1.039883e+003, 7.713676e+001
1.040365e+003, 7.744146e+001
1.040847e+003, 7.786459e+001
1.041329e+003, 7.795876e+001
1.041811e+003, 7.783815e+001
1.042294e+003, 7.788773e+001
1.042776e+003, 7.824036e+001
1.043258e+003, 7.840903e+001
1.043740e+003, 7.824030e+001
1.044222e+003, 7.806149e+001
1.044704e+003, 7.787576e+001
1.045186e+003, 7.779197e+001
1.045668e+003, 7.799911e+001
1.046151e+003, 7.837273e+001
1.046633e+003, 7.852400e+001
1.047115e+003, 7.832945e+001
1.047597e+003, 7.821622e+001
1.048079e+003, 7.833432e+001
1.048561e+003, 7.841719e+001
1.049043e+003, 7.833908e+001
1.049525e+003, 7.821986e+001
1.050007e+003, 7.809653e+001
1.050490e+003, 7.802549e+001
1.050972e+003, 7.816406e+001
1.051454e+003, 7.859876e+001
1.051936e+003, 7.896400e+001
1.052418e+003, 7.913608e+001
1.052900e+003, 7.928854e+001
1.053382e+003, 7.953151e+001
1.053864e+003, 7.974722e+001
1.054346e+003, 7.974275e+001
1.054829e+003, 7.964248e+001
1.055311e+003, 7.981165e+001
1.055793e+003, 8.038915e+001
1.056275e+003, 8.078336e+001
1.056757e+003, 8.069951e+001
1.057239e+003, 8.056242e+001
1.057721e+003, 8.055166e+001
1.058203e+003, 8.056650e+001
1.058686e+003, 8.050407e+001
1.059168e+003, 8.039263e+001
1.059650e+003, 8.030838e+001
1.060132e+003, 8.026693e+001
1.060614e+003, 8.025568e+001
1.061096e+003, 8.021162e+001
1.061578e+003, 8.027075e+001
1.062060e+003, 8.058833e+001
1.062542e+003, 8.095366e+001
1.063025e+003, 8.117220e+001
1.063507e+003, 8.129089e+001
1.063989e+003, 8.146194e+001
1.064471e+003, 8.172134e+001
1.064953e+003, 8.188889e+001
1.065435e+003, 8.173298e+001
1.065917e+003, 8.167646e+001
1.066399e+003, 8.201424e+001
1.066881e+003, 8.245378e+001
1.067364e+003, 8.276010e+001
1.067846e+003, 8.296178e+001
1.068328e+003, 8.310760e+001
1.068810e+003, 8.321774e+001
1.069292e+003, 8.351334e+001
1.069774e+003, 8.429804e+001
1.070256e+003, 8.501305e+001
1.070738e+003, 8.529609e+001
1.071221e+003, 8.548463e+001
1.071703e+003, 8.584055e+001
1.072185e+003, 8.631953e+001
1.072667e+003, 8.683332e+001
1.073149e+003, 8.735257e+001
1.073631e+003, 8.780678e+001
1.074113e+003, 8.803988e+001
1.074595e+003, 8.838618e+001
1.075078e+003, 8.925569e+001
1.075560e+003, 9.005611e+001
1.076042e+003, 9.011173e+001
1.076524e+003, 8.987671e+001
1.077006e+003, 9.019424e+001
1.077488e+003, 9.109579e+001
1.077970e+003, 9.174889e+001
1.078452e+003, 9.163592e+001
1.078934e+003, 9.161736e+001
1.079417e+003, 9.237769e+001
1.079899e+003, 9.310554e+001
1.080381e+003, 9.309351e+001
1.080863e+003, 9.271960e+001
1.081345e+003, 9.250146e+001
1.081827e+003, 9.250206e+001
1.082309e+003, 9.255915e+001
1.082791e+003, 9.259064e+001
1.083274e+003, 9.274113e+001
1.083756e+003, 9.324160e+001
1.084238e+003, 9.370094e+001
1.084720e+003, 9.389558e+001
1.085202e+003, 9.387146e+001
1.085684e+003, 9.353072e+001
1.086166e+003, 9.303442e+001
1.086648e+003, 9.294044e+001
1.087130e+003, 9.353557e+001
1.087613e+003, 9.402480e+001
1.088095e+003, 9.393053e+001
1.088577e+003, 9.381154e+001
1.089059e+003, 9.394505e+001
1.089541e+003, 9.425871e+001
1.090023e+003, 9.484404e+001
1.090505e+003, 9.550349e+001
1.090987e+003, 9.572224e+001
1.091469e+003, 9.532230e+001
1.091952e+003, 9.492461e+001
1.092434e+003, 9.465740e+001
1.092916e+003, 9.457526e+001
1.093398e+003, 9.486594e+001
1.093880e+003, 9.521114e+001
1.094362e+003, 9.526262e+001
1.094844e+003, 9.517347e+001
1.095326e+003, 9.536061e+001
1.095809e+003, 9.591013e+001
1.096291e+003, 9.623239e+001
1.096773e+003, 9.604965e+001
1.097255e+003, 9.573985e+001
1.097737e+003, 9.519038e+001
1.098219e+003, 9.480538e+001
1.098701e+003, 9.509022e+001
1.099183e+003, 9.562479e+001
1.099666e+003, 9.568442e+001
1.100148e+003, 9.521786e+001
1.100630e+003, 9.484493e+001
1.101112e+003, 9.481045e+001
1.101594e+003, 9.474036e+001
1.102076e+003, 9.461222e+001
1.102558e+003, 9.435107e+001
1.103040e+003, 9.389983e+001
1.103522e+003, 9.330098e+001
1.104005e+003, 9.251683e+001
1.104487e+003, 9.160945e+001
1.104969e+003, 9.092056e+001
1.105451e+003, 9.066087e+001
1.105933e+003, 9.029149e+001
1.106415e+003, 8.974729e+001
1.106897e+003, 8.905593e+001
1.107379e+003, 8.794249e+001
1.107861e+003, 8.692769e+001
1.108344e+003, 8.675810e+001
1.108826e+003, 8.709816e+001
1.109308e+003, 8.670734e+001
1.109790e+003, 8.515351e+001
1.110272e+003, 8.398403e+001
1.110754e+003, 8.364115e+001
1.111236e+003, 8.322470e+001
1.111718e+003, 8.235498e+001
1.112201e+003, 8.149455e+001
1.112683e+003, 8.095596e+001
1.113165e+003, 8.066692e+001
1.113647e+003, 8.051367e+001
1.114129e+003, 8.053972e+001
1.114611e+003, 8.039315e+001
1.115093e+003, 7.987733e+001
1.115575e+003, 7.952937e+001
1.116057e+003, 7.957734e+001
1.116540e+003, 7.957256e+001
1.117022e+003, 7.918457e+001
1.117504e+003, 7.869896e+001
1.117986e+003, 7.852288e+001
1.118468e+003, 7.864244e+001
1.118950e+003, 7.876047e+001
1.119432e+003, 7.894740e+001
1.119914e+003, 7.894090e+001
1.120396e+003, 7.860422e+001
1.120879e+003, 7.833486e+001
1.121361e+003, 7.829337e+001
1.121843e+003, 7.836298e+001
1.122325e+003, 7.842561e+001
1.122807e+003, 7.849939e+001
1.123289e+003, 7.868214e+001
1.123771e+003, 7.904971e+001
1.124253e+003, 7.918758e+001
1.124736e+003, 7.903671e+001
1.125218e+003, 7.885825e+001
1.125700e+003, 7.869082e+001
1.126182e+003, 7.862424e+001
1.126664e+003, 7.874869e+001
1.127146e+003, 7.897282e+001
1.127628e+003, 7.911752e+001
1.128110e+003, 7.918242e+001
1.128593e+003, 7.917170e+001
1.129075e+003, 7.908508e+001
1.129557e+003, 7.890755e+001
1.130039e+003, 7.862865e+001
1.130521e+003, 7.831039e+001
1.131003e+003, 7.796925e+001
1.131485e+003, 7.769060e+001
1.131967e+003, 7.761185e+001
1.132449e+003, 7.766418e+001
1.132932e+003, 7.755309e+001
1.133414e+003, 7.729137e+001
1.133896e+003, 7.705399e+001
1.134378e+003, 7.685198e+001
1.134860e+003, 7.654257e+001
1.135342e+003, 7.607832e+001
1.135824e+003, 7.567986e+001
1.136306e+003, 7.555839e+001
1.136788e+003, 7.557497e+001
1.137271e+003, 7.547289e+001
1.137753e+003, 7.527681e+001
1.138235e+003, 7.504321e+001
1.138717e+003, 7.479204e+001
1.139199e+003, 7.464195e+001
1.139681e+003, 7.458094e+001
1.140163e+003, 7.428502e+001
1.140645e+003, 7.354462e+001
1.141128e+003, 7.286694e+001
1.141610e+003, 7.304820e+001
1.142092e+003, 7.357304e+001
1.142574e+003, 7.354247e+001
1.143056e+003, 7.316624e+001
1.143538e+003, 7.289695e+001
1.144020e+003, 7.274776e+001
1.144502e+003, 7.247834e+001
1.144984e+003, 7.202097e+001
1.145467e+003, 7.166467e+001
1.145949e+003, 7.169840e+001
1.146431e+003, 7.181784e+001
1.146913e+003, 7.176647e+001
1.147395e+003, 7.159728e+001
1.147877e+003, 7.132750e+001
1.148359e+003, 7.101273e+001
1.148841e+003, 7.072066e+001
1.149323e+003, 7.047675e+001
1.149806e+003, 7.033553e+001
1.150288e+003, 7.038662e+001
1.150770e+003, 7.032345e+001
1.151252e+003, 6.987407e+001
1.151734e+003, 6.935644e+001
1.152216e+003, 6.889348e+001
1.152698e+003, 6.856605e+001
1.153180e+003, 6.858766e+001
1.153663e+003, 6.878490e+001
1.154145e+003, 6.866763e+001
1.154627e+003, 6.809805e+001
1.155109e+003, 6.758848e+001
1.155591e+003, 6.727808e+001
1.156073e+003, 6.706407e+001
1.156555e+003, 6.698281e+001
1.157037e+003, 6.691048e+001
1.157520e+003, 6.681395e+001
1.158002e+003, 6.664818e+001
1.158484e+003, 6.628420e+001
1.158966e+003, 6.574134e+001
1.159448e+003, 6.541109e+001
1.159930e+003, 6.546312e+001
1.160412e+003, 6.548942e+001
1.160894e+003, 6.548170e+001
1.161376e+003, 6.545650e+001
1.161859e+003, 6.547357e+001
1.162341e+003, 6.540279e+001
1.162823e+003, 6.507887e+001
1.163305e+003, 6.461305e+001
1.163787e+003, 6.429226e+001
1.164269e+003, 6.411099e+001
1.164751e+003, 6.415922e+001
1.165233e+003, 6.455647e+001
1.165715e+003, 6.472700e+001
1.166198e+003, 6.449425e+001
1.166680e+003, 6.432967e+001
1.167162e+003, 6.454643e+001
1.167644e+003, 6.474519e+001
1.168126e+003, 6.433258e+001
1.168608e+003, 6.348958e+001
1.169090e+003, 6.310633e+001
1.169572e+003, 6.317627e+001
1.170055e+003, 6.350177e+001
1.170537e+003, 6.405569e+001
1.171019e+003, 6.415462e+001
1.171501e+003, 6.359005e+001
1.171983e+003, 6.311318e+001
1.172465e+003, 6.331872e+001
1.172947e+003, 6.377822e+001
1.173429e+003, 6.372113e+001
1.173911e+003, 6.336481e+001
1.174394e+003, 6.334759e+001
1.174876e+003, 6.358829e+001
1.175358e+003, 6.385088e+001
1.175840e+003, 6.406976e+001
1.176322e+003, 6.417525e+001
1.176804e+003, 6.413887e+001
1.177286e+003, 6.398573e+001
1.177768e+003, 6.368081e+001
1.178250e+003, 6.335526e+001
1.178733e+003, 6.312226e+001
1.179215e+003, 6.298360e+001
1.179697e+003, 6.298597e+001
1.180179e+003, 6.306341e+001
1.180661e+003, 6.308974e+001
1.181143e+003, 6.305517e+001
1.181625e+003, 6.302376e+001
1.182107e+003, 6.298223e+001
1.182590e+003, 6.311222e+001
1.183072e+003, 6.383582e+001
1.183554e+003, 6.436607e+001
1.184036e+003, 6.410365e+001
1.184518e+003, 6.353633e+001
1.185000e+003, 6.297251e+001
1.185482e+003, 6.254163e+001
1.185964e+003, 6.247959e+001
1.186447e+003, 6.283078e+001
1.186929e+003, 6.303718e+001
1.187411e+003, 6.280957e+001
1.187893e+003, 6.274068e+001
1.188375e+003, 6.315711e+001
1.188857e+003, 6.344035e+001
1.189339e+003, 6.321886e+001
1.189821e+003, 6.287023e+001
1.190303e+003, 6.276707e+001
1.190786e+003, 6.283629e+001
1.191268e+003, 6.278920e+001
1.191750e+003, 6.253139e+001
1.192232e+003, 6.268336e+001
1.192714e+003, 6.343915e+001
1.193196e+003, 6.386870e+001
1.193678e+003, 6.372871e+001
1.194160e+003, 6.349479e+001
1.194642e+003, 6.342976e+001
1.195125e+003, 6.340514e+001
1.195607e+003, 6.321505e+001
1.196089e+003, 6.295677e+001
1.196571e+003, 6.310667e+001
1.197053e+003, 6.359896e+001
1.197535e+003, 6.370708e+001
1.198017e+003, 6.343449e+001
1.198499e+003, 6.332829e+001
1.198982e+003, 6.351953e+001
1.199464e+003, 6.362193e+001
1.199946e+003, 6.336430e+001
1.200428e+003, 6.304409e+001
1.200910e+003, 6.304745e+001
1.201392e+003, 6.324282e+001
1.201874e+003, 6.345809e+001
1.202356e+003, 6.366819e+001
1.202839e+003, 6.387500e+001
1.203321e+003, 6.403143e+001
1.203803e+003, 6.393294e+001
1.204285e+003, 6.357436e+001
1.204767e+003, 6.343803e+001
1.205249e+003, 6.383175e+001
1.205731e+003, 6.444388e+001
1.206213e+003, 6.554644e+001
1.206695e+003, 6.627708e+001
1.207177e+003, 6.558286e+001
1.207660e+003, 6.443456e+001
1.208142e+003, 6.400362e+001
1.208624e+003, 6.417812e+001
1.209106e+003, 6.423102e+001
1.209588e+003, 6.402271e+001
1.210070e+003, 6.384686e+001
1.210552e+003, 6.373571e+001
1.211034e+003, 6.367681e+001
1.211517e+003, 6.375751e+001
1.211999e+003, 6.377174e+001
1.212481e+003, 6.354327e+001
1.212963e+003, 6.328516e+001
1.213445e+003, 6.320280e+001
1.213927e+003, 6.331170e+001
1.214409e+003, 6.377942e+001
1.214891e+003, 6.481926e+001
1.215374e+003, 6.499328e+001
1.215856e+003, 6.412225e+001
1.216338e+003, 6.349583e+001
1.216820e+003, 6.340153e+001
1.217302e+003, 6.358516e+001
1.217784e+003, 6.394369e+001
1.218266e+003, 6.417616e+001
1.218748e+003, 6.380843e+001
1.219230e+003, 6.312666e+001
1.219713e+003, 6.294226e+001
1.220195e+003, 6.313845e+001
1.220677e+003, 6.337750e+001
1.221159e+003, 6.359436e+001
1.221641e+003, 6.366178e+001
1.222123e+003, 6.357056e+001
1.222605e+003, 6.345674e+001
1.223087e+003, 6.339065e+001
1.223569e+003, 6.336611e+001
1.224052e+003, 6.341021e+001
1.224534e+003, 6.345671e+001
1.225016e+003, 6.343504e+001
1.225498e+003, 6.338348e+001
1.225980e+003, 6.331014e+001
1.226462e+003, 6.325980e+001
1.226944e+003, 6.334678e+001
1.227426e+003, 6.356281e+001
1.227909e+003, 6.366978e+001
1.228391e+003, 6.348362e+001
1.228873e+003, 6.343461e+001
1.229355e+003, 6.380567e+001
1.229837e+003, 6.409248e+001
1.230319e+003, 6.413136e+001
1.230801e+003, 6.397680e+001
1.231283e+003, 6.347433e+001
1.231766e+003, 6.294540e+001
1.232248e+003, 6.306268e+001
1.232730e+003, 6.381588e+001
1.233212e+003, 6.417712e+001
1.233694e+003, 6.406557e+001
1.234176e+003, 6.391637e+001
1.234658e+003, 6.375762e+001
1.235140e+003, 6.355714e+001
1.235622e+003, 6.328568e+001
1.236104e+003, 6.315242e+001
1.236587e+003, 6.333569e+001
1.237069e+003, 6.368317e+001
1.237551e+003, 6.403197e+001
1.238033e+003, 6.428861e+001
1.238515e+003, 6.395045e+001
1.238997e+003, 6.328503e+001
1.239479e+003, 6.322610e+001
1.239961e+003, 6.368859e+001
1.240444e+003, 6.392332e+001
1.240926e+003, 6.372359e+001
1.241408e+003, 6.345274e+001
1.241890e+003, 6.329680e+001
1.242372e+003, 6.326804e+001
1.242854e+003, 6.346664e+001
1.243336e+003, 6.369792e+001
1.243818e+003, 6.379988e+001
1.244301e+003, 6.384218e+001
1.244783e+003, 6.391058e+001
1.245265e+003, 6.398892e+001
1.245747e+003, 6.403245e+001
1.246229e+003, 6.403389e+001
1.246711e+003, 6.396692e+001
1.247193e+003, 6.373492e+001
1.247675e+003, 6.358195e+001
1.248157e+003, 6.340197e+001
1.248640e+003, 6.352352e+001
1.249122e+003, 6.432136e+001
1.249604e+003, 6.500596e+001
1.250086e+003, 6.492212e+001
1.250568e+003, 6.438145e+001
1.251050e+003, 6.396093e+001
1.251532e+003, 6.367091e+001
1.252014e+003, 6.370321e+001
1.252496e+003, 6.405560e+001
1.252979e+003, 6.433731e+001
1.253461e+003, 6.450372e+001
1.253943e+003, 6.447526e+001
1.254425e+003, 6.424062e+001
1.254907e+003, 6.401163e+001
1.255389e+003, 6.393187e+001
1.255871e+003, 6.397237e+001
1.256353e+003, 6.420758e+001
1.256836e+003, 6.444510e+001
1.257318e+003, 6.427459e+001
1.257800e+003, 6.400481e+001
1.258282e+003, 6.425156e+001
1.258764e+003, 6.476988e+001
1.259246e+003, 6.486002e+001
1.259728e+003, 6.443815e+001
1.260210e+003, 6.406720e+001
1.260693e+003, 6.389038e+001
1.261175e+003, 6.393919e+001
1.261657e+003, 6.453637e+001
1.262139e+003, 6.494639e+001
1.262621e+003, 6.466722e+001
1.263103e+003, 6.431026e+001
1.263585e+003, 6.438118e+001
1.264067e+003, 6.460349e+001
1.264549e+003, 6.451889e+001
1.265031e+003, 6.418095e+001
1.265514e+003, 6.414043e+001
1.265996e+003, 6.447527e+001
1.266478e+003, 6.465330e+001
1.266960e+003, 6.464818e+001
1.267442e+003, 6.452112e+001
1.267924e+003, 6.428072e+001
1.268406e+003, 6.411820e+001
1.268888e+003, 6.414325e+001
1.269371e+003, 6.436834e+001
1.269853e+003, 6.493155e+001
1.270335e+003, 6.551702e+001
1.270817e+003, 6.546859e+001
1.271299e+003, 6.505960e+001
1.271781e+003, 6.471297e+001
1.272263e+003, 6.447349e+001
1.272745e+003, 6.433448e+001
1.273228e+003, 6.430085e+001
1.273710e+003, 6.443627e+001
1.274192e+003, 6.478513e+001
1.274674e+003, 6.501169e+001
1.275156e+003, 6.481334e+001
1.275638e+003, 6.467670e+001
1.276120e+003, 6.490916e+001
1.276602e+003, 6.512034e+001
1.277084e+003, 6.503568e+001
1.277567e+003, 6.483890e+001
1.278049e+003, 6.472424e+001
1.278531e+003, 6.467198e+001
1.279013e+003, 6.461150e+001
1.279495e+003, 6.453844e+001
1.279977e+003, 6.447431e+001
1.280459e+003, 6.438875e+001
1.280941e+003, 6.459126e+001
1.281423e+003, 6.514625e+001
1.281906e+003, 6.554774e+001
1.282388e+003, 6.559605e+001
##END=



