##NAMES=Zhanghuifenite
##RRUFFID=R141027
##IDEAL CHEMISTRY=Na_3_Mn^2+^_4_Mg_2_Al(PO_4_)_6_
##LOCALITY=Santa Ana Pegmatite, Totoral pegmatitic field, Coronel Pringles Department, San Luis, Argentina
##OWNER=RRUFF
##SOURCE=William W. Pinch
##DESCRIPTION=Dark green massive, lighter green when thin, associated with quartz.
##STATUS=The identification of this mineral is confirmed by single-crystal X-ray diffraction and chemical analysis.
##URL=rruff.info/R141027
##MEASURED CHEMISTRY=(Na_2.83_Ca_0.09_)_Σ2.92_(Mn_3.10_Fe_0.80_)_Σ3.90_(Mg_1.70_Fe^2+^_0.30_)_Σ2.00_(Al_0.82_Fe^3+^_0.18_)_Σ1.00_(PO_4_)_6_
8.930109e+001, 0.000000e+000
8.978320e+001, 1.595148e+002
9.026532e+001, 1.598596e+002
9.074744e+001, 1.599865e+002
9.122955e+001, 1.596358e+002
9.171167e+001, 1.596771e+002
9.219379e+001, 1.617503e+002
9.267590e+001, 1.655534e+002
9.315802e+001, 1.683586e+002
9.364014e+001, 1.675899e+002
9.412225e+001, 1.642228e+002
9.460437e+001, 1.608153e+002
9.508649e+001, 1.578249e+002
9.556860e+001, 1.552607e+002
9.605072e+001, 1.534367e+002
9.653284e+001, 1.525563e+002
9.701495e+001, 1.517792e+002
9.749707e+001, 1.501257e+002
9.797919e+001, 1.476146e+002
9.846130e+001, 1.451814e+002
9.894342e+001, 1.428877e+002
9.942554e+001, 1.407634e+002
9.990765e+001, 1.397525e+002
1.003898e+002, 1.401271e+002
1.008719e+002, 1.409679e+002
1.013540e+002, 1.409578e+002
1.018361e+002, 1.399849e+002
1.023182e+002, 1.387018e+002
1.028004e+002, 1.372230e+002
1.032825e+002, 1.353902e+002
1.037646e+002, 1.340968e+002
1.042467e+002, 1.334108e+002
1.047288e+002, 1.332081e+002
1.052109e+002, 1.331759e+002
1.056931e+002, 1.330691e+002
1.061752e+002, 1.334511e+002
1.066573e+002, 1.345700e+002
1.071394e+002, 1.365246e+002
1.076215e+002, 1.390084e+002
1.081036e+002, 1.427948e+002
1.085858e+002, 1.473996e+002
1.090679e+002, 1.500616e+002
1.095500e+002, 1.497919e+002
1.100321e+002, 1.484231e+002
1.105142e+002, 1.469430e+002
1.109963e+002, 1.449277e+002
1.114785e+002, 1.432853e+002
1.119606e+002, 1.421332e+002
1.124427e+002, 1.414568e+002
1.129248e+002, 1.410832e+002
1.134069e+002, 1.410746e+002
1.138890e+002, 1.413018e+002
1.143712e+002, 1.416626e+002
1.148533e+002, 1.418283e+002
1.153354e+002, 1.423945e+002
1.158175e+002, 1.438315e+002
1.162996e+002, 1.462781e+002
1.167817e+002, 1.482432e+002
1.172639e+002, 1.490291e+002
1.177460e+002, 1.491049e+002
1.182281e+002, 1.490623e+002
1.187102e+002, 1.494339e+002
1.191923e+002, 1.495378e+002
1.196744e+002, 1.488159e+002
1.201566e+002, 1.470423e+002
1.206387e+002, 1.452187e+002
1.211208e+002, 1.438670e+002
1.216029e+002, 1.429126e+002
1.220850e+002, 1.422271e+002
1.225671e+002, 1.415457e+002
1.230493e+002, 1.411794e+002
1.235314e+002, 1.415709e+002
1.240135e+002, 1.430199e+002
1.244956e+002, 1.446535e+002
1.249777e+002, 1.458848e+002
1.254598e+002, 1.466669e+002
1.259420e+002, 1.467951e+002
1.264241e+002, 1.456555e+002
1.269062e+002, 1.438208e+002
1.273883e+002, 1.423184e+002
1.278704e+002, 1.413382e+002
1.283525e+002, 1.408086e+002
1.288347e+002, 1.406499e+002
1.293168e+002, 1.408611e+002
1.297989e+002, 1.414046e+002
1.302810e+002, 1.426391e+002
1.307631e+002, 1.442979e+002
1.312452e+002, 1.452755e+002
1.317274e+002, 1.450124e+002
1.322095e+002, 1.440229e+002
1.326916e+002, 1.438069e+002
1.331737e+002, 1.444688e+002
1.336558e+002, 1.451840e+002
1.341379e+002, 1.450278e+002
1.346201e+002, 1.440161e+002
1.351022e+002, 1.431218e+002
1.355843e+002, 1.426328e+002
1.360664e+002, 1.425116e+002
1.365485e+002, 1.425443e+002
1.370306e+002, 1.427822e+002
1.375128e+002, 1.430532e+002
1.379949e+002, 1.430740e+002
1.384770e+002, 1.427498e+002
1.389591e+002, 1.426445e+002
1.394412e+002, 1.429747e+002
1.399233e+002, 1.437630e+002
1.404055e+002, 1.446926e+002
1.408876e+002, 1.459855e+002
1.413697e+002, 1.471861e+002
1.418518e+002, 1.474878e+002
1.423339e+002, 1.465980e+002
1.428160e+002, 1.454665e+002
1.432982e+002, 1.443889e+002
1.437803e+002, 1.433550e+002
1.442624e+002, 1.424353e+002
1.447445e+002, 1.416280e+002
1.452266e+002, 1.409377e+002
1.457087e+002, 1.404111e+002
1.461909e+002, 1.400888e+002
1.466730e+002, 1.398690e+002
1.471551e+002, 1.397018e+002
1.476372e+002, 1.394962e+002
1.481193e+002, 1.395178e+002
1.486014e+002, 1.400661e+002
1.490836e+002, 1.408858e+002
1.495657e+002, 1.410934e+002
1.500478e+002, 1.400362e+002
1.505299e+002, 1.388901e+002
1.510120e+002, 1.381603e+002
1.514941e+002, 1.382533e+002
1.519763e+002, 1.382865e+002
1.524584e+002, 1.381722e+002
1.529405e+002, 1.379543e+002
1.534226e+002, 1.378563e+002
1.539047e+002, 1.382371e+002
1.543868e+002, 1.385183e+002
1.548690e+002, 1.383848e+002
1.553511e+002, 1.368851e+002
1.558332e+002, 1.359437e+002
1.563153e+002, 1.363074e+002
1.567974e+002, 1.377685e+002
1.572795e+002, 1.386329e+002
1.577617e+002, 1.381351e+002
1.582438e+002, 1.371246e+002
1.587259e+002, 1.362152e+002
1.592080e+002, 1.354575e+002
1.596901e+002, 1.349056e+002
1.601722e+002, 1.346473e+002
1.606544e+002, 1.346697e+002
1.611365e+002, 1.347096e+002
1.616186e+002, 1.346024e+002
1.621007e+002, 1.344997e+002
1.625828e+002, 1.345390e+002
1.630649e+002, 1.347413e+002
1.635471e+002, 1.351131e+002
1.640292e+002, 1.358307e+002
1.645113e+002, 1.368979e+002
1.649934e+002, 1.376521e+002
1.654755e+002, 1.374728e+002
1.659576e+002, 1.368625e+002
1.664398e+002, 1.364461e+002
1.669219e+002, 1.367522e+002
1.674040e+002, 1.371216e+002
1.678861e+002, 1.370829e+002
1.683682e+002, 1.365971e+002
1.688503e+002, 1.360325e+002
1.693325e+002, 1.354291e+002
1.698146e+002, 1.349241e+002
1.702967e+002, 1.347442e+002
1.707788e+002, 1.353282e+002
1.712609e+002, 1.360900e+002
1.717430e+002, 1.364966e+002
1.722252e+002, 1.365009e+002
1.727073e+002, 1.363130e+002
1.731894e+002, 1.360346e+002
1.736715e+002, 1.356832e+002
1.741536e+002, 1.353097e+002
1.746357e+002, 1.348380e+002
1.751179e+002, 1.343920e+002
1.756000e+002, 1.341793e+002
1.760821e+002, 1.342617e+002
1.765642e+002, 1.343363e+002
1.770463e+002, 1.339771e+002
1.775284e+002, 1.333336e+002
1.780106e+002, 1.328707e+002
1.784927e+002, 1.331109e+002
1.789748e+002, 1.336311e+002
1.794569e+002, 1.336236e+002
1.799390e+002, 1.329072e+002
1.804211e+002, 1.320715e+002
1.809033e+002, 1.318533e+002
1.813854e+002, 1.321498e+002
1.818675e+002, 1.324738e+002
1.823496e+002, 1.325630e+002
1.828317e+002, 1.324742e+002
1.833138e+002, 1.323513e+002
1.837960e+002, 1.322186e+002
1.842781e+002, 1.320280e+002
1.847602e+002, 1.316663e+002
1.852423e+002, 1.311509e+002
1.857244e+002, 1.306594e+002
1.862065e+002, 1.302775e+002
1.866887e+002, 1.299998e+002
1.871708e+002, 1.298317e+002
1.876529e+002, 1.298174e+002
1.881350e+002, 1.298177e+002
1.886171e+002, 1.296102e+002
1.890992e+002, 1.291943e+002
1.895814e+002, 1.286355e+002
1.900635e+002, 1.278054e+002
1.905456e+002, 1.267791e+002
1.910277e+002, 1.262004e+002
1.915098e+002, 1.262469e+002
1.919919e+002, 1.265989e+002
1.924741e+002, 1.265789e+002
1.929562e+002, 1.261719e+002
1.934383e+002, 1.257371e+002
1.939204e+002, 1.255018e+002
1.944025e+002, 1.254598e+002
1.948846e+002, 1.255022e+002
1.953668e+002, 1.256126e+002
1.958489e+002, 1.258040e+002
1.963310e+002, 1.262024e+002
1.968131e+002, 1.268548e+002
1.972952e+002, 1.273508e+002
1.977773e+002, 1.273509e+002
1.982595e+002, 1.268403e+002
1.987416e+002, 1.262895e+002
1.992237e+002, 1.256596e+002
1.997058e+002, 1.251047e+002
2.001879e+002, 1.251976e+002
2.006700e+002, 1.260867e+002
2.011522e+002, 1.269641e+002
2.016343e+002, 1.271734e+002
2.021164e+002, 1.266256e+002
2.025985e+002, 1.263452e+002
2.030806e+002, 1.265162e+002
2.035627e+002, 1.270019e+002
2.040449e+002, 1.274112e+002
2.045270e+002, 1.277721e+002
2.050091e+002, 1.279612e+002
2.054912e+002, 1.277722e+002
2.059733e+002, 1.270843e+002
2.064554e+002, 1.267672e+002
2.069376e+002, 1.270208e+002
2.074197e+002, 1.276872e+002
2.079018e+002, 1.282140e+002
2.083839e+002, 1.286236e+002
2.088660e+002, 1.288379e+002
2.093481e+002, 1.286969e+002
2.098303e+002, 1.280523e+002
2.103124e+002, 1.277407e+002
2.107945e+002, 1.279341e+002
2.112766e+002, 1.285173e+002
2.117587e+002, 1.290323e+002
2.122408e+002, 1.294696e+002
2.127230e+002, 1.298624e+002
2.132051e+002, 1.302140e+002
2.136872e+002, 1.304843e+002
2.141693e+002, 1.308663e+002
2.146514e+002, 1.314484e+002
2.151335e+002, 1.321534e+002
2.156157e+002, 1.325821e+002
2.160978e+002, 1.326403e+002
2.165799e+002, 1.325943e+002
2.170620e+002, 1.325808e+002
2.175441e+002, 1.325402e+002
2.180262e+002, 1.327263e+002
2.185084e+002, 1.332716e+002
2.189905e+002, 1.340733e+002
2.194726e+002, 1.345764e+002
2.199547e+002, 1.346840e+002
2.204368e+002, 1.346759e+002
2.209189e+002, 1.347355e+002
2.214011e+002, 1.349182e+002
2.218832e+002, 1.350262e+002
2.223653e+002, 1.350173e+002
2.228474e+002, 1.349238e+002
2.233295e+002, 1.348995e+002
2.238116e+002, 1.350065e+002
2.242938e+002, 1.350880e+002
2.247759e+002, 1.350356e+002
2.252580e+002, 1.347781e+002
2.257401e+002, 1.345643e+002
2.262222e+002, 1.344494e+002
2.267043e+002, 1.343901e+002
2.271865e+002, 1.341663e+002
2.276686e+002, 1.336239e+002
2.281507e+002, 1.331503e+002
2.286328e+002, 1.330193e+002
2.291149e+002, 1.334825e+002
2.295970e+002, 1.336816e+002
2.300792e+002, 1.334472e+002
2.305613e+002, 1.329122e+002
2.310434e+002, 1.326177e+002
2.315255e+002, 1.326974e+002
2.320076e+002, 1.328300e+002
2.324897e+002, 1.328487e+002
2.329719e+002, 1.327243e+002
2.334540e+002, 1.325471e+002
2.339361e+002, 1.322492e+002
2.344182e+002, 1.319069e+002
2.349003e+002, 1.318044e+002
2.353824e+002, 1.321019e+002
2.358646e+002, 1.324100e+002
2.363467e+002, 1.325243e+002
2.368288e+002, 1.323254e+002
2.373109e+002, 1.321963e+002
2.377930e+002, 1.321780e+002
2.382751e+002, 1.322274e+002
2.387573e+002, 1.322030e+002
2.392394e+002, 1.320066e+002
2.397215e+002, 1.318723e+002
2.402036e+002, 1.319297e+002
2.406857e+002, 1.323341e+002
2.411678e+002, 1.325724e+002
2.416500e+002, 1.326142e+002
2.421321e+002, 1.324965e+002
2.426142e+002, 1.323018e+002
2.430963e+002, 1.319835e+002
2.435784e+002, 1.316575e+002
2.440605e+002, 1.313712e+002
2.445427e+002, 1.311206e+002
2.450248e+002, 1.309096e+002
2.455069e+002, 1.306953e+002
2.459890e+002, 1.305396e+002
2.464711e+002, 1.306164e+002
2.469532e+002, 1.311347e+002
2.474354e+002, 1.315448e+002
2.479175e+002, 1.315984e+002
2.483996e+002, 1.311423e+002
2.488817e+002, 1.308421e+002
2.493638e+002, 1.307664e+002
2.498459e+002, 1.308109e+002
2.503281e+002, 1.307889e+002
2.508102e+002, 1.306980e+002
2.512923e+002, 1.305434e+002
2.517744e+002, 1.302602e+002
2.522565e+002, 1.297302e+002
2.527386e+002, 1.296064e+002
2.532208e+002, 1.300469e+002
2.537029e+002, 1.307775e+002
2.541850e+002, 1.314030e+002
2.546671e+002, 1.319574e+002
2.551492e+002, 1.323320e+002
2.556313e+002, 1.324255e+002
2.561135e+002, 1.321637e+002
2.565956e+002, 1.321312e+002
2.570777e+002, 1.324644e+002
2.575598e+002, 1.328907e+002
2.580419e+002, 1.330041e+002
2.585240e+002, 1.326171e+002
2.590062e+002, 1.323394e+002
2.594883e+002, 1.323902e+002
2.599704e+002, 1.328007e+002
2.604525e+002, 1.330202e+002
2.609346e+002, 1.329711e+002
2.614167e+002, 1.328251e+002
2.618989e+002, 1.328075e+002
2.623810e+002, 1.330218e+002
2.628631e+002, 1.330845e+002
2.633452e+002, 1.328421e+002
2.638273e+002, 1.322964e+002
2.643094e+002, 1.320066e+002
2.647916e+002, 1.320889e+002
2.652737e+002, 1.322398e+002
2.657558e+002, 1.320842e+002
2.662379e+002, 1.314249e+002
2.667200e+002, 1.311526e+002
2.672021e+002, 1.316297e+002
2.676843e+002, 1.327281e+002
2.681664e+002, 1.331356e+002
2.686485e+002, 1.326323e+002
2.691306e+002, 1.318926e+002
2.696127e+002, 1.314826e+002
2.700948e+002, 1.314647e+002
2.705770e+002, 1.314926e+002
2.710591e+002, 1.315132e+002
2.715412e+002, 1.315335e+002
2.720233e+002, 1.316177e+002
2.725054e+002, 1.318005e+002
2.729875e+002, 1.319422e+002
2.734697e+002, 1.319410e+002
2.739518e+002, 1.317856e+002
2.744339e+002, 1.315466e+002
2.749160e+002, 1.312086e+002
2.753981e+002, 1.308084e+002
2.758802e+002, 1.304178e+002
2.763624e+002, 1.300175e+002
2.768445e+002, 1.297323e+002
2.773266e+002, 1.297621e+002
2.778087e+002, 1.301524e+002
2.782908e+002, 1.301325e+002
2.787729e+002, 1.295167e+002
2.792551e+002, 1.286053e+002
2.797372e+002, 1.281732e+002
2.802193e+002, 1.283082e+002
2.807014e+002, 1.283430e+002
2.811835e+002, 1.278117e+002
2.816656e+002, 1.267258e+002
2.821478e+002, 1.258903e+002
2.826299e+002, 1.253835e+002
2.831120e+002, 1.250444e+002
2.835941e+002, 1.246128e+002
2.840762e+002, 1.240821e+002
2.845583e+002, 1.235464e+002
2.850405e+002, 1.230083e+002
2.855226e+002, 1.224800e+002
2.860047e+002, 1.220973e+002
2.864868e+002, 1.218856e+002
2.869689e+002, 1.217370e+002
2.874510e+002, 1.215089e+002
2.879332e+002, 1.212045e+002
2.884153e+002, 1.208877e+002
2.888974e+002, 1.205765e+002
2.893795e+002, 1.202747e+002
2.898616e+002, 1.199986e+002
2.903438e+002, 1.197434e+002
2.908259e+002, 1.195450e+002
2.913080e+002, 1.193883e+002
2.917901e+002, 1.192988e+002
2.922722e+002, 1.194523e+002
2.927543e+002, 1.201251e+002
2.932365e+002, 1.209765e+002
2.937186e+002, 1.211671e+002
2.942007e+002, 1.206897e+002
2.946828e+002, 1.199027e+002
2.951649e+002, 1.188642e+002
2.956470e+002, 1.177331e+002
2.961292e+002, 1.170380e+002
2.966113e+002, 1.170852e+002
2.970934e+002, 1.174597e+002
2.975755e+002, 1.174474e+002
2.980576e+002, 1.170890e+002
2.985397e+002, 1.168150e+002
2.990219e+002, 1.171513e+002
2.995040e+002, 1.177882e+002
2.999861e+002, 1.180275e+002
3.004682e+002, 1.176538e+002
3.009503e+002, 1.170134e+002
3.014324e+002, 1.163652e+002
3.019146e+002, 1.157589e+002
3.023967e+002, 1.153736e+002
3.028788e+002, 1.154474e+002
3.033609e+002, 1.157776e+002
3.038430e+002, 1.161301e+002
3.043251e+002, 1.165250e+002
3.048073e+002, 1.167420e+002
3.052894e+002, 1.163894e+002
3.057715e+002, 1.156824e+002
3.062536e+002, 1.151366e+002
3.067357e+002, 1.151906e+002
3.072178e+002, 1.154498e+002
3.077000e+002, 1.154799e+002
3.081821e+002, 1.152209e+002
3.086642e+002, 1.149791e+002
3.091463e+002, 1.150814e+002
3.096284e+002, 1.153310e+002
3.101105e+002, 1.154228e+002
3.105927e+002, 1.150878e+002
3.110748e+002, 1.146478e+002
3.115569e+002, 1.143244e+002
3.120390e+002, 1.141235e+002
3.125211e+002, 1.139338e+002
3.130032e+002, 1.136699e+002
3.134854e+002, 1.133916e+002
3.139675e+002, 1.131661e+002
3.144496e+002, 1.130385e+002
3.149317e+002, 1.129515e+002
3.154138e+002, 1.128866e+002
3.158959e+002, 1.128438e+002
3.163781e+002, 1.128144e+002
3.168602e+002, 1.127891e+002
3.173423e+002, 1.127813e+002
3.178244e+002, 1.128147e+002
3.183065e+002, 1.130301e+002
3.187886e+002, 1.130942e+002
3.192708e+002, 1.127489e+002
3.197529e+002, 1.121465e+002
3.202350e+002, 1.117154e+002
3.207171e+002, 1.116812e+002
3.211992e+002, 1.117778e+002
3.216813e+002, 1.119036e+002
3.221635e+002, 1.121227e+002
3.226456e+002, 1.121888e+002
3.231277e+002, 1.118844e+002
3.236098e+002, 1.114223e+002
3.240919e+002, 1.111582e+002
3.245740e+002, 1.113890e+002
3.250562e+002, 1.116071e+002
3.255383e+002, 1.116222e+002
3.260204e+002, 1.113453e+002
3.265025e+002, 1.111980e+002
3.269846e+002, 1.114121e+002
3.274667e+002, 1.116870e+002
3.279489e+002, 1.117043e+002
3.284310e+002, 1.111335e+002
3.289131e+002, 1.106775e+002
3.293952e+002, 1.105054e+002
3.298773e+002, 1.106283e+002
3.303594e+002, 1.105924e+002
3.308416e+002, 1.102689e+002
3.313237e+002, 1.098972e+002
3.318058e+002, 1.096553e+002
3.322879e+002, 1.096756e+002
3.327700e+002, 1.095907e+002
3.332521e+002, 1.092995e+002
3.337343e+002, 1.088663e+002
3.342164e+002, 1.086109e+002
3.346985e+002, 1.085973e+002
3.351806e+002, 1.086629e+002
3.356627e+002, 1.087292e+002
3.361448e+002, 1.087948e+002
3.366270e+002, 1.088601e+002
3.371091e+002, 1.089245e+002
3.375912e+002, 1.089878e+002
3.380733e+002, 1.090701e+002
3.385554e+002, 1.092032e+002
3.390375e+002, 1.092483e+002
3.395197e+002, 1.090791e+002
3.400018e+002, 1.086721e+002
3.404839e+002, 1.085805e+002
3.409660e+002, 1.089116e+002
3.414481e+002, 1.093268e+002
3.419302e+002, 1.093498e+002
3.424124e+002, 1.089517e+002
3.428945e+002, 1.085416e+002
3.433766e+002, 1.081838e+002
3.438587e+002, 1.079116e+002
3.443408e+002, 1.079595e+002
3.448229e+002, 1.083803e+002
3.453051e+002, 1.087555e+002
3.457872e+002, 1.085320e+002
3.462693e+002, 1.078344e+002
3.467514e+002, 1.075255e+002
3.472335e+002, 1.078909e+002
3.477156e+002, 1.085993e+002
3.481978e+002, 1.090465e+002
3.486799e+002, 1.092440e+002
3.491620e+002, 1.093228e+002
3.496441e+002, 1.093371e+002
3.501262e+002, 1.093011e+002
3.506083e+002, 1.092301e+002
3.510905e+002, 1.091086e+002
3.515726e+002, 1.090165e+002
3.520547e+002, 1.090408e+002
3.525368e+002, 1.091696e+002
3.530189e+002, 1.093673e+002
3.535010e+002, 1.097007e+002
3.539832e+002, 1.100524e+002
3.544653e+002, 1.102561e+002
3.549474e+002, 1.103016e+002
3.554295e+002, 1.103310e+002
3.559116e+002, 1.104451e+002
3.563937e+002, 1.106176e+002
3.568759e+002, 1.108075e+002
3.573580e+002, 1.110715e+002
3.578401e+002, 1.112900e+002
3.583222e+002, 1.113405e+002
3.588043e+002, 1.112512e+002
3.592864e+002, 1.111876e+002
3.597686e+002, 1.112508e+002
3.602507e+002, 1.113711e+002
3.607328e+002, 1.114980e+002
3.612149e+002, 1.116704e+002
3.616970e+002, 1.117637e+002
3.621791e+002, 1.116663e+002
3.626613e+002, 1.114498e+002
3.631434e+002, 1.112807e+002
3.636255e+002, 1.112233e+002
3.641076e+002, 1.112138e+002
3.645897e+002, 1.112325e+002
3.650718e+002, 1.112897e+002
3.655540e+002, 1.113280e+002
3.660361e+002, 1.113982e+002
3.665182e+002, 1.114240e+002
3.670003e+002, 1.113144e+002
3.674824e+002, 1.109632e+002
3.679645e+002, 1.105766e+002
3.684467e+002, 1.101737e+002
3.689288e+002, 1.097605e+002
3.694109e+002, 1.094000e+002
3.698930e+002, 1.090978e+002
3.703751e+002, 1.088474e+002
3.708572e+002, 1.086564e+002
3.713394e+002, 1.086500e+002
3.718215e+002, 1.084872e+002
3.723036e+002, 1.080291e+002
3.727857e+002, 1.073999e+002
3.732678e+002, 1.070688e+002
3.737499e+002, 1.072127e+002
3.742321e+002, 1.073329e+002
3.747142e+002, 1.071747e+002
3.751963e+002, 1.066545e+002
3.756784e+002, 1.061867e+002
3.761605e+002, 1.057425e+002
3.766426e+002, 1.053902e+002
3.771248e+002, 1.053202e+002
3.776069e+002, 1.056015e+002
3.780890e+002, 1.057317e+002
3.785711e+002, 1.054602e+002
3.790532e+002, 1.048679e+002
3.795353e+002, 1.045824e+002
3.800175e+002, 1.046366e+002
3.804996e+002, 1.048231e+002
3.809817e+002, 1.050036e+002
3.814638e+002, 1.051665e+002
3.819459e+002, 1.052087e+002
3.824280e+002, 1.050835e+002
3.829102e+002, 1.048589e+002
3.833923e+002, 1.046159e+002
3.838744e+002, 1.043625e+002
3.843565e+002, 1.042101e+002
3.848386e+002, 1.043030e+002
3.853207e+002, 1.045357e+002
3.858029e+002, 1.047143e+002
3.862850e+002, 1.048315e+002
3.867671e+002, 1.048364e+002
3.872492e+002, 1.045647e+002
3.877313e+002, 1.041364e+002
3.882134e+002, 1.038299e+002
3.886956e+002, 1.038535e+002
3.891777e+002, 1.040058e+002
3.896598e+002, 1.041399e+002
3.901419e+002, 1.042507e+002
3.906240e+002, 1.043090e+002
3.911061e+002, 1.043406e+002
3.915883e+002, 1.042944e+002
3.920704e+002, 1.041028e+002
3.925525e+002, 1.035963e+002
3.930346e+002, 1.031535e+002
3.935167e+002, 1.029102e+002
3.939988e+002, 1.028574e+002
3.944810e+002, 1.029628e+002
3.949631e+002, 1.034509e+002
3.954452e+002, 1.039116e+002
3.959273e+002, 1.041130e+002
3.964094e+002, 1.039396e+002
3.968915e+002, 1.037910e+002
3.973737e+002, 1.037950e+002
3.978558e+002, 1.038429e+002
3.983379e+002, 1.038011e+002
3.988200e+002, 1.033980e+002
3.993021e+002, 1.031767e+002
3.997842e+002, 1.033166e+002
4.002664e+002, 1.038148e+002
4.007485e+002, 1.041841e+002
4.012306e+002, 1.043713e+002
4.017127e+002, 1.044745e+002
4.021948e+002, 1.045409e+002
4.026769e+002, 1.045139e+002
4.031591e+002, 1.045697e+002
4.036412e+002, 1.047213e+002
4.041233e+002, 1.049593e+002
4.046054e+002, 1.053031e+002
4.050875e+002, 1.058189e+002
4.055696e+002, 1.062355e+002
4.060518e+002, 1.064087e+002
4.065339e+002, 1.063313e+002
4.070160e+002, 1.062946e+002
4.074981e+002, 1.062904e+002
4.079802e+002, 1.063564e+002
4.084623e+002, 1.065313e+002
4.089445e+002, 1.068179e+002
4.094266e+002, 1.072284e+002
4.099087e+002, 1.078222e+002
4.103908e+002, 1.084973e+002
4.108729e+002, 1.089103e+002
4.113550e+002, 1.090779e+002
4.118372e+002, 1.094108e+002
4.123193e+002, 1.103822e+002
4.128014e+002, 1.117283e+002
4.132835e+002, 1.127810e+002
4.137656e+002, 1.133893e+002
4.142477e+002, 1.139797e+002
4.147299e+002, 1.150153e+002
4.152120e+002, 1.163884e+002
4.156941e+002, 1.178118e+002
4.161762e+002, 1.193682e+002
4.166583e+002, 1.207867e+002
4.171404e+002, 1.217764e+002
4.176226e+002, 1.223495e+002
4.181047e+002, 1.227921e+002
4.185868e+002, 1.232062e+002
4.190689e+002, 1.236025e+002
4.195510e+002, 1.240041e+002
4.200331e+002, 1.244845e+002
4.205153e+002, 1.248736e+002
4.209974e+002, 1.252212e+002
4.214795e+002, 1.254369e+002
4.219616e+002, 1.252704e+002
4.224437e+002, 1.241941e+002
4.229258e+002, 1.231213e+002
4.234080e+002, 1.225122e+002
4.238901e+002, 1.226021e+002
4.243722e+002, 1.223950e+002
4.248543e+002, 1.215502e+002
4.253364e+002, 1.205048e+002
4.258185e+002, 1.196877e+002
4.263007e+002, 1.192249e+002
4.267828e+002, 1.188016e+002
4.272649e+002, 1.184117e+002
4.277470e+002, 1.180386e+002
4.282291e+002, 1.175111e+002
4.287112e+002, 1.166497e+002
4.291934e+002, 1.159521e+002
4.296755e+002, 1.157056e+002
4.301576e+002, 1.159818e+002
4.306397e+002, 1.163821e+002
4.311218e+002, 1.169524e+002
4.316039e+002, 1.175486e+002
4.320861e+002, 1.179478e+002
4.325682e+002, 1.181407e+002
4.330503e+002, 1.182442e+002
4.335324e+002, 1.182447e+002
4.340145e+002, 1.181994e+002
4.344966e+002, 1.183254e+002
4.349788e+002, 1.186276e+002
4.354609e+002, 1.189866e+002
4.359430e+002, 1.191695e+002
4.364251e+002, 1.193305e+002
4.369072e+002, 1.199311e+002
4.373893e+002, 1.211437e+002
4.378715e+002, 1.225954e+002
4.383536e+002, 1.240504e+002
4.388357e+002, 1.254263e+002
4.393178e+002, 1.264938e+002
4.397999e+002, 1.268428e+002
4.402820e+002, 1.270128e+002
4.407642e+002, 1.274323e+002
4.412463e+002, 1.281285e+002
4.417284e+002, 1.290734e+002
4.422105e+002, 1.305096e+002
4.426926e+002, 1.320716e+002
4.431747e+002, 1.333990e+002
4.436569e+002, 1.340658e+002
4.441390e+002, 1.348827e+002
4.446211e+002, 1.361785e+002
4.451032e+002, 1.378255e+002
4.455853e+002, 1.394135e+002
4.460674e+002, 1.407995e+002
4.465496e+002, 1.421883e+002
4.470317e+002, 1.437069e+002
4.475138e+002, 1.454978e+002
4.479959e+002, 1.469711e+002
4.484780e+002, 1.479479e+002
4.489601e+002, 1.487477e+002
4.494423e+002, 1.497086e+002
4.499244e+002, 1.509444e+002
4.504065e+002, 1.520925e+002
4.508886e+002, 1.531047e+002
4.513707e+002, 1.539849e+002
4.518528e+002, 1.548040e+002
4.523350e+002, 1.555984e+002
4.528171e+002, 1.562238e+002
4.532992e+002, 1.566428e+002
4.537813e+002, 1.568540e+002
4.542634e+002, 1.567232e+002
4.547455e+002, 1.562056e+002
4.552277e+002, 1.554650e+002
4.557098e+002, 1.547004e+002
4.561919e+002, 1.539012e+002
4.566740e+002, 1.529278e+002
4.571561e+002, 1.516321e+002
4.576382e+002, 1.502465e+002
4.581204e+002, 1.492674e+002
4.586025e+002, 1.486397e+002
4.590846e+002, 1.480247e+002
4.595667e+002, 1.470161e+002
4.600488e+002, 1.459474e+002
4.605309e+002, 1.452880e+002
4.610131e+002, 1.451660e+002
4.614952e+002, 1.451743e+002
4.619773e+002, 1.450460e+002
4.624594e+002, 1.448661e+002
4.629415e+002, 1.447572e+002
4.634236e+002, 1.446593e+002
4.639058e+002, 1.447418e+002
4.643879e+002, 1.451292e+002
4.648700e+002, 1.457947e+002
4.653521e+002, 1.465145e+002
4.658342e+002, 1.474272e+002
4.663163e+002, 1.482432e+002
4.667985e+002, 1.487648e+002
4.672806e+002, 1.486104e+002
4.677627e+002, 1.488434e+002
4.682448e+002, 1.497365e+002
4.687269e+002, 1.509120e+002
4.692090e+002, 1.518694e+002
4.696912e+002, 1.526487e+002
4.701733e+002, 1.531375e+002
4.706554e+002, 1.532177e+002
4.711375e+002, 1.529441e+002
4.716196e+002, 1.529264e+002
4.721017e+002, 1.533145e+002
4.725839e+002, 1.535359e+002
4.730660e+002, 1.531297e+002
4.735481e+002, 1.520911e+002
4.740302e+002, 1.511114e+002
4.745123e+002, 1.503038e+002
4.749944e+002, 1.494099e+002
4.754766e+002, 1.479502e+002
4.759587e+002, 1.460069e+002
4.764408e+002, 1.440892e+002
4.769229e+002, 1.424731e+002
4.774050e+002, 1.409847e+002
4.778871e+002, 1.393145e+002
4.783693e+002, 1.374867e+002
4.788514e+002, 1.357145e+002
4.793335e+002, 1.341414e+002
4.798156e+002, 1.327051e+002
4.802977e+002, 1.313479e+002
4.807798e+002, 1.300632e+002
4.812620e+002, 1.288531e+002
4.817441e+002, 1.277226e+002
4.822262e+002, 1.266671e+002
4.827083e+002, 1.256800e+002
4.831904e+002, 1.246686e+002
4.836725e+002, 1.238059e+002
4.841547e+002, 1.231952e+002
4.846368e+002, 1.228252e+002
4.851189e+002, 1.225073e+002
4.856010e+002, 1.221672e+002
4.860831e+002, 1.219121e+002
4.865652e+002, 1.218339e+002
4.870474e+002, 1.222014e+002
4.875295e+002, 1.221388e+002
4.880116e+002, 1.213991e+002
4.884937e+002, 1.204130e+002
4.889758e+002, 1.197824e+002
4.894579e+002, 1.195927e+002
4.899401e+002, 1.195071e+002
4.904222e+002, 1.194817e+002
4.909043e+002, 1.194923e+002
4.913864e+002, 1.194309e+002
4.918685e+002, 1.192970e+002
4.923506e+002, 1.190888e+002
4.928328e+002, 1.187267e+002
4.933149e+002, 1.182710e+002
4.937970e+002, 1.180335e+002
4.942791e+002, 1.180735e+002
4.947612e+002, 1.181490e+002
4.952433e+002, 1.178695e+002
4.957255e+002, 1.174028e+002
4.962076e+002, 1.171834e+002
4.966897e+002, 1.175633e+002
4.971718e+002, 1.180701e+002
4.976539e+002, 1.182515e+002
4.981360e+002, 1.181678e+002
4.986182e+002, 1.180512e+002
4.991003e+002, 1.179555e+002
4.995824e+002, 1.179171e+002
5.000645e+002, 1.180050e+002
5.005466e+002, 1.182819e+002
5.010287e+002, 1.184289e+002
5.015109e+002, 1.184089e+002
5.019930e+002, 1.181889e+002
5.024751e+002, 1.177349e+002
5.029572e+002, 1.165564e+002
5.034393e+002, 1.157288e+002
5.039214e+002, 1.155489e+002
5.044036e+002, 1.158185e+002
5.048857e+002, 1.158294e+002
5.053678e+002, 1.154406e+002
5.058499e+002, 1.150387e+002
5.063320e+002, 1.148189e+002
5.068141e+002, 1.148084e+002
5.072963e+002, 1.145409e+002
5.077784e+002, 1.139358e+002
5.082605e+002, 1.132801e+002
5.087426e+002, 1.129060e+002
5.092247e+002, 1.127892e+002
5.097068e+002, 1.125336e+002
5.101890e+002, 1.120107e+002
5.106711e+002, 1.114212e+002
5.111532e+002, 1.111689e+002
5.116353e+002, 1.111822e+002
5.121174e+002, 1.111267e+002
5.125995e+002, 1.107715e+002
5.130817e+002, 1.102807e+002
5.135638e+002, 1.097999e+002
5.140459e+002, 1.093397e+002
5.145280e+002, 1.090032e+002
5.150101e+002, 1.090013e+002
5.154922e+002, 1.090791e+002
5.159744e+002, 1.089891e+002
5.164565e+002, 1.085965e+002
5.169386e+002, 1.081992e+002
5.174207e+002, 1.078911e+002
5.179028e+002, 1.076415e+002
5.183849e+002, 1.073995e+002
5.188671e+002, 1.071960e+002
5.193492e+002, 1.069582e+002
5.198313e+002, 1.066939e+002
5.203134e+002, 1.063988e+002
5.207955e+002, 1.059455e+002
5.212776e+002, 1.051890e+002
5.217598e+002, 1.044845e+002
5.222419e+002, 1.040840e+002
5.227240e+002, 1.040755e+002
5.232061e+002, 1.038761e+002
5.236882e+002, 1.034444e+002
5.241703e+002, 1.028872e+002
5.246525e+002, 1.022874e+002
5.251346e+002, 1.016528e+002
5.256167e+002, 1.011551e+002
5.260988e+002, 1.008905e+002
5.265809e+002, 1.007404e+002
5.270630e+002, 1.004660e+002
5.275452e+002, 1.000984e+002
5.280273e+002, 9.980524e+001
5.285094e+002, 9.981040e+001
5.289915e+002, 9.987674e+001
5.294736e+002, 9.969408e+001
5.299557e+002, 9.923032e+001
5.304379e+002, 9.877841e+001
5.309200e+002, 9.852776e+001
5.314021e+002, 9.836265e+001
5.318842e+002, 9.816379e+001
5.323663e+002, 9.782653e+001
5.328484e+002, 9.755953e+001
5.333306e+002, 9.747771e+001
5.338127e+002, 9.749637e+001
5.342948e+002, 9.743807e+001
5.347769e+002, 9.711329e+001
5.352590e+002, 9.691821e+001
5.357411e+002, 9.703577e+001
5.362233e+002, 9.744913e+001
5.367054e+002, 9.749184e+001
5.371875e+002, 9.695395e+001
5.376696e+002, 9.645483e+001
5.381517e+002, 9.645535e+001
5.386339e+002, 9.700330e+001
5.391160e+002, 9.743507e+001
5.395981e+002, 9.772807e+001
5.400802e+002, 9.786325e+001
5.405623e+002, 9.767082e+001
5.410444e+002, 9.724010e+001
5.415266e+002, 9.709373e+001
5.420087e+002, 9.752780e+001
5.424908e+002, 9.817085e+001
5.429729e+002, 9.844290e+001
5.434550e+002, 9.843519e+001
5.439371e+002, 9.852344e+001
5.444193e+002, 9.908231e+001
5.449014e+002, 9.971939e+001
5.453835e+002, 1.000614e+002
5.458656e+002, 1.000598e+002
5.463477e+002, 1.001238e+002
5.468298e+002, 1.004423e+002
5.473120e+002, 1.008879e+002
5.477941e+002, 1.013498e+002
5.482762e+002, 1.016977e+002
5.487583e+002, 1.022207e+002
5.492404e+002, 1.030241e+002
5.497225e+002, 1.039880e+002
5.502047e+002, 1.049365e+002
5.506868e+002, 1.059684e+002
5.511689e+002, 1.067833e+002
5.516510e+002, 1.072236e+002
5.521331e+002, 1.073670e+002
5.526152e+002, 1.077207e+002
5.530974e+002, 1.083157e+002
5.535795e+002, 1.089731e+002
5.540616e+002, 1.095483e+002
5.545437e+002, 1.100750e+002
5.550258e+002, 1.107555e+002
5.555079e+002, 1.116150e+002
5.559901e+002, 1.125582e+002
5.564722e+002, 1.136751e+002
5.569543e+002, 1.147950e+002
5.574364e+002, 1.155118e+002
5.579185e+002, 1.154572e+002
5.584006e+002, 1.153748e+002
5.588828e+002, 1.158839e+002
5.593649e+002, 1.168162e+002
5.598470e+002, 1.177930e+002
5.603291e+002, 1.186696e+002
5.608112e+002, 1.195448e+002
5.612933e+002, 1.204829e+002
5.617755e+002, 1.214848e+002
5.622576e+002, 1.224480e+002
5.627397e+002, 1.230649e+002
5.632218e+002, 1.238696e+002
5.637039e+002, 1.252006e+002
5.641860e+002, 1.274607e+002
5.646682e+002, 1.291601e+002
5.651503e+002, 1.300624e+002
5.656324e+002, 1.307247e+002
5.661145e+002, 1.319038e+002
5.665966e+002, 1.336807e+002
5.670787e+002, 1.353382e+002
5.675609e+002, 1.367358e+002
5.680430e+002, 1.379189e+002
5.685251e+002, 1.388616e+002
5.690072e+002, 1.396050e+002
5.694893e+002, 1.403977e+002
5.699714e+002, 1.416010e+002
5.704536e+002, 1.428416e+002
5.709357e+002, 1.435567e+002
5.714178e+002, 1.437534e+002
5.718999e+002, 1.437629e+002
5.723820e+002, 1.439255e+002
5.728641e+002, 1.439185e+002
5.733463e+002, 1.433882e+002
5.738284e+002, 1.420476e+002
5.743105e+002, 1.407804e+002
5.747926e+002, 1.401056e+002
5.752747e+002, 1.395547e+002
5.757568e+002, 1.385376e+002
5.762390e+002, 1.366929e+002
5.767211e+002, 1.347644e+002
5.772032e+002, 1.327058e+002
5.776853e+002, 1.306254e+002
5.781674e+002, 1.289662e+002
5.786495e+002, 1.277779e+002
5.791317e+002, 1.268785e+002
5.796138e+002, 1.263140e+002
5.800959e+002, 1.260175e+002
5.805780e+002, 1.253276e+002
5.810601e+002, 1.241941e+002
5.815422e+002, 1.231651e+002
5.820244e+002, 1.228698e+002
5.825065e+002, 1.230174e+002
5.829886e+002, 1.228396e+002
5.834707e+002, 1.221735e+002
5.839528e+002, 1.214986e+002
5.844349e+002, 1.212132e+002
5.849171e+002, 1.212031e+002
5.853992e+002, 1.212988e+002
5.858813e+002, 1.214389e+002
5.863634e+002, 1.216754e+002
5.868455e+002, 1.220362e+002
5.873276e+002, 1.225089e+002
5.878098e+002, 1.230507e+002
5.882919e+002, 1.236332e+002
5.887740e+002, 1.243077e+002
5.892561e+002, 1.251547e+002
5.897382e+002, 1.261803e+002
5.902203e+002, 1.269065e+002
5.907025e+002, 1.270585e+002
5.911846e+002, 1.273890e+002
5.916667e+002, 1.284670e+002
5.921488e+002, 1.303564e+002
5.926309e+002, 1.321605e+002
5.931130e+002, 1.338513e+002
5.935952e+002, 1.354856e+002
5.940773e+002, 1.371179e+002
5.945594e+002, 1.387578e+002
5.950415e+002, 1.404197e+002
5.955236e+002, 1.421739e+002
5.960057e+002, 1.438615e+002
5.964879e+002, 1.451313e+002
5.969700e+002, 1.461810e+002
5.974521e+002, 1.474619e+002
5.979342e+002, 1.496512e+002
5.984163e+002, 1.517200e+002
5.988984e+002, 1.530245e+002
5.993806e+002, 1.536270e+002
5.998627e+002, 1.541819e+002
6.003448e+002, 1.549183e+002
6.008269e+002, 1.555653e+002
6.013090e+002, 1.560179e+002
6.017911e+002, 1.562803e+002
6.022733e+002, 1.563164e+002
6.027554e+002, 1.560774e+002
6.032375e+002, 1.556806e+002
6.037196e+002, 1.552138e+002
6.042017e+002, 1.546646e+002
6.046838e+002, 1.541435e+002
6.051660e+002, 1.536731e+002
6.056481e+002, 1.532045e+002
6.061302e+002, 1.527336e+002
6.066123e+002, 1.522228e+002
6.070944e+002, 1.514832e+002
6.075765e+002, 1.502703e+002
6.080587e+002, 1.489615e+002
6.085408e+002, 1.479817e+002
6.090229e+002, 1.472749e+002
6.095050e+002, 1.466060e+002
6.099871e+002, 1.457543e+002
6.104692e+002, 1.449917e+002
6.109514e+002, 1.445766e+002
6.114335e+002, 1.445456e+002
6.119156e+002, 1.443097e+002
6.123977e+002, 1.435017e+002
6.128798e+002, 1.426411e+002
6.133619e+002, 1.420362e+002
6.138441e+002, 1.417526e+002
6.143262e+002, 1.416038e+002
6.148083e+002, 1.417522e+002
6.152904e+002, 1.418190e+002
6.157725e+002, 1.412594e+002
6.162546e+002, 1.400391e+002
6.167368e+002, 1.388095e+002
6.172189e+002, 1.376797e+002
6.177010e+002, 1.366028e+002
6.181831e+002, 1.355305e+002
6.186652e+002, 1.344535e+002
6.191473e+002, 1.333223e+002
6.196295e+002, 1.321529e+002
6.201116e+002, 1.309029e+002
6.205937e+002, 1.294374e+002
6.210758e+002, 1.278213e+002
6.215579e+002, 1.263337e+002
6.220400e+002, 1.251336e+002
6.225222e+002, 1.241204e+002
6.230043e+002, 1.232971e+002
6.234864e+002, 1.227159e+002
6.239685e+002, 1.220105e+002
6.244506e+002, 1.209204e+002
6.249327e+002, 1.198810e+002
6.254149e+002, 1.192121e+002
6.258970e+002, 1.191008e+002
6.263791e+002, 1.187664e+002
6.268612e+002, 1.180508e+002
6.273433e+002, 1.173299e+002
6.278254e+002, 1.172263e+002
6.283076e+002, 1.177083e+002
6.287897e+002, 1.180776e+002
6.292718e+002, 1.181207e+002
6.297539e+002, 1.180340e+002
6.302360e+002, 1.181200e+002
6.307181e+002, 1.183388e+002
6.312003e+002, 1.185627e+002
6.316824e+002, 1.186652e+002
6.321645e+002, 1.187992e+002
6.326466e+002, 1.189897e+002
6.331287e+002, 1.192779e+002
6.336108e+002, 1.198898e+002
6.340930e+002, 1.215665e+002
6.345751e+002, 1.230373e+002
6.350572e+002, 1.234814e+002
6.355393e+002, 1.225717e+002
6.360214e+002, 1.222436e+002
6.365035e+002, 1.227909e+002
6.369857e+002, 1.235619e+002
6.374678e+002, 1.240791e+002
6.379499e+002, 1.243152e+002
6.384320e+002, 1.244665e+002
6.389141e+002, 1.245228e+002
6.393962e+002, 1.245534e+002
6.398784e+002, 1.248136e+002
6.403605e+002, 1.251724e+002
6.408426e+002, 1.250136e+002
6.413247e+002, 1.239671e+002
6.418068e+002, 1.227075e+002
6.422889e+002, 1.219328e+002
6.427711e+002, 1.215066e+002
6.432532e+002, 1.210977e+002
6.437353e+002, 1.206743e+002
6.442174e+002, 1.201358e+002
6.446995e+002, 1.194101e+002
6.451816e+002, 1.185150e+002
6.456638e+002, 1.175621e+002
6.461459e+002, 1.165322e+002
6.466280e+002, 1.154793e+002
6.471101e+002, 1.143394e+002
6.475922e+002, 1.130952e+002
6.480743e+002, 1.122768e+002
6.485565e+002, 1.120163e+002
6.490386e+002, 1.118517e+002
6.495207e+002, 1.113993e+002
6.500028e+002, 1.107026e+002
6.504849e+002, 1.101928e+002
6.509670e+002, 1.099370e+002
6.514492e+002, 1.096372e+002
6.519313e+002, 1.089202e+002
6.524134e+002, 1.079440e+002
6.528955e+002, 1.070100e+002
6.533776e+002, 1.061575e+002
6.538597e+002, 1.054070e+002
6.543419e+002, 1.046884e+002
6.548240e+002, 1.040965e+002
6.553061e+002, 1.037888e+002
6.557882e+002, 1.042239e+002
6.562703e+002, 1.044750e+002
6.567524e+002, 1.042568e+002
6.572346e+002, 1.037095e+002
6.577167e+002, 1.031948e+002
6.581988e+002, 1.026066e+002
6.586809e+002, 1.023111e+002
6.591630e+002, 1.025413e+002
6.596451e+002, 1.031760e+002
6.601273e+002, 1.035044e+002
6.606094e+002, 1.035195e+002
6.610915e+002, 1.033938e+002
6.615736e+002, 1.031883e+002
6.620557e+002, 1.029372e+002
6.625378e+002, 1.026890e+002
6.630200e+002, 1.024458e+002
6.635021e+002, 1.022632e+002
6.639842e+002, 1.022857e+002
6.644663e+002, 1.023266e+002
6.649484e+002, 1.021926e+002
6.654305e+002, 1.017796e+002
6.659127e+002, 1.014005e+002
6.663948e+002, 1.011231e+002
6.668769e+002, 1.009222e+002
6.673590e+002, 1.007670e+002
6.678411e+002, 1.006600e+002
6.683232e+002, 1.006152e+002
6.688054e+002, 1.006919e+002
6.692875e+002, 1.007691e+002
6.697696e+002, 1.005646e+002
6.702517e+002, 1.000703e+002
6.707338e+002, 9.972614e+001
6.712159e+002, 9.969352e+001
6.716981e+002, 9.984131e+001
6.721802e+002, 1.000640e+002
6.726623e+002, 1.002980e+002
6.731444e+002, 1.003233e+002
6.736265e+002, 9.976402e+001
6.741086e+002, 9.916556e+001
6.745908e+002, 9.895566e+001
6.750729e+002, 9.909513e+001
6.755550e+002, 9.924883e+001
6.760371e+002, 9.919839e+001
6.765192e+002, 9.924907e+001
6.770013e+002, 9.964809e+001
6.774835e+002, 1.004697e+002
6.779656e+002, 1.007979e+002
6.784477e+002, 1.004186e+002
6.789298e+002, 9.993796e+001
6.794119e+002, 9.980710e+001
6.798940e+002, 1.000276e+002
6.803762e+002, 1.001086e+002
6.808583e+002, 1.000193e+002
6.813404e+002, 9.988477e+001
6.818225e+002, 9.975601e+001
6.823046e+002, 9.968892e+001
6.827867e+002, 9.982671e+001
6.832689e+002, 1.002459e+002
6.837510e+002, 1.007076e+002
6.842331e+002, 1.011249e+002
6.847152e+002, 1.014473e+002
6.851973e+002, 1.016003e+002
6.856794e+002, 1.014561e+002
6.861616e+002, 1.012740e+002
6.866437e+002, 1.010396e+002
6.871258e+002, 1.008110e+002
6.876079e+002, 1.007093e+002
6.880900e+002, 1.007878e+002
6.885721e+002, 1.008526e+002
6.890543e+002, 1.008422e+002
6.895364e+002, 1.007962e+002
6.900185e+002, 1.008482e+002
6.905006e+002, 1.009940e+002
6.909827e+002, 1.011296e+002
6.914648e+002, 1.012738e+002
6.919470e+002, 1.013381e+002
6.924291e+002, 1.010668e+002
6.929112e+002, 1.005379e+002
6.933933e+002, 1.001863e+002
6.938754e+002, 1.004165e+002
6.943575e+002, 1.007720e+002
6.948397e+002, 1.009454e+002
6.953218e+002, 1.008963e+002
6.958039e+002, 1.009118e+002
6.962860e+002, 1.012001e+002
6.967681e+002, 1.014026e+002
6.972502e+002, 1.012883e+002
6.977324e+002, 1.007438e+002
6.982145e+002, 1.004922e+002
6.986966e+002, 1.006175e+002
6.991787e+002, 1.008001e+002
6.996608e+002, 1.006676e+002
7.001429e+002, 1.003010e+002
7.006251e+002, 1.001364e+002
7.011072e+002, 1.002661e+002
7.015893e+002, 1.003916e+002
7.020714e+002, 1.001104e+002
7.025535e+002, 9.966541e+001
7.030356e+002, 9.941207e+001
7.035178e+002, 9.948953e+001
7.039999e+002, 9.970844e+001
7.044820e+002, 1.001812e+002
7.049641e+002, 1.006981e+002
7.054462e+002, 1.009215e+002
7.059283e+002, 1.005524e+002
7.064105e+002, 1.003553e+002
7.068926e+002, 1.004897e+002
7.073747e+002, 1.008135e+002
7.078568e+002, 1.009791e+002
7.083389e+002, 1.009751e+002
7.088210e+002, 1.009928e+002
7.093032e+002, 1.011408e+002
7.097853e+002, 1.013094e+002
7.102674e+002, 1.012287e+002
7.107495e+002, 1.009533e+002
7.112316e+002, 1.007154e+002
7.117137e+002, 1.006332e+002
7.121959e+002, 1.006418e+002
7.126780e+002, 1.006863e+002
7.131601e+002, 1.007738e+002
7.136422e+002, 1.009613e+002
7.141243e+002, 1.014979e+002
7.146064e+002, 1.019081e+002
7.150886e+002, 1.019477e+002
7.155707e+002, 1.016021e+002
7.160528e+002, 1.014445e+002
7.165349e+002, 1.015375e+002
7.170170e+002, 1.016567e+002
7.174991e+002, 1.016229e+002
7.179813e+002, 1.014691e+002
7.184634e+002, 1.014952e+002
7.189455e+002, 1.017170e+002
7.194276e+002, 1.019141e+002
7.199097e+002, 1.018576e+002
7.203918e+002, 1.016785e+002
7.208740e+002, 1.015517e+002
7.213561e+002, 1.015087e+002
7.218382e+002, 1.014746e+002
7.223203e+002, 1.013904e+002
7.228024e+002, 1.013114e+002
7.232845e+002, 1.012764e+002
7.237667e+002, 1.011689e+002
7.242488e+002, 1.013610e+002
7.247309e+002, 1.021344e+002
7.252130e+002, 1.029081e+002
7.256951e+002, 1.028473e+002
7.261772e+002, 1.018694e+002
7.266594e+002, 1.013848e+002
7.271415e+002, 1.017107e+002
7.276236e+002, 1.023119e+002
7.281057e+002, 1.025069e+002
7.285878e+002, 1.023894e+002
7.290699e+002, 1.021895e+002
7.295521e+002, 1.018873e+002
7.300342e+002, 1.016794e+002
7.305163e+002, 1.017225e+002
7.309984e+002, 1.019479e+002
7.314805e+002, 1.022325e+002
7.319626e+002, 1.028363e+002
7.324448e+002, 1.031310e+002
7.329269e+002, 1.028193e+002
7.334090e+002, 1.021749e+002
7.338911e+002, 1.019798e+002
7.343732e+002, 1.023377e+002
7.348553e+002, 1.027347e+002
7.353375e+002, 1.030425e+002
7.358196e+002, 1.032582e+002
7.363017e+002, 1.033317e+002
7.367838e+002, 1.032861e+002
7.372659e+002, 1.032614e+002
7.377480e+002, 1.034227e+002
7.382302e+002, 1.035736e+002
7.387123e+002, 1.034615e+002
7.391944e+002, 1.031486e+002
7.396765e+002, 1.029508e+002
7.401586e+002, 1.030564e+002
7.406407e+002, 1.032333e+002
7.411229e+002, 1.034319e+002
7.416050e+002, 1.036454e+002
7.420871e+002, 1.036511e+002
7.425692e+002, 1.033141e+002
7.430513e+002, 1.030898e+002
7.435334e+002, 1.033033e+002
7.440156e+002, 1.038818e+002
7.444977e+002, 1.041521e+002
7.449798e+002, 1.041163e+002
7.454619e+002, 1.040932e+002
7.459440e+002, 1.044991e+002
7.464261e+002, 1.049717e+002
7.469083e+002, 1.049600e+002
7.473904e+002, 1.044073e+002
7.478725e+002, 1.039824e+002
7.483546e+002, 1.040825e+002
7.488367e+002, 1.043592e+002
7.493188e+002, 1.045980e+002
7.498010e+002, 1.047783e+002
7.502831e+002, 1.049268e+002
7.507652e+002, 1.050906e+002
7.512473e+002, 1.051466e+002
7.517294e+002, 1.049097e+002
7.522115e+002, 1.043883e+002
7.526937e+002, 1.041610e+002
7.531758e+002, 1.042927e+002
7.536579e+002, 1.045067e+002
7.541400e+002, 1.045658e+002
7.546221e+002, 1.045020e+002
7.551042e+002, 1.043052e+002
7.555864e+002, 1.038944e+002
7.560685e+002, 1.036958e+002
7.565506e+002, 1.042556e+002
7.570327e+002, 1.049838e+002
7.575148e+002, 1.052713e+002
7.579969e+002, 1.046056e+002
7.584791e+002, 1.041851e+002
7.589612e+002, 1.040977e+002
7.594433e+002, 1.041568e+002
7.599254e+002, 1.040871e+002
7.604075e+002, 1.038706e+002
7.608896e+002, 1.039815e+002
7.613718e+002, 1.045792e+002
7.618539e+002, 1.052386e+002
7.623360e+002, 1.054060e+002
7.628181e+002, 1.052137e+002
7.633002e+002, 1.049109e+002
7.637823e+002, 1.044357e+002
7.642645e+002, 1.041139e+002
7.647466e+002, 1.041765e+002
7.652287e+002, 1.044898e+002
7.657108e+002, 1.048588e+002
7.661929e+002, 1.054735e+002
7.666750e+002, 1.058206e+002
7.671572e+002, 1.057684e+002
7.676393e+002, 1.054954e+002
7.681214e+002, 1.053348e+002
7.686035e+002, 1.052975e+002
7.690856e+002, 1.051968e+002
7.695677e+002, 1.049323e+002
7.700499e+002, 1.046786e+002
7.705320e+002, 1.047307e+002
7.710141e+002, 1.050126e+002
7.714962e+002, 1.053330e+002
7.719783e+002, 1.058320e+002
7.724604e+002, 1.061123e+002
7.729426e+002, 1.057102e+002
7.734247e+002, 1.049499e+002
7.739068e+002, 1.046023e+002
7.743889e+002, 1.051401e+002
7.748710e+002, 1.055446e+002
7.753531e+002, 1.056060e+002
7.758353e+002, 1.054402e+002
7.763174e+002, 1.053707e+002
7.767995e+002, 1.054021e+002
7.772816e+002, 1.054588e+002
7.777637e+002, 1.055154e+002
7.782458e+002, 1.055811e+002
7.787280e+002, 1.056874e+002
7.792101e+002, 1.058195e+002
7.796922e+002, 1.059274e+002
7.801743e+002, 1.060113e+002
7.806564e+002, 1.060428e+002
7.811385e+002, 1.059928e+002
7.816207e+002, 1.058743e+002
7.821028e+002, 1.057406e+002
7.825849e+002, 1.055350e+002
7.830670e+002, 1.054109e+002
7.835491e+002, 1.054320e+002
7.840313e+002, 1.055575e+002
7.845134e+002, 1.055933e+002
7.849955e+002, 1.055356e+002
7.854776e+002, 1.056014e+002
7.859597e+002, 1.060789e+002
7.864418e+002, 1.066076e+002
7.869240e+002, 1.064640e+002
7.874061e+002, 1.058322e+002
7.878882e+002, 1.053906e+002
7.883703e+002, 1.056975e+002
7.888524e+002, 1.060781e+002
7.893345e+002, 1.061430e+002
7.898167e+002, 1.059472e+002
7.902988e+002, 1.060255e+002
7.907809e+002, 1.066750e+002
7.912630e+002, 1.070482e+002
7.917451e+002, 1.066972e+002
7.922272e+002, 1.058762e+002
7.927094e+002, 1.057874e+002
7.931915e+002, 1.064035e+002
7.936736e+002, 1.070065e+002
7.941557e+002, 1.072452e+002
7.946378e+002, 1.072019e+002
7.951199e+002, 1.067805e+002
7.956021e+002, 1.061076e+002
7.960842e+002, 1.057240e+002
7.965663e+002, 1.060817e+002
7.970484e+002, 1.065759e+002
7.975305e+002, 1.070456e+002
7.980126e+002, 1.074555e+002
7.984948e+002, 1.075316e+002
7.989769e+002, 1.071617e+002
7.994590e+002, 1.067236e+002
7.999411e+002, 1.063355e+002
8.004232e+002, 1.060140e+002
8.009053e+002, 1.058166e+002
8.013875e+002, 1.057509e+002
8.018696e+002, 1.058863e+002
8.023517e+002, 1.065591e+002
8.028338e+002, 1.072442e+002
8.033159e+002, 1.073137e+002
8.037980e+002, 1.068690e+002
8.042802e+002, 1.065643e+002
8.047623e+002, 1.069054e+002
8.052444e+002, 1.070991e+002
8.057265e+002, 1.067006e+002
8.062086e+002, 1.058291e+002
8.066907e+002, 1.056267e+002
8.071729e+002, 1.062478e+002
8.076550e+002, 1.068706e+002
8.081371e+002, 1.070502e+002
8.086192e+002, 1.069753e+002
8.091013e+002, 1.072263e+002
8.095834e+002, 1.077293e+002
8.100656e+002, 1.080619e+002
8.105477e+002, 1.077784e+002
8.110298e+002, 1.074065e+002
8.115119e+002, 1.073411e+002
8.119940e+002, 1.075487e+002
8.124761e+002, 1.076602e+002
8.129583e+002, 1.074741e+002
8.134404e+002, 1.073792e+002
8.139225e+002, 1.075383e+002
8.144046e+002, 1.078930e+002
8.148867e+002, 1.080793e+002
8.153688e+002, 1.080883e+002
8.158510e+002, 1.080834e+002
8.163331e+002, 1.081542e+002
8.168152e+002, 1.082588e+002
8.172973e+002, 1.083231e+002
8.177794e+002, 1.083561e+002
8.182615e+002, 1.083969e+002
8.187437e+002, 1.084893e+002
8.192258e+002, 1.085665e+002
8.197079e+002, 1.086071e+002
8.201900e+002, 1.086046e+002
8.206721e+002, 1.085400e+002
8.211542e+002, 1.083768e+002
8.216364e+002, 1.082225e+002
8.221185e+002, 1.080816e+002
8.226006e+002, 1.079913e+002
8.230827e+002, 1.081656e+002
8.235648e+002, 1.085569e+002
8.240469e+002, 1.087811e+002
8.245291e+002, 1.083963e+002
8.250112e+002, 1.079446e+002
8.254933e+002, 1.080696e+002
8.259754e+002, 1.085771e+002
8.264575e+002, 1.088456e+002
8.269396e+002, 1.083599e+002
8.274218e+002, 1.079784e+002
8.279039e+002, 1.079449e+002
8.283860e+002, 1.081795e+002
8.288681e+002, 1.084360e+002
8.293502e+002, 1.087257e+002
8.298323e+002, 1.089898e+002
8.303145e+002, 1.092307e+002
8.307966e+002, 1.094076e+002
8.312787e+002, 1.094127e+002
8.317608e+002, 1.092836e+002
8.322429e+002, 1.091381e+002
8.327250e+002, 1.089650e+002
8.332072e+002, 1.088549e+002
8.336893e+002, 1.088951e+002
8.341714e+002, 1.090342e+002
8.346535e+002, 1.091295e+002
8.351356e+002, 1.090762e+002
8.356177e+002, 1.091642e+002
8.360999e+002, 1.095157e+002
8.365820e+002, 1.099739e+002
8.370641e+002, 1.101389e+002
8.375462e+002, 1.100415e+002
8.380283e+002, 1.100584e+002
8.385104e+002, 1.104078e+002
8.389926e+002, 1.107389e+002
8.394747e+002, 1.105751e+002
8.399568e+002, 1.101359e+002
8.404389e+002, 1.098011e+002
8.409210e+002, 1.098443e+002
8.414031e+002, 1.098272e+002
8.418853e+002, 1.094993e+002
8.423674e+002, 1.091348e+002
8.428495e+002, 1.091795e+002
8.433316e+002, 1.097465e+002
8.438137e+002, 1.101315e+002
8.442958e+002, 1.101788e+002
8.447780e+002, 1.101178e+002
8.452601e+002, 1.103530e+002
8.457422e+002, 1.107402e+002
8.462243e+002, 1.109121e+002
8.467064e+002, 1.106814e+002
8.471885e+002, 1.104447e+002
8.476707e+002, 1.104628e+002
8.481528e+002, 1.105857e+002
8.486349e+002, 1.106328e+002
8.491170e+002, 1.104651e+002
8.495991e+002, 1.104798e+002
8.500812e+002, 1.108182e+002
8.505634e+002, 1.111302e+002
8.510455e+002, 1.108644e+002
8.515276e+002, 1.101371e+002
8.520097e+002, 1.099200e+002
8.524918e+002, 1.103988e+002
8.529739e+002, 1.109510e+002
8.534561e+002, 1.110123e+002
8.539382e+002, 1.108264e+002
8.544203e+002, 1.106233e+002
8.549024e+002, 1.103815e+002
8.553845e+002, 1.103458e+002
8.558666e+002, 1.107738e+002
8.563488e+002, 1.112298e+002
8.568309e+002, 1.113946e+002
8.573130e+002, 1.112133e+002
8.577951e+002, 1.111964e+002
8.582772e+002, 1.113700e+002
8.587593e+002, 1.115246e+002
8.592415e+002, 1.114264e+002
8.597236e+002, 1.112038e+002
8.602057e+002, 1.110649e+002
8.606878e+002, 1.110286e+002
8.611699e+002, 1.110353e+002
8.616520e+002, 1.110852e+002
8.621342e+002, 1.111452e+002
8.626163e+002, 1.111755e+002
8.630984e+002, 1.111702e+002
8.635805e+002, 1.113054e+002
8.640626e+002, 1.116509e+002
8.645447e+002, 1.119372e+002
8.650269e+002, 1.119909e+002
8.655090e+002, 1.118715e+002
8.659911e+002, 1.117525e+002
8.664732e+002, 1.116397e+002
8.669553e+002, 1.115621e+002
8.674374e+002, 1.115598e+002
8.679196e+002, 1.115816e+002
8.684017e+002, 1.115688e+002
8.688838e+002, 1.115345e+002
8.693659e+002, 1.116011e+002
8.698480e+002, 1.118616e+002
8.703301e+002, 1.120755e+002
8.708123e+002, 1.121792e+002
8.712944e+002, 1.121820e+002
8.717765e+002, 1.120408e+002
8.722586e+002, 1.117829e+002
8.727407e+002, 1.117155e+002
8.732228e+002, 1.121276e+002
8.737050e+002, 1.126171e+002
8.741871e+002, 1.127226e+002
8.746692e+002, 1.125931e+002
8.751513e+002, 1.125543e+002
8.756334e+002, 1.128821e+002
8.761155e+002, 1.130879e+002
8.765977e+002, 1.130247e+002
8.770798e+002, 1.128399e+002
8.775619e+002, 1.128370e+002
8.780440e+002, 1.130404e+002
8.785261e+002, 1.130507e+002
8.790082e+002, 1.127177e+002
8.794904e+002, 1.123582e+002
8.799725e+002, 1.124920e+002
8.804546e+002, 1.128612e+002
8.809367e+002, 1.129775e+002
8.814188e+002, 1.125022e+002
8.819009e+002, 1.122141e+002
8.823831e+002, 1.126957e+002
8.828652e+002, 1.133018e+002
8.833473e+002, 1.133157e+002
8.838294e+002, 1.124630e+002
8.843115e+002, 1.121045e+002
8.847936e+002, 1.123345e+002
8.852758e+002, 1.128790e+002
8.857579e+002, 1.137372e+002
8.862400e+002, 1.146437e+002
8.867221e+002, 1.148618e+002
8.872042e+002, 1.142642e+002
8.876863e+002, 1.137478e+002
8.881685e+002, 1.137286e+002
8.886506e+002, 1.140467e+002
8.891327e+002, 1.147486e+002
8.896148e+002, 1.159444e+002
8.900969e+002, 1.164842e+002
8.905790e+002, 1.161457e+002
8.910612e+002, 1.157281e+002
8.915433e+002, 1.157645e+002
8.920254e+002, 1.161007e+002
8.925075e+002, 1.161804e+002
8.929896e+002, 1.160173e+002
8.934717e+002, 1.157378e+002
8.939539e+002, 1.151608e+002
8.944360e+002, 1.147200e+002
8.949181e+002, 1.148704e+002
8.954002e+002, 1.154924e+002
8.958823e+002, 1.157325e+002
8.963644e+002, 1.152640e+002
8.968466e+002, 1.149557e+002
8.973287e+002, 1.150506e+002
8.978108e+002, 1.154496e+002
8.982929e+002, 1.160051e+002
8.987750e+002, 1.166692e+002
8.992571e+002, 1.171341e+002
8.997393e+002, 1.172178e+002
9.002214e+002, 1.171590e+002
9.007035e+002, 1.170314e+002
9.011856e+002, 1.169264e+002
9.016677e+002, 1.169997e+002
9.021498e+002, 1.175881e+002
9.026320e+002, 1.179189e+002
9.031141e+002, 1.178620e+002
9.035962e+002, 1.176302e+002
9.040783e+002, 1.174535e+002
9.045604e+002, 1.173387e+002
9.050425e+002, 1.174613e+002
9.055247e+002, 1.178904e+002
9.060068e+002, 1.182806e+002
9.064889e+002, 1.178477e+002
9.069710e+002, 1.174408e+002
9.074531e+002, 1.183084e+002
9.079352e+002, 1.213601e+002
9.084174e+002, 1.228999e+002
9.088995e+002, 1.214091e+002
9.093816e+002, 1.195126e+002
9.098637e+002, 1.188193e+002
9.103458e+002, 1.193157e+002
9.108279e+002, 1.196051e+002
9.113101e+002, 1.196825e+002
9.117922e+002, 1.197820e+002
9.122743e+002, 1.201875e+002
9.127564e+002, 1.206266e+002
9.132385e+002, 1.207087e+002
9.137206e+002, 1.204883e+002
9.142028e+002, 1.204512e+002
9.146849e+002, 1.208561e+002
9.151670e+002, 1.213517e+002
9.156491e+002, 1.219174e+002
9.161312e+002, 1.224784e+002
9.166133e+002, 1.226959e+002
9.170955e+002, 1.225663e+002
9.175776e+002, 1.223791e+002
9.180597e+002, 1.220607e+002
9.185418e+002, 1.220124e+002
9.190239e+002, 1.231582e+002
9.195060e+002, 1.248775e+002
9.199882e+002, 1.259529e+002
9.204703e+002, 1.253654e+002
9.209524e+002, 1.249129e+002
9.214345e+002, 1.248145e+002
9.219166e+002, 1.250394e+002
9.223987e+002, 1.256709e+002
9.228809e+002, 1.267509e+002
9.233630e+002, 1.275217e+002
9.238451e+002, 1.278606e+002
9.243272e+002, 1.281239e+002
9.248093e+002, 1.287965e+002
9.252914e+002, 1.295714e+002
9.257736e+002, 1.299692e+002
9.262557e+002, 1.298444e+002
9.267378e+002, 1.298640e+002
9.272199e+002, 1.301853e+002
9.277020e+002, 1.307493e+002
9.281841e+002, 1.316056e+002
9.286663e+002, 1.327511e+002
9.291484e+002, 1.337007e+002
9.296305e+002, 1.344564e+002
9.301126e+002, 1.351458e+002
9.305947e+002, 1.357178e+002
9.310768e+002, 1.363680e+002
9.315590e+002, 1.374285e+002
9.320411e+002, 1.388158e+002
9.325232e+002, 1.401059e+002
9.330053e+002, 1.409240e+002
9.334874e+002, 1.419516e+002
9.339695e+002, 1.434787e+002
9.344517e+002, 1.452664e+002
9.349338e+002, 1.466658e+002
9.354159e+002, 1.476512e+002
9.358980e+002, 1.490559e+002
9.363801e+002, 1.511581e+002
9.368622e+002, 1.535438e+002
9.373444e+002, 1.557156e+002
9.378265e+002, 1.578068e+002
9.383086e+002, 1.600601e+002
9.387907e+002, 1.626673e+002
9.392728e+002, 1.651271e+002
9.397549e+002, 1.671081e+002
9.402371e+002, 1.691358e+002
9.407192e+002, 1.718303e+002
9.412013e+002, 1.752144e+002
9.416834e+002, 1.779633e+002
9.421655e+002, 1.799954e+002
9.426476e+002, 1.819533e+002
9.431298e+002, 1.845633e+002
9.436119e+002, 1.872243e+002
9.440940e+002, 1.893280e+002
9.445761e+002, 1.908555e+002
9.450582e+002, 1.920823e+002
9.455403e+002, 1.929768e+002
9.460225e+002, 1.937017e+002
9.465046e+002, 1.943615e+002
9.469867e+002, 1.948750e+002
9.474688e+002, 1.948197e+002
9.479509e+002, 1.942271e+002
9.484330e+002, 1.935694e+002
9.489152e+002, 1.929467e+002
9.493973e+002, 1.924783e+002
9.498794e+002, 1.922638e+002
9.503615e+002, 1.922888e+002
9.508436e+002, 1.925288e+002
9.513257e+002, 1.930763e+002
9.518079e+002, 1.937169e+002
9.522900e+002, 1.944611e+002
9.527721e+002, 1.952636e+002
9.532542e+002, 1.960239e+002
9.537363e+002, 1.967724e+002
9.542184e+002, 1.976739e+002
9.547006e+002, 1.987325e+002
9.551827e+002, 2.002041e+002
9.556648e+002, 2.025355e+002
9.561469e+002, 2.052324e+002
9.566290e+002, 2.078264e+002
9.571111e+002, 2.102527e+002
9.575933e+002, 2.128581e+002
9.580754e+002, 2.154808e+002
9.585575e+002, 2.186494e+002
9.590396e+002, 2.227805e+002
9.595217e+002, 2.275514e+002
9.600038e+002, 2.317903e+002
9.604860e+002, 2.356440e+002
9.609681e+002, 2.398917e+002
9.614502e+002, 2.449209e+002
9.619323e+002, 2.504494e+002
9.624144e+002, 2.565233e+002
9.628965e+002, 2.629190e+002
9.633787e+002, 2.690006e+002
9.638608e+002, 2.746895e+002
9.643429e+002, 2.802765e+002
9.648250e+002, 2.857309e+002
9.653071e+002, 2.913554e+002
9.657892e+002, 2.975673e+002
9.662714e+002, 3.041967e+002
9.667535e+002, 3.108492e+002
9.672356e+002, 3.173301e+002
9.677177e+002, 3.243603e+002
9.681998e+002, 3.322635e+002
9.686819e+002, 3.408542e+002
9.691641e+002, 3.498854e+002
9.696462e+002, 3.594231e+002
9.701283e+002, 3.694738e+002
9.706104e+002, 3.800898e+002
9.710925e+002, 3.916002e+002
9.715746e+002, 4.043191e+002
9.720568e+002, 4.181461e+002
9.725389e+002, 4.330138e+002
9.730210e+002, 4.489675e+002
9.735031e+002, 4.657216e+002
9.739852e+002, 4.831672e+002
9.744673e+002, 5.014378e+002
9.749495e+002, 5.206618e+002
9.754316e+002, 5.407003e+002
9.759137e+002, 5.613069e+002
9.763958e+002, 5.824830e+002
9.768779e+002, 6.030757e+002
9.773600e+002, 6.230123e+002
9.778422e+002, 6.414700e+002
9.783243e+002, 6.589343e+002
9.788064e+002, 6.740579e+002
9.792885e+002, 6.850800e+002
9.797706e+002, 6.918338e+002
9.802527e+002, 6.936920e+002
9.807349e+002, 6.908385e+002
9.812170e+002, 6.830481e+002
9.816991e+002, 6.699066e+002
9.821812e+002, 6.516476e+002
9.826633e+002, 6.295891e+002
9.831454e+002, 6.039351e+002
9.836276e+002, 5.770751e+002
9.841097e+002, 5.491866e+002
9.845918e+002, 5.216490e+002
9.850739e+002, 4.957124e+002
9.855560e+002, 4.711180e+002
9.860381e+002, 4.474559e+002
9.865203e+002, 4.239854e+002
9.870024e+002, 4.026787e+002
9.874845e+002, 3.839157e+002
9.879666e+002, 3.671565e+002
9.884487e+002, 3.517704e+002
9.889308e+002, 3.378016e+002
9.894130e+002, 3.250328e+002
9.898951e+002, 3.134847e+002
9.903772e+002, 3.027796e+002
9.908593e+002, 2.926536e+002
9.913414e+002, 2.833444e+002
9.918235e+002, 2.751049e+002
9.923057e+002, 2.678673e+002
9.927878e+002, 2.611465e+002
9.932699e+002, 2.548804e+002
9.937520e+002, 2.491044e+002
9.942341e+002, 2.439756e+002
9.947162e+002, 2.392237e+002
9.951984e+002, 2.345155e+002
9.956805e+002, 2.298285e+002
9.961626e+002, 2.252403e+002
9.966447e+002, 2.204987e+002
9.971268e+002, 2.161729e+002
9.976089e+002, 2.124159e+002
9.980911e+002, 2.090163e+002
9.985732e+002, 2.056473e+002
9.990553e+002, 2.022991e+002
9.995374e+002, 1.997046e+002
1.000020e+003, 1.980725e+002
1.000502e+003, 1.965098e+002
1.000984e+003, 1.940057e+002
1.001466e+003, 1.913368e+002
1.001948e+003, 1.893667e+002
1.002430e+003, 1.882871e+002
1.002912e+003, 1.868431e+002
1.003394e+003, 1.846899e+002
1.003876e+003, 1.827126e+002
1.004359e+003, 1.813723e+002
1.004841e+003, 1.804107e+002
1.005323e+003, 1.790118e+002
1.005805e+003, 1.772945e+002
1.006287e+003, 1.757909e+002
1.006769e+003, 1.747192e+002
1.007251e+003, 1.739113e+002
1.007733e+003, 1.735455e+002
1.008216e+003, 1.732739e+002
1.008698e+003, 1.725746e+002
1.009180e+003, 1.712119e+002
1.009662e+003, 1.703330e+002
1.010144e+003, 1.700609e+002
1.010626e+003, 1.699549e+002
1.011108e+003, 1.696675e+002
1.011590e+003, 1.692302e+002
1.012072e+003, 1.685053e+002
1.012555e+003, 1.675288e+002
1.013037e+003, 1.670824e+002
1.013519e+003, 1.681823e+002
1.014001e+003, 1.689711e+002
1.014483e+003, 1.686806e+002
1.014965e+003, 1.677103e+002
1.015447e+003, 1.674530e+002
1.015929e+003, 1.678469e+002
1.016411e+003, 1.682731e+002
1.016894e+003, 1.685678e+002
1.017376e+003, 1.687391e+002
1.017858e+003, 1.688018e+002
1.018340e+003, 1.687371e+002
1.018822e+003, 1.685000e+002
1.019304e+003, 1.679682e+002
1.019786e+003, 1.675780e+002
1.020268e+003, 1.673625e+002
1.020751e+003, 1.672066e+002
1.021233e+003, 1.671248e+002
1.021715e+003, 1.670120e+002
1.022197e+003, 1.664877e+002
1.022679e+003, 1.656228e+002
1.023161e+003, 1.648719e+002
1.023643e+003, 1.644861e+002
1.024125e+003, 1.642342e+002
1.024607e+003, 1.641555e+002
1.025090e+003, 1.640952e+002
1.025572e+003, 1.637003e+002
1.026054e+003, 1.629432e+002
1.026536e+003, 1.621278e+002
1.027018e+003, 1.612549e+002
1.027500e+003, 1.605436e+002
1.027982e+003, 1.604997e+002
1.028464e+003, 1.605983e+002
1.028947e+003, 1.601739e+002
1.029429e+003, 1.590011e+002
1.029911e+003, 1.579648e+002
1.030393e+003, 1.571893e+002
1.030875e+003, 1.564390e+002
1.031357e+003, 1.555953e+002
1.031839e+003, 1.546975e+002
1.032321e+003, 1.538380e+002
1.032803e+003, 1.530465e+002
1.033286e+003, 1.524100e+002
1.033768e+003, 1.520691e+002
1.034250e+003, 1.517945e+002
1.034732e+003, 1.515511e+002
1.035214e+003, 1.512770e+002
1.035696e+003, 1.508401e+002
1.036178e+003, 1.501460e+002
1.036660e+003, 1.498183e+002
1.037143e+003, 1.499298e+002
1.037625e+003, 1.501702e+002
1.038107e+003, 1.503848e+002
1.038589e+003, 1.504783e+002
1.039071e+003, 1.502530e+002
1.039553e+003, 1.497201e+002
1.040035e+003, 1.493004e+002
1.040517e+003, 1.491487e+002
1.041000e+003, 1.490174e+002
1.041482e+003, 1.488490e+002
1.041964e+003, 1.486570e+002
1.042446e+003, 1.485170e+002
1.042928e+003, 1.483938e+002
1.043410e+003, 1.481305e+002
1.043892e+003, 1.476443e+002
1.044374e+003, 1.471269e+002
1.044856e+003, 1.467202e+002
1.045339e+003, 1.463298e+002
1.045821e+003, 1.458400e+002
1.046303e+003, 1.452143e+002
1.046785e+003, 1.448025e+002
1.047267e+003, 1.446247e+002
1.047749e+003, 1.444930e+002
1.048231e+003, 1.444217e+002
1.048713e+003, 1.442341e+002
1.049195e+003, 1.434970e+002
1.049677e+003, 1.424433e+002
1.050160e+003, 1.417618e+002
1.050642e+003, 1.420473e+002
1.051124e+003, 1.421616e+002
1.051606e+003, 1.419433e+002
1.052088e+003, 1.415656e+002
1.052570e+003, 1.412267e+002
1.053052e+003, 1.409258e+002
1.053534e+003, 1.406646e+002
1.054017e+003, 1.404409e+002
1.054499e+003, 1.403255e+002
1.054981e+003, 1.403731e+002
1.055463e+003, 1.405386e+002
1.055945e+003, 1.409518e+002
1.056427e+003, 1.414987e+002
1.056909e+003, 1.413258e+002
1.057391e+003, 1.403358e+002
1.057874e+003, 1.398171e+002
1.058356e+003, 1.403977e+002
1.058838e+003, 1.412422e+002
1.059320e+003, 1.413352e+002
1.059802e+003, 1.410309e+002
1.060284e+003, 1.408414e+002
1.060766e+003, 1.409426e+002
1.061248e+003, 1.409941e+002
1.061730e+003, 1.409282e+002
1.062213e+003, 1.409189e+002
1.062695e+003, 1.411965e+002
1.063177e+003, 1.416218e+002
1.063659e+003, 1.416146e+002
1.064141e+003, 1.412647e+002
1.064623e+003, 1.410036e+002
1.065105e+003, 1.410977e+002
1.065587e+003, 1.412639e+002
1.066070e+003, 1.414145e+002
1.066552e+003, 1.415578e+002
1.067034e+003, 1.416842e+002
1.067516e+003, 1.417876e+002
1.067998e+003, 1.420199e+002
1.068480e+003, 1.424006e+002
1.068962e+003, 1.428684e+002
1.069444e+003, 1.432956e+002
1.069927e+003, 1.438374e+002
1.070409e+003, 1.447616e+002
1.070891e+003, 1.460592e+002
1.071373e+003, 1.469830e+002
1.071855e+003, 1.473078e+002
1.072337e+003, 1.478599e+002
1.072819e+003, 1.489667e+002
1.073301e+003, 1.503410e+002
1.073783e+003, 1.515374e+002
1.074266e+003, 1.526107e+002
1.074748e+003, 1.536939e+002
1.075230e+003, 1.548589e+002
1.075712e+003, 1.559260e+002
1.076194e+003, 1.568174e+002
1.076676e+003, 1.576420e+002
1.077158e+003, 1.584475e+002
1.077640e+003, 1.592401e+002
1.078122e+003, 1.601179e+002
1.078604e+003, 1.610781e+002
1.079087e+003, 1.620987e+002
1.079569e+003, 1.633660e+002
1.080051e+003, 1.644784e+002
1.080533e+003, 1.650434e+002
1.081015e+003, 1.653265e+002
1.081497e+003, 1.658833e+002
1.081979e+003, 1.668471e+002
1.082461e+003, 1.674153e+002
1.082944e+003, 1.675079e+002
1.083426e+003, 1.673416e+002
1.083908e+003, 1.670663e+002
1.084390e+003, 1.666838e+002
1.084872e+003, 1.662524e+002
1.085354e+003, 1.657494e+002
1.085836e+003, 1.648873e+002
1.086318e+003, 1.631607e+002
1.086801e+003, 1.619948e+002
1.087283e+003, 1.619154e+002
1.087765e+003, 1.622663e+002
1.088247e+003, 1.618649e+002
1.088729e+003, 1.609101e+002
1.089211e+003, 1.598914e+002
1.089693e+003, 1.588788e+002
1.090175e+003, 1.579547e+002
1.090657e+003, 1.571593e+002
1.091140e+003, 1.564662e+002
1.091622e+003, 1.558998e+002
1.092104e+003, 1.554299e+002
1.092586e+003, 1.547312e+002
1.093068e+003, 1.538360e+002
1.093550e+003, 1.531768e+002
1.094032e+003, 1.530811e+002
1.094514e+003, 1.530744e+002
1.094997e+003, 1.527092e+002
1.095479e+003, 1.522791e+002
1.095961e+003, 1.522202e+002
1.096443e+003, 1.527570e+002
1.096925e+003, 1.528450e+002
1.097407e+003, 1.524038e+002
1.097889e+003, 1.520119e+002
1.098371e+003, 1.523083e+002
1.098854e+003, 1.527876e+002
1.099336e+003, 1.526733e+002
1.099818e+003, 1.521481e+002
1.100300e+003, 1.519834e+002
1.100782e+003, 1.526019e+002
1.101264e+003, 1.531818e+002
1.101746e+003, 1.536790e+002
1.102228e+003, 1.539884e+002
1.102710e+003, 1.537757e+002
1.103193e+003, 1.533008e+002
1.103675e+003, 1.532498e+002
1.104157e+003, 1.537045e+002
1.104639e+003, 1.541630e+002
1.105121e+003, 1.544838e+002
1.105603e+003, 1.546662e+002
1.106085e+003, 1.546498e+002
1.106567e+003, 1.545389e+002
1.107049e+003, 1.548215e+002
1.107531e+003, 1.553927e+002
1.108014e+003, 1.553459e+002
1.108496e+003, 1.542750e+002
1.108978e+003, 1.531080e+002
1.109460e+003, 1.524628e+002
1.109942e+003, 1.520377e+002
1.110424e+003, 1.516199e+002
1.110906e+003, 1.512022e+002
1.111388e+003, 1.505950e+002
1.111871e+003, 1.497863e+002
1.112353e+003, 1.489505e+002
1.112835e+003, 1.481369e+002
1.113317e+003, 1.473888e+002
1.113799e+003, 1.467281e+002
1.114281e+003, 1.461886e+002
1.114763e+003, 1.458372e+002
1.115245e+003, 1.459152e+002
1.115728e+003, 1.456551e+002
1.116210e+003, 1.449380e+002
1.116692e+003, 1.442864e+002
1.117174e+003, 1.443244e+002
1.117656e+003, 1.446373e+002
1.118138e+003, 1.444170e+002
1.118620e+003, 1.437658e+002
1.119102e+003, 1.431848e+002
1.119584e+003, 1.428116e+002
1.120067e+003, 1.425852e+002
1.120549e+003, 1.425424e+002
1.121031e+003, 1.425593e+002
1.121513e+003, 1.424274e+002
1.121995e+003, 1.422147e+002
1.122477e+003, 1.421887e+002
1.122959e+003, 1.423691e+002
1.123441e+003, 1.425344e+002
1.123924e+003, 1.425009e+002
1.124406e+003, 1.425028e+002
1.124888e+003, 1.426495e+002
1.125370e+003, 1.428976e+002
1.125852e+003, 1.431458e+002
1.126334e+003, 1.433933e+002
1.126816e+003, 1.435775e+002
1.127298e+003, 1.436538e+002
1.127781e+003, 1.438255e+002
1.128263e+003, 1.444968e+002
1.128745e+003, 1.451290e+002
1.129227e+003, 1.451563e+002
1.129709e+003, 1.446189e+002
1.130191e+003, 1.445153e+002
1.130673e+003, 1.448687e+002
1.131155e+003, 1.452844e+002
1.131637e+003, 1.456164e+002
1.132120e+003, 1.459192e+002
1.132602e+003, 1.463016e+002
1.133084e+003, 1.466689e+002
1.133566e+003, 1.468628e+002
1.134048e+003, 1.468038e+002
1.134530e+003, 1.467764e+002
1.135012e+003, 1.467621e+002
1.135494e+003, 1.468506e+002
1.135976e+003, 1.471167e+002
1.136458e+003, 1.475122e+002
1.136941e+003, 1.481547e+002
1.137423e+003, 1.488461e+002
1.137905e+003, 1.491029e+002
1.138387e+003, 1.482455e+002
1.138869e+003, 1.477816e+002
1.139351e+003, 1.478572e+002
1.139833e+003, 1.481823e+002
1.140315e+003, 1.485598e+002
1.140798e+003, 1.489439e+002
1.141280e+003, 1.491916e+002
1.141762e+003, 1.493249e+002
1.142244e+003, 1.495012e+002
1.142726e+003, 1.498925e+002
1.143208e+003, 1.501814e+002
1.143690e+003, 1.502422e+002
1.144172e+003, 1.502436e+002
1.144655e+003, 1.505135e+002
1.145137e+003, 1.509558e+002
1.145619e+003, 1.511859e+002
1.146101e+003, 1.511547e+002
1.146583e+003, 1.510479e+002
1.147065e+003, 1.509139e+002
1.147547e+003, 1.507935e+002
1.148029e+003, 1.507500e+002
1.148511e+003, 1.507155e+002
1.148994e+003, 1.504807e+002
1.149476e+003, 1.500600e+002
1.149958e+003, 1.495350e+002
1.150440e+003, 1.488702e+002
1.150922e+003, 1.483602e+002
1.151404e+003, 1.484194e+002
1.151886e+003, 1.485418e+002
1.152368e+003, 1.483500e+002
1.152851e+003, 1.478627e+002
1.153333e+003, 1.472100e+002
1.153815e+003, 1.463885e+002
1.154297e+003, 1.457451e+002
1.154779e+003, 1.455308e+002
1.155261e+003, 1.452628e+002
1.155743e+003, 1.443732e+002
1.156225e+003, 1.432659e+002
1.156708e+003, 1.424272e+002
1.157190e+003, 1.419131e+002
1.157672e+003, 1.413592e+002
1.158154e+003, 1.407597e+002
1.158636e+003, 1.401780e+002
1.159118e+003, 1.396400e+002
1.159600e+003, 1.391617e+002
1.160082e+003, 1.389142e+002
1.160564e+003, 1.386976e+002
1.161047e+003, 1.381242e+002
1.161529e+003, 1.368256e+002
1.162011e+003, 1.359942e+002
1.162493e+003, 1.357313e+002
1.162975e+003, 1.355224e+002
1.163457e+003, 1.349342e+002
1.163939e+003, 1.341848e+002
1.164421e+003, 1.335666e+002
1.164903e+003, 1.330484e+002
1.165385e+003, 1.325179e+002
1.165868e+003, 1.318703e+002
1.166350e+003, 1.313682e+002
1.166832e+003, 1.310524e+002
1.167314e+003, 1.308301e+002
1.167796e+003, 1.306868e+002
1.168278e+003, 1.305367e+002
1.168760e+003, 1.301685e+002
1.169242e+003, 1.296178e+002
1.169725e+003, 1.291860e+002
1.170207e+003, 1.290110e+002
1.170689e+003, 1.289212e+002
1.171171e+003, 1.289699e+002
1.171653e+003, 1.289476e+002
1.172135e+003, 1.284014e+002
1.172617e+003, 1.275998e+002
1.173099e+003, 1.271791e+002
1.173582e+003, 1.272049e+002
1.174064e+003, 1.271979e+002
1.174546e+003, 1.269063e+002
1.175028e+003, 1.266652e+002
1.175510e+003, 1.265940e+002
1.175992e+003, 1.265775e+002
1.176474e+003, 1.262898e+002
1.176956e+003, 1.258729e+002
1.177438e+003, 1.257951e+002
1.177921e+003, 1.261844e+002
1.178403e+003, 1.265334e+002
1.178885e+003, 1.265712e+002
1.179367e+003, 1.266122e+002
1.179849e+003, 1.268563e+002
1.180331e+003, 1.271444e+002
1.180813e+003, 1.268297e+002
1.181295e+003, 1.261047e+002
1.181778e+003, 1.257448e+002
1.182260e+003, 1.260957e+002
1.182742e+003, 1.263390e+002
1.183224e+003, 1.258627e+002
1.183706e+003, 1.254234e+002
1.184188e+003, 1.254802e+002
1.184670e+003, 1.259241e+002
1.185152e+003, 1.262330e+002
1.185635e+003, 1.263906e+002
1.186117e+003, 1.262942e+002
1.186599e+003, 1.257124e+002
1.187081e+003, 1.252730e+002
1.187563e+003, 1.254606e+002
1.188045e+003, 1.257664e+002
1.188527e+003, 1.257892e+002
1.189009e+003, 1.255595e+002
1.189491e+003, 1.255120e+002
1.189974e+003, 1.256139e+002
1.190456e+003, 1.256175e+002
1.190938e+003, 1.251736e+002
1.191420e+003, 1.249090e+002
1.191902e+003, 1.253761e+002
1.192384e+003, 1.259987e+002
1.192866e+003, 1.261954e+002
1.193348e+003, 1.259567e+002
1.193830e+003, 1.257683e+002
1.194313e+003, 1.256244e+002
1.194795e+003, 1.254367e+002
1.195277e+003, 1.248900e+002
1.195759e+003, 1.245774e+002
1.196241e+003, 1.251927e+002
1.196723e+003, 1.260092e+002
1.197205e+003, 1.259774e+002
1.197687e+003, 1.250611e+002
1.198169e+003, 1.248370e+002
1.198652e+003, 1.253516e+002
1.199134e+003, 1.258939e+002
1.199616e+003, 1.258872e+002
1.200098e+003, 1.258624e+002
1.200580e+003, 1.262981e+002
1.201062e+003, 1.268449e+002
1.201544e+003, 1.268972e+002
1.202026e+003, 1.264422e+002
1.202509e+003, 1.258903e+002
1.202991e+003, 1.252735e+002
1.203473e+003, 1.249799e+002
1.203955e+003, 1.257430e+002
1.204437e+003, 1.264686e+002
1.204919e+003, 1.262407e+002
1.205401e+003, 1.255102e+002
1.205883e+003, 1.253197e+002
1.206365e+003, 1.256800e+002
1.206848e+003, 1.258974e+002
1.207330e+003, 1.258748e+002
1.207812e+003, 1.257966e+002
1.208294e+003, 1.258021e+002
1.208776e+003, 1.258043e+002
1.209258e+003, 1.257233e+002
1.209740e+003, 1.255936e+002
1.210222e+003, 1.254782e+002
1.210705e+003, 1.253759e+002
1.211187e+003, 1.255023e+002
1.211669e+003, 1.259193e+002
1.212151e+003, 1.263525e+002
1.212633e+003, 1.267349e+002
1.213115e+003, 1.269113e+002
1.213597e+003, 1.266111e+002
1.214079e+003, 1.260120e+002
1.214562e+003, 1.257009e+002
1.215044e+003, 1.256750e+002
1.215526e+003, 1.258384e+002
1.216008e+003, 1.262120e+002
1.216490e+003, 1.265341e+002
1.216972e+003, 1.265910e+002
1.217454e+003, 1.265174e+002
1.217936e+003, 1.263693e+002
1.218418e+003, 1.261780e+002
1.218901e+003, 1.260726e+002
1.219383e+003, 1.260521e+002
1.219865e+003, 1.261610e+002
1.220347e+003, 1.264444e+002
1.220829e+003, 1.267225e+002
1.221311e+003, 1.269877e+002
1.221793e+003, 1.270686e+002
1.222275e+003, 1.267318e+002
1.222757e+003, 1.260837e+002
1.223240e+003, 1.259551e+002
1.223722e+003, 1.263032e+002
1.224204e+003, 1.265683e+002
1.224686e+003, 1.265692e+002
1.225168e+003, 1.264340e+002
1.225650e+003, 1.260219e+002
1.226132e+003, 1.257267e+002
1.226614e+003, 1.259437e+002
1.227096e+003, 1.265717e+002
1.227579e+003, 1.265652e+002
1.228061e+003, 1.260143e+002
1.228543e+003, 1.257209e+002
1.229025e+003, 1.260762e+002
1.229507e+003, 1.265539e+002
1.229989e+003, 1.270183e+002
1.230471e+003, 1.273161e+002
1.230953e+003, 1.272518e+002
1.231436e+003, 1.268954e+002
1.231918e+003, 1.270633e+002
1.232400e+003, 1.276468e+002
1.232882e+003, 1.278694e+002
1.233364e+003, 1.270820e+002
1.233846e+003, 1.264967e+002
1.234328e+003, 1.269805e+002
1.234810e+003, 1.276438e+002
1.235292e+003, 1.278511e+002
1.235775e+003, 1.276534e+002
1.236257e+003, 1.274038e+002
1.236739e+003, 1.271291e+002
1.237221e+003, 1.269619e+002
1.237703e+003, 1.269655e+002
1.238185e+003, 1.270790e+002
1.238667e+003, 1.274235e+002
1.239149e+003, 1.277251e+002
1.239632e+003, 1.277597e+002
1.240114e+003, 1.275732e+002
1.240596e+003, 1.274455e+002
1.241078e+003, 1.273546e+002
1.241560e+003, 1.272009e+002
1.242042e+003, 1.267875e+002
1.242524e+003, 1.265376e+002
1.243006e+003, 1.266046e+002
1.243489e+003, 1.267894e+002
1.243971e+003, 1.269610e+002
1.244453e+003, 1.271219e+002
1.244935e+003, 1.272953e+002
1.245417e+003, 1.274657e+002
1.245899e+003, 1.275687e+002
1.246381e+003, 1.275717e+002
1.246863e+003, 1.274926e+002
1.247345e+003, 1.272507e+002
1.247828e+003, 1.270943e+002
1.248310e+003, 1.273558e+002
1.248792e+003, 1.278309e+002
1.249274e+003, 1.278972e+002
1.249756e+003, 1.276803e+002
1.250238e+003, 1.276300e+002
1.250720e+003, 1.281982e+002
1.251202e+003, 1.284748e+002
1.251684e+003, 1.283215e+002
1.252167e+003, 1.280450e+002
1.252649e+003, 1.279068e+002
1.253131e+003, 1.278316e+002
1.253613e+003, 1.276367e+002
1.254095e+003, 1.273717e+002
1.254577e+003, 1.272087e+002
1.255059e+003, 1.271433e+002
1.255541e+003, 1.273334e+002
1.256023e+003, 1.279019e+002
1.256506e+003, 1.283265e+002
1.256988e+003, 1.278948e+002
1.257470e+003, 1.272157e+002
1.257952e+003, 1.272604e+002
1.258434e+003, 1.277883e+002
1.258916e+003, 1.279936e+002
1.259398e+003, 1.275666e+002
1.259880e+003, 1.275182e+002
1.260363e+003, 1.279710e+002
1.260845e+003, 1.284158e+002
1.261327e+003, 1.284413e+002
1.261809e+003, 1.282251e+002
1.262291e+003, 1.278335e+002
1.262773e+003, 1.273668e+002
1.263255e+003, 1.270486e+002
1.263737e+003, 1.268654e+002
1.264219e+003, 1.269518e+002
1.264702e+003, 1.273325e+002
1.265184e+003, 1.277454e+002
1.265666e+003, 1.281226e+002
1.266148e+003, 1.283243e+002
1.266630e+003, 1.280316e+002
1.267112e+003, 1.275577e+002
1.267594e+003, 1.276106e+002
1.268076e+003, 1.282474e+002
1.268559e+003, 1.284725e+002
1.269041e+003, 1.282249e+002
1.269523e+003, 1.279649e+002
1.270005e+003, 1.280442e+002
1.270487e+003, 1.281638e+002
1.270969e+003, 1.281315e+002
1.271451e+003, 1.280442e+002
1.271933e+003, 1.280590e+002
1.272416e+003, 1.281588e+002
1.272898e+003, 1.280814e+002
1.273380e+003, 1.278319e+002
1.273862e+003, 1.276802e+002
1.274344e+003, 1.277849e+002
1.274826e+003, 1.280317e+002
1.275308e+003, 1.285161e+002
1.275790e+003, 1.289595e+002
1.276272e+003, 1.288985e+002
1.276755e+003, 1.285025e+002
1.277237e+003, 1.284402e+002
1.277719e+003, 1.287084e+002
1.278201e+003, 1.289840e+002
1.278683e+003, 1.292951e+002
1.279165e+003, 1.293018e+002
1.279647e+003, 1.287957e+002
1.280129e+003, 1.282750e+002
1.280611e+003, 1.283648e+002
1.281094e+003, 1.288172e+002
1.281576e+003, 1.291386e+002
1.282058e+003, 1.293250e+002
1.282540e+003, 1.294971e+002
1.283022e+003, 1.298657e+002
1.283504e+003, 1.297832e+002
1.283986e+003, 1.290263e+002
1.284468e+003, 1.283618e+002
1.284950e+003, 1.288008e+002
1.285433e+003, 1.296195e+002
1.285915e+003, 1.298531e+002
1.286397e+003, 1.296077e+002
1.286879e+003, 1.294322e+002
1.287361e+003, 1.293438e+002
1.287843e+003, 1.295092e+002
1.288325e+003, 1.299912e+002
1.288807e+003, 1.303275e+002
1.289290e+003, 1.299260e+002
1.289772e+003, 1.293856e+002
1.290254e+003, 1.292448e+002
1.290736e+003, 1.293666e+002
1.291218e+003, 1.293366e+002
1.291700e+003, 1.291279e+002
1.292182e+003, 1.291520e+002
1.292664e+003, 1.294341e+002
1.293146e+003, 1.297603e+002
1.293629e+003, 1.301028e+002
1.294111e+003, 1.303101e+002
1.294593e+003, 1.301502e+002
1.295075e+003, 1.298964e+002
1.295557e+003, 1.299367e+002
1.296039e+003, 1.302150e+002
1.296521e+003, 1.302340e+002
1.297003e+003, 1.299949e+002
1.297486e+003, 1.297656e+002
1.297968e+003, 1.296891e+002
1.298450e+003, 1.296769e+002
1.298932e+003, 1.297381e+002
1.299414e+003, 1.298024e+002
1.299896e+003, 1.297950e+002
1.300378e+003, 1.297318e+002
1.300860e+003, 1.295796e+002
1.301343e+003, 1.294027e+002
1.301825e+003, 1.294504e+002
##END=



