##NAMES=Zincolibethenite
##RRUFFID=R060763
##IDEAL CHEMISTRY=Cu^2+^Zn^2+^P^5+^O_4_(OH)
##LOCALITY=Kabwe mine, Kabwe, Zambia
##OWNER=RRUFF
##SOURCE=Michael Scott
##DESCRIPTION=Pale greenish-blue botryoidal groups of radiating crystals, associated with colorless tarbuttite
##STATUS=The identification of this mineral has been confirmed only by single crystal X-ray diffraction.
##URL=rruff.info/R060763
8.930109e+001, 0.000000e+000
8.978320e+001, 2.712879e+003
9.026532e+001, 2.717396e+003
9.074744e+001, 2.721118e+003
9.122955e+001, 2.724777e+003
9.171167e+001, 2.730092e+003
9.219379e+001, 2.737430e+003
9.267590e+001, 2.747713e+003
9.315802e+001, 2.755238e+003
9.364014e+001, 2.756145e+003
9.412225e+001, 2.751624e+003
9.460437e+001, 2.743272e+003
9.508649e+001, 2.731298e+003
9.556860e+001, 2.715470e+003
9.605072e+001, 2.696367e+003
9.653284e+001, 2.676191e+003
9.701495e+001, 2.656833e+003
9.749707e+001, 2.638956e+003
9.797919e+001, 2.622306e+003
9.846130e+001, 2.607481e+003
9.894342e+001, 2.593379e+003
9.942554e+001, 2.580236e+003
9.990765e+001, 2.575059e+003
1.003898e+002, 2.580331e+003
1.008719e+002, 2.588064e+003
1.013540e+002, 2.585854e+003
1.018361e+002, 2.571358e+003
1.023182e+002, 2.556506e+003
1.028004e+002, 2.545302e+003
1.032825e+002, 2.538021e+003
1.037646e+002, 2.533620e+003
1.042467e+002, 2.532991e+003
1.047288e+002, 2.534884e+003
1.052109e+002, 2.535878e+003
1.056931e+002, 2.533301e+003
1.061752e+002, 2.533851e+003
1.066573e+002, 2.540749e+003
1.071394e+002, 2.557801e+003
1.076215e+002, 2.574815e+003
1.081036e+002, 2.595375e+003
1.085858e+002, 2.617382e+003
1.090679e+002, 2.628046e+003
1.095500e+002, 2.616522e+003
1.100321e+002, 2.602113e+003
1.105142e+002, 2.595147e+003
1.109963e+002, 2.600625e+003
1.114785e+002, 2.607754e+003
1.119606e+002, 2.616208e+003
1.124427e+002, 2.625902e+003
1.129248e+002, 2.634562e+003
1.134069e+002, 2.641105e+003
1.138890e+002, 2.646911e+003
1.143712e+002, 2.653162e+003
1.148533e+002, 2.659764e+003
1.153354e+002, 2.667091e+003
1.158175e+002, 2.676262e+003
1.162996e+002, 2.687787e+003
1.167817e+002, 2.696695e+003
1.172639e+002, 2.699066e+003
1.177460e+002, 2.698484e+003
1.182281e+002, 2.699487e+003
1.187102e+002, 2.704833e+003
1.191923e+002, 2.711444e+003
1.196744e+002, 2.716812e+003
1.201566e+002, 2.719929e+003
1.206387e+002, 2.725080e+003
1.211208e+002, 2.736519e+003
1.216029e+002, 2.751853e+003
1.220850e+002, 2.766214e+003
1.225671e+002, 2.772718e+003
1.230493e+002, 2.778833e+003
1.235314e+002, 2.793871e+003
1.240135e+002, 2.822642e+003
1.244956e+002, 2.852072e+003
1.249777e+002, 2.867297e+003
1.254598e+002, 2.871385e+003
1.259420e+002, 2.875787e+003
1.264241e+002, 2.889623e+003
1.269062e+002, 2.908592e+003
1.273883e+002, 2.924714e+003
1.278704e+002, 2.935563e+003
1.283525e+002, 2.943808e+003
1.288347e+002, 2.953674e+003
1.293168e+002, 2.965060e+003
1.297989e+002, 2.975577e+003
1.302810e+002, 2.983595e+003
1.307631e+002, 2.989237e+003
1.312452e+002, 2.993327e+003
1.317274e+002, 2.996131e+003
1.322095e+002, 2.997520e+003
1.326916e+002, 2.996150e+003
1.331737e+002, 2.991578e+003
1.336558e+002, 2.987532e+003
1.341379e+002, 2.987755e+003
1.346201e+002, 2.992227e+003
1.351022e+002, 2.998196e+003
1.355843e+002, 3.005040e+003
1.360664e+002, 3.012752e+003
1.365485e+002, 3.021024e+003
1.370306e+002, 3.029934e+003
1.375128e+002, 3.039339e+003
1.379949e+002, 3.049222e+003
1.384770e+002, 3.059527e+003
1.389591e+002, 3.070742e+003
1.394412e+002, 3.083359e+003
1.399233e+002, 3.097347e+003
1.404055e+002, 3.111216e+003
1.408876e+002, 3.125198e+003
1.413697e+002, 3.138760e+003
1.418518e+002, 3.150340e+003
1.423339e+002, 3.157573e+003
1.428160e+002, 3.167887e+003
1.432982e+002, 3.183949e+003
1.437803e+002, 3.206069e+003
1.442624e+002, 3.232836e+003
1.447445e+002, 3.266050e+003
1.452266e+002, 3.303430e+003
1.457087e+002, 3.338767e+003
1.461909e+002, 3.375795e+003
1.466730e+002, 3.406910e+003
1.471551e+002, 3.430089e+003
1.476372e+002, 3.449718e+003
1.481193e+002, 3.453588e+003
1.486014e+002, 3.437600e+003
1.490836e+002, 3.405436e+003
1.495657e+002, 3.368631e+003
1.500478e+002, 3.325492e+003
1.505299e+002, 3.279952e+003
1.510120e+002, 3.233337e+003
1.514941e+002, 3.177813e+003
1.519763e+002, 3.130904e+003
1.524584e+002, 3.094538e+003
1.529405e+002, 3.067631e+003
1.534226e+002, 3.043749e+003
1.539047e+002, 3.023474e+003
1.543868e+002, 3.005386e+003
1.548690e+002, 2.988705e+003
1.553511e+002, 2.969978e+003
1.558332e+002, 2.956213e+003
1.563153e+002, 2.951186e+003
1.567974e+002, 2.953749e+003
1.572795e+002, 2.954589e+003
1.577617e+002, 2.949309e+003
1.582438e+002, 2.942902e+003
1.587259e+002, 2.938982e+003
1.592080e+002, 2.940052e+003
1.596901e+002, 2.942172e+003
1.601722e+002, 2.944235e+003
1.606544e+002, 2.946272e+003
1.611365e+002, 2.949012e+003
1.616186e+002, 2.952475e+003
1.621007e+002, 2.956827e+003
1.625828e+002, 2.962304e+003
1.630649e+002, 2.971095e+003
1.635471e+002, 2.979169e+003
1.640292e+002, 2.983926e+003
1.645113e+002, 2.985251e+003
1.649934e+002, 2.987046e+003
1.654755e+002, 2.992367e+003
1.659576e+002, 2.998957e+003
1.664398e+002, 3.003965e+003
1.669219e+002, 3.003526e+003
1.674040e+002, 3.003112e+003
1.678861e+002, 3.007127e+003
1.683682e+002, 3.016035e+003
1.688503e+002, 3.024709e+003
1.693325e+002, 3.028812e+003
1.698146e+002, 3.030657e+003
1.702967e+002, 3.033915e+003
1.707788e+002, 3.040849e+003
1.712609e+002, 3.049646e+003
1.717430e+002, 3.059093e+003
1.722252e+002, 3.069323e+003
1.727073e+002, 3.078873e+003
1.731894e+002, 3.085155e+003
1.736715e+002, 3.089844e+003
1.741536e+002, 3.096422e+003
1.746357e+002, 3.109416e+003
1.751179e+002, 3.124176e+003
1.756000e+002, 3.134907e+003
1.760821e+002, 3.140702e+003
1.765642e+002, 3.144374e+003
1.770463e+002, 3.149395e+003
1.775284e+002, 3.154714e+003
1.780106e+002, 3.157054e+003
1.784927e+002, 3.154303e+003
1.789748e+002, 3.147548e+003
1.794569e+002, 3.138546e+003
1.799390e+002, 3.127323e+003
1.804211e+002, 3.114208e+003
1.809033e+002, 3.097616e+003
1.813854e+002, 3.078477e+003
1.818675e+002, 3.061582e+003
1.823496e+002, 3.050407e+003
1.828317e+002, 3.043446e+003
1.833138e+002, 3.036118e+003
1.837960e+002, 3.027481e+003
1.842781e+002, 3.019929e+003
1.847602e+002, 3.017690e+003
1.852423e+002, 3.020289e+003
1.857244e+002, 3.023965e+003
1.862065e+002, 3.026003e+003
1.866887e+002, 3.027140e+003
1.871708e+002, 3.030515e+003
1.876529e+002, 3.036895e+003
1.881350e+002, 3.044610e+003
1.886171e+002, 3.049972e+003
1.890992e+002, 3.053115e+003
1.895814e+002, 3.057740e+003
1.900635e+002, 3.067122e+003
1.905456e+002, 3.080668e+003
1.910277e+002, 3.093280e+003
1.915098e+002, 3.104260e+003
1.919919e+002, 3.114409e+003
1.924741e+002, 3.125046e+003
1.929562e+002, 3.136144e+003
1.934383e+002, 3.147437e+003
1.939204e+002, 3.157744e+003
1.944025e+002, 3.167280e+003
1.948846e+002, 3.180162e+003
1.953668e+002, 3.197665e+003
1.958489e+002, 3.217867e+003
1.963310e+002, 3.236233e+003
1.968131e+002, 3.252577e+003
1.972952e+002, 3.268332e+003
1.977773e+002, 3.284463e+003
1.982595e+002, 3.300897e+003
1.987416e+002, 3.317969e+003
1.992237e+002, 3.335879e+003
1.997058e+002, 3.354147e+003
2.001879e+002, 3.370516e+003
2.006700e+002, 3.384501e+003
2.011522e+002, 3.399605e+003
2.016343e+002, 3.418693e+003
2.021164e+002, 3.442154e+003
2.025985e+002, 3.466117e+003
2.030806e+002, 3.490423e+003
2.035627e+002, 3.514557e+003
2.040449e+002, 3.535191e+003
2.045270e+002, 3.550489e+003
2.050091e+002, 3.568246e+003
2.054912e+002, 3.595892e+003
2.059733e+002, 3.635882e+003
2.064554e+002, 3.670539e+003
2.069376e+002, 3.696633e+003
2.074197e+002, 3.716207e+003
2.079018e+002, 3.737489e+003
2.083839e+002, 3.760240e+003
2.088660e+002, 3.785473e+003
2.093481e+002, 3.814452e+003
2.098303e+002, 3.848565e+003
2.103124e+002, 3.881138e+003
2.107945e+002, 3.911776e+003
2.112766e+002, 3.940250e+003
2.117587e+002, 3.967214e+003
2.122408e+002, 3.993956e+003
2.127230e+002, 4.016612e+003
2.132051e+002, 4.032503e+003
2.136872e+002, 4.040482e+003
2.141693e+002, 4.045491e+003
2.146514e+002, 4.048011e+003
2.151335e+002, 4.047812e+003
2.156157e+002, 4.043905e+003
2.160978e+002, 4.035770e+003
2.165799e+002, 4.024585e+003
2.170620e+002, 4.011292e+003
2.175441e+002, 3.996608e+003
2.180262e+002, 3.976989e+003
2.185084e+002, 3.950181e+003
2.189905e+002, 3.917726e+003
2.194726e+002, 3.889207e+003
2.199547e+002, 3.865946e+003
2.204368e+002, 3.843676e+003
2.209189e+002, 3.819560e+003
2.214011e+002, 3.791617e+003
2.218832e+002, 3.766918e+003
2.223653e+002, 3.746988e+003
2.228474e+002, 3.730819e+003
2.233295e+002, 3.712470e+003
2.238116e+002, 3.690817e+003
2.242938e+002, 3.669465e+003
2.247759e+002, 3.650614e+003
2.252580e+002, 3.634952e+003
2.257401e+002, 3.620429e+003
2.262222e+002, 3.606766e+003
2.267043e+002, 3.594073e+003
2.271865e+002, 3.582304e+003
2.276686e+002, 3.571726e+003
2.281507e+002, 3.561945e+003
2.286328e+002, 3.553118e+003
2.291149e+002, 3.546272e+003
2.295970e+002, 3.537917e+003
2.300792e+002, 3.527258e+003
2.305613e+002, 3.514969e+003
2.310434e+002, 3.503816e+003
2.315255e+002, 3.493498e+003
2.320076e+002, 3.485059e+003
2.324897e+002, 3.479364e+003
2.329719e+002, 3.477388e+003
2.334540e+002, 3.476263e+003
2.339361e+002, 3.476724e+003
2.344182e+002, 3.477949e+003
2.349003e+002, 3.476749e+003
2.353824e+002, 3.471356e+003
2.358646e+002, 3.466067e+003
2.363467e+002, 3.462602e+003
2.368288e+002, 3.459811e+003
2.373109e+002, 3.461685e+003
2.377930e+002, 3.470795e+003
2.382751e+002, 3.484188e+003
2.387573e+002, 3.492225e+003
2.392394e+002, 3.490900e+003
2.397215e+002, 3.489847e+003
2.402036e+002, 3.493652e+003
2.406857e+002, 3.504972e+003
2.411678e+002, 3.514991e+003
2.416500e+002, 3.523269e+003
2.421321e+002, 3.530272e+003
2.426142e+002, 3.537402e+003
2.430963e+002, 3.545018e+003
2.435784e+002, 3.552169e+003
2.440605e+002, 3.558360e+003
2.445427e+002, 3.563366e+003
2.450248e+002, 3.568222e+003
2.455069e+002, 3.573517e+003
2.459890e+002, 3.578491e+003
2.464711e+002, 3.581578e+003
2.469532e+002, 3.583445e+003
2.474354e+002, 3.582466e+003
2.479175e+002, 3.577402e+003
2.483996e+002, 3.566305e+003
2.488817e+002, 3.557619e+003
2.493638e+002, 3.552187e+003
2.498459e+002, 3.548772e+003
2.503281e+002, 3.545407e+003
2.508102e+002, 3.543315e+003
2.512923e+002, 3.539198e+003
2.517744e+002, 3.531159e+003
2.522565e+002, 3.517708e+003
2.527386e+002, 3.507130e+003
2.532208e+002, 3.500208e+003
2.537029e+002, 3.495596e+003
2.541850e+002, 3.490855e+003
2.546671e+002, 3.484835e+003
2.551492e+002, 3.480837e+003
2.556313e+002, 3.479988e+003
2.561135e+002, 3.482495e+003
2.565956e+002, 3.486608e+003
2.570777e+002, 3.493418e+003
2.575598e+002, 3.500596e+003
2.580419e+002, 3.504755e+003
2.585240e+002, 3.504544e+003
2.590062e+002, 3.504054e+003
2.594883e+002, 3.503740e+003
2.599704e+002, 3.503385e+003
2.604525e+002, 3.506688e+003
2.609346e+002, 3.515123e+003
2.614167e+002, 3.525344e+003
2.618989e+002, 3.533536e+003
2.623810e+002, 3.539084e+003
2.628631e+002, 3.544203e+003
2.633452e+002, 3.549384e+003
2.638273e+002, 3.554736e+003
2.643094e+002, 3.559626e+003
2.647916e+002, 3.563856e+003
2.652737e+002, 3.568233e+003
2.657558e+002, 3.573625e+003
2.662379e+002, 3.580167e+003
2.667200e+002, 3.587388e+003
2.672021e+002, 3.595711e+003
2.676843e+002, 3.604858e+003
2.681664e+002, 3.611997e+003
2.686485e+002, 3.615981e+003
2.691306e+002, 3.620229e+003
2.696127e+002, 3.628283e+003
2.700948e+002, 3.641379e+003
2.705770e+002, 3.652103e+003
2.710591e+002, 3.658119e+003
2.715412e+002, 3.660716e+003
2.720233e+002, 3.666583e+003
2.725054e+002, 3.676136e+003
2.729875e+002, 3.687429e+003
2.734697e+002, 3.699373e+003
2.739518e+002, 3.712239e+003
2.744339e+002, 3.724410e+003
2.749160e+002, 3.735282e+003
2.753981e+002, 3.745550e+003
2.758802e+002, 3.757691e+003
2.763624e+002, 3.771802e+003
2.768445e+002, 3.786837e+003
2.773266e+002, 3.801762e+003
2.778087e+002, 3.816444e+003
2.782908e+002, 3.833523e+003
2.787729e+002, 3.853557e+003
2.792551e+002, 3.875741e+003
2.797372e+002, 3.898595e+003
2.802193e+002, 3.922639e+003
2.807014e+002, 3.944556e+003
2.811835e+002, 3.960965e+003
2.816656e+002, 3.972013e+003
2.821478e+002, 3.987919e+003
2.826299e+002, 4.009872e+003
2.831120e+002, 4.035241e+003
2.835941e+002, 4.060646e+003
2.840762e+002, 4.086286e+003
2.845583e+002, 4.109776e+003
2.850405e+002, 4.128327e+003
2.855226e+002, 4.142853e+003
2.860047e+002, 4.163037e+003
2.864868e+002, 4.190315e+003
2.869689e+002, 4.218624e+003
2.874510e+002, 4.238854e+003
2.879332e+002, 4.251376e+003
2.884153e+002, 4.264192e+003
2.888974e+002, 4.281527e+003
2.893795e+002, 4.301549e+003
2.898616e+002, 4.316742e+003
2.903438e+002, 4.326862e+003
2.908259e+002, 4.333743e+003
2.913080e+002, 4.339682e+003
2.917901e+002, 4.344285e+003
2.922722e+002, 4.345431e+003
2.927543e+002, 4.341544e+003
2.932365e+002, 4.334143e+003
2.937186e+002, 4.326935e+003
2.942007e+002, 4.320012e+003
2.946828e+002, 4.311665e+003
2.951649e+002, 4.300899e+003
2.956470e+002, 4.287631e+003
2.961292e+002, 4.271021e+003
2.966113e+002, 4.250421e+003
2.970934e+002, 4.227135e+003
2.975755e+002, 4.201716e+003
2.980576e+002, 4.174363e+003
2.985397e+002, 4.148388e+003
2.990219e+002, 4.128142e+003
2.995040e+002, 4.110613e+003
2.999861e+002, 4.089149e+003
3.004682e+002, 4.061365e+003
3.009503e+002, 4.031701e+003
3.014324e+002, 4.005083e+003
3.019146e+002, 3.981170e+003
3.023967e+002, 3.957289e+003
3.028788e+002, 3.930240e+003
3.033609e+002, 3.902882e+003
3.038430e+002, 3.880926e+003
3.043251e+002, 3.866552e+003
3.048073e+002, 3.852223e+003
3.052894e+002, 3.829498e+003
3.057715e+002, 3.801177e+003
3.062536e+002, 3.773463e+003
3.067357e+002, 3.748269e+003
3.072178e+002, 3.726065e+003
3.077000e+002, 3.708143e+003
3.081821e+002, 3.694756e+003
3.086642e+002, 3.683471e+003
3.091463e+002, 3.673370e+003
3.096284e+002, 3.664050e+003
3.101105e+002, 3.654755e+003
3.105927e+002, 3.644471e+003
3.110748e+002, 3.634722e+003
3.115569e+002, 3.626697e+003
3.120390e+002, 3.620427e+003
3.125211e+002, 3.614654e+003
3.130032e+002, 3.609025e+003
3.134854e+002, 3.603362e+003
3.139675e+002, 3.597555e+003
3.144496e+002, 3.589033e+003
3.149317e+002, 3.582747e+003
3.154138e+002, 3.582844e+003
3.158959e+002, 3.588230e+003
3.163781e+002, 3.592005e+003
3.168602e+002, 3.589901e+003
3.173423e+002, 3.585814e+003
3.178244e+002, 3.582528e+003
3.183065e+002, 3.580720e+003
3.187886e+002, 3.579719e+003
3.192708e+002, 3.579120e+003
3.197529e+002, 3.579133e+003
3.202350e+002, 3.580380e+003
3.207171e+002, 3.583680e+003
3.211992e+002, 3.587705e+003
3.216813e+002, 3.591849e+003
3.221635e+002, 3.596107e+003
3.226456e+002, 3.600168e+003
3.231277e+002, 3.603715e+003
3.236098e+002, 3.607009e+003
3.240919e+002, 3.610515e+003
3.245740e+002, 3.613355e+003
3.250562e+002, 3.617198e+003
3.255383e+002, 3.623295e+003
3.260204e+002, 3.632901e+003
3.265025e+002, 3.639805e+003
3.269846e+002, 3.641031e+003
3.274667e+002, 3.640459e+003
3.279489e+002, 3.642243e+003
3.284310e+002, 3.647849e+003
3.289131e+002, 3.654328e+003
3.293952e+002, 3.661301e+003
3.298773e+002, 3.668787e+003
3.303594e+002, 3.677365e+003
3.308416e+002, 3.688054e+003
3.313237e+002, 3.698905e+003
3.318058e+002, 3.708566e+003
3.322879e+002, 3.717167e+003
3.327700e+002, 3.724081e+003
3.332521e+002, 3.727144e+003
3.337343e+002, 3.728169e+003
3.342164e+002, 3.736731e+003
3.346985e+002, 3.756593e+003
3.351806e+002, 3.777869e+003
3.356627e+002, 3.795332e+003
3.361448e+002, 3.807613e+003
3.366270e+002, 3.819612e+003
3.371091e+002, 3.831111e+003
3.375912e+002, 3.842495e+003
3.380733e+002, 3.854700e+003
3.385554e+002, 3.867609e+003
3.390375e+002, 3.881438e+003
3.395197e+002, 3.897122e+003
3.400018e+002, 3.914805e+003
3.404839e+002, 3.928964e+003
3.409660e+002, 3.938283e+003
3.414481e+002, 3.946370e+003
3.419302e+002, 3.957361e+003
3.424124e+002, 3.971428e+003
3.428945e+002, 3.987346e+003
3.433766e+002, 4.006299e+003
3.438587e+002, 4.026760e+003
3.443408e+002, 4.041727e+003
3.448229e+002, 4.050465e+003
3.453051e+002, 4.058096e+003
3.457872e+002, 4.069232e+003
3.462693e+002, 4.083409e+003
3.467514e+002, 4.098226e+003
3.472335e+002, 4.113519e+003
3.477156e+002, 4.128640e+003
3.481978e+002, 4.143283e+003
3.486799e+002, 4.157213e+003
3.491620e+002, 4.167044e+003
3.496441e+002, 4.167789e+003
3.501262e+002, 4.162970e+003
3.506083e+002, 4.161788e+003
3.510905e+002, 4.166512e+003
3.515726e+002, 4.170706e+003
3.520547e+002, 4.166131e+003
3.525368e+002, 4.154669e+003
3.530189e+002, 4.142035e+003
3.535010e+002, 4.131562e+003
3.539832e+002, 4.121247e+003
3.544653e+002, 4.109327e+003
3.549474e+002, 4.095657e+003
3.554295e+002, 4.078828e+003
3.559116e+002, 4.054869e+003
3.563937e+002, 4.027460e+003
3.568759e+002, 4.002474e+003
3.573580e+002, 3.982054e+003
3.578401e+002, 3.964466e+003
3.583222e+002, 3.949157e+003
3.588043e+002, 3.935830e+003
3.592864e+002, 3.923524e+003
3.597686e+002, 3.912730e+003
3.602507e+002, 3.902137e+003
3.607328e+002, 3.890578e+003
3.612149e+002, 3.876490e+003
3.616970e+002, 3.863398e+003
3.621791e+002, 3.853553e+003
3.626613e+002, 3.845712e+003
3.631434e+002, 3.837057e+003
3.636255e+002, 3.824583e+003
3.641076e+002, 3.812708e+003
3.645897e+002, 3.803521e+003
3.650718e+002, 3.797927e+003
3.655540e+002, 3.793245e+003
3.660361e+002, 3.790230e+003
3.665182e+002, 3.787490e+003
3.670003e+002, 3.783356e+003
3.674824e+002, 3.776209e+003
3.679645e+002, 3.769209e+003
3.684467e+002, 3.762758e+003
3.689288e+002, 3.756993e+003
3.694109e+002, 3.752479e+003
3.698930e+002, 3.749860e+003
3.703751e+002, 3.748114e+003
3.708572e+002, 3.746710e+003
3.713394e+002, 3.746945e+003
3.718215e+002, 3.745329e+003
3.723036e+002, 3.740259e+003
3.727857e+002, 3.733190e+003
3.732678e+002, 3.729419e+003
3.737499e+002, 3.730151e+003
3.742321e+002, 3.731894e+003
3.747142e+002, 3.733024e+003
3.751963e+002, 3.733267e+003
3.756784e+002, 3.733833e+003
3.761605e+002, 3.734476e+003
3.766426e+002, 3.735685e+003
3.771248e+002, 3.738898e+003
3.776069e+002, 3.744790e+003
3.780890e+002, 3.748660e+003
3.785711e+002, 3.748208e+003
3.790532e+002, 3.744161e+003
3.795353e+002, 3.741825e+003
3.800175e+002, 3.741320e+003
3.804996e+002, 3.741881e+003
3.809817e+002, 3.743014e+003
3.814638e+002, 3.744671e+003
3.819459e+002, 3.746508e+003
3.824280e+002, 3.748569e+003
3.829102e+002, 3.750571e+003
3.833923e+002, 3.751897e+003
3.838744e+002, 3.752562e+003
3.843565e+002, 3.752873e+003
3.848386e+002, 3.752603e+003
3.853207e+002, 3.752151e+003
3.858029e+002, 3.752448e+003
3.862850e+002, 3.753663e+003
3.867671e+002, 3.755161e+003
3.872492e+002, 3.757466e+003
3.877313e+002, 3.759617e+003
3.882134e+002, 3.759360e+003
3.886956e+002, 3.752796e+003
3.891777e+002, 3.745319e+003
3.896598e+002, 3.742227e+003
3.901419e+002, 3.743435e+003
3.906240e+002, 3.745234e+003
3.911061e+002, 3.746098e+003
3.915883e+002, 3.746153e+003
3.920704e+002, 3.745408e+003
3.925525e+002, 3.742687e+003
3.930346e+002, 3.740905e+003
3.935167e+002, 3.742176e+003
3.939988e+002, 3.745532e+003
3.944810e+002, 3.748222e+003
3.949631e+002, 3.749012e+003
3.954452e+002, 3.749116e+003
3.959273e+002, 3.748881e+003
3.964094e+002, 3.747907e+003
3.968915e+002, 3.747984e+003
3.973737e+002, 3.750111e+003
3.978558e+002, 3.753188e+003
3.983379e+002, 3.755861e+003
3.988200e+002, 3.756418e+003
3.993021e+002, 3.758132e+003
3.997842e+002, 3.762364e+003
4.002664e+002, 3.769061e+003
4.007485e+002, 3.773677e+003
4.012306e+002, 3.774351e+003
4.017127e+002, 3.774608e+003
4.021948e+002, 3.776729e+003
4.026769e+002, 3.781636e+003
4.031591e+002, 3.786481e+003
4.036412e+002, 3.791890e+003
4.041233e+002, 3.796758e+003
4.046054e+002, 3.798010e+003
4.050875e+002, 3.794526e+003
4.055696e+002, 3.790729e+003
4.060518e+002, 3.788258e+003
4.065339e+002, 3.787156e+003
4.070160e+002, 3.787207e+003
4.074981e+002, 3.788678e+003
4.079802e+002, 3.790745e+003
4.084623e+002, 3.792216e+003
4.089445e+002, 3.793176e+003
4.094266e+002, 3.795439e+003
4.099087e+002, 3.800369e+003
4.103908e+002, 3.806272e+003
4.108729e+002, 3.808315e+003
4.113550e+002, 3.806664e+003
4.118372e+002, 3.805269e+003
4.123193e+002, 3.807293e+003
4.128014e+002, 3.811651e+003
4.132835e+002, 3.815993e+003
4.137656e+002, 3.820170e+003
4.142477e+002, 3.823667e+003
4.147299e+002, 3.824128e+003
4.152120e+002, 3.823271e+003
4.156941e+002, 3.825263e+003
4.161762e+002, 3.834941e+003
4.166583e+002, 3.846354e+003
4.171404e+002, 3.854323e+003
4.176226e+002, 3.858784e+003
4.181047e+002, 3.861551e+003
4.185868e+002, 3.862060e+003
4.190689e+002, 3.862100e+003
4.195510e+002, 3.863392e+003
4.200331e+002, 3.866562e+003
4.205153e+002, 3.870797e+003
4.209974e+002, 3.877986e+003
4.214795e+002, 3.886214e+003
4.219616e+002, 3.890270e+003
4.224437e+002, 3.883541e+003
4.229258e+002, 3.877052e+003
4.234080e+002, 3.875926e+003
4.238901e+002, 3.882281e+003
4.243722e+002, 3.887811e+003
4.248543e+002, 3.892374e+003
4.253364e+002, 3.895719e+003
4.258185e+002, 3.897323e+003
4.263007e+002, 3.893437e+003
4.267828e+002, 3.893590e+003
4.272649e+002, 3.901459e+003
4.277470e+002, 3.915226e+003
4.282291e+002, 3.922539e+003
4.287112e+002, 3.919895e+003
4.291934e+002, 3.916717e+003
4.296755e+002, 3.918606e+003
4.301576e+002, 3.926819e+003
4.306397e+002, 3.933476e+003
4.311218e+002, 3.938230e+003
4.316039e+002, 3.941504e+003
4.320861e+002, 3.943399e+003
4.325682e+002, 3.943750e+003
4.330503e+002, 3.945282e+003
4.335324e+002, 3.949403e+003
4.340145e+002, 3.955379e+003
4.344966e+002, 3.960628e+003
4.349788e+002, 3.965166e+003
4.354609e+002, 3.969615e+003
4.359430e+002, 3.974305e+003
4.364251e+002, 3.979401e+003
4.369072e+002, 3.985427e+003
4.373893e+002, 3.992840e+003
4.378715e+002, 4.000439e+003
4.383536e+002, 4.006305e+003
4.388357e+002, 4.011150e+003
4.393178e+002, 4.016965e+003
4.397999e+002, 4.026354e+003
4.402820e+002, 4.036146e+003
4.407642e+002, 4.042750e+003
4.412463e+002, 4.045974e+003
4.417284e+002, 4.049576e+003
4.422105e+002, 4.055636e+003
4.426926e+002, 4.063016e+003
4.431747e+002, 4.070628e+003
4.436569e+002, 4.077982e+003
4.441390e+002, 4.085700e+003
4.446211e+002, 4.094233e+003
4.451032e+002, 4.103296e+003
4.455853e+002, 4.111825e+003
4.460674e+002, 4.119598e+003
4.465496e+002, 4.126991e+003
4.470317e+002, 4.134058e+003
4.475138e+002, 4.140667e+003
4.479959e+002, 4.147785e+003
4.484780e+002, 4.154862e+003
4.489601e+002, 4.163047e+003
4.494423e+002, 4.173985e+003
4.499244e+002, 4.189818e+003
4.504065e+002, 4.203870e+003
4.508886e+002, 4.214895e+003
4.513707e+002, 4.223386e+003
4.518528e+002, 4.231799e+003
4.523350e+002, 4.240271e+003
4.528171e+002, 4.248235e+003
4.532992e+002, 4.253869e+003
4.537813e+002, 4.257052e+003
4.542634e+002, 4.267647e+003
4.547455e+002, 4.287349e+003
4.552277e+002, 4.309635e+003
4.557098e+002, 4.327645e+003
4.561919e+002, 4.341249e+003
4.566740e+002, 4.350610e+003
4.571561e+002, 4.353209e+003
4.576382e+002, 4.353529e+003
4.581204e+002, 4.360229e+003
4.586025e+002, 4.372535e+003
4.590846e+002, 4.384225e+003
4.595667e+002, 4.390789e+003
4.600488e+002, 4.394559e+003
4.605309e+002, 4.398523e+003
4.610131e+002, 4.403170e+003
4.614952e+002, 4.407877e+003
4.619773e+002, 4.413022e+003
4.624594e+002, 4.417722e+003
4.629415e+002, 4.420726e+003
4.634236e+002, 4.421546e+003
4.639058e+002, 4.420518e+003
4.643879e+002, 4.417732e+003
4.648700e+002, 4.413190e+003
4.653521e+002, 4.406875e+003
4.658342e+002, 4.396944e+003
4.663163e+002, 4.386465e+003
4.667985e+002, 4.377042e+003
4.672806e+002, 4.368829e+003
4.677627e+002, 4.361669e+003
4.682448e+002, 4.356497e+003
4.687269e+002, 4.352004e+003
4.692090e+002, 4.346193e+003
4.696912e+002, 4.337966e+003
4.701733e+002, 4.330330e+003
4.706554e+002, 4.324355e+003
4.711375e+002, 4.319736e+003
4.716196e+002, 4.313369e+003
4.721017e+002, 4.304708e+003
4.725839e+002, 4.295758e+003
4.730660e+002, 4.288101e+003
4.735481e+002, 4.281799e+003
4.740302e+002, 4.273939e+003
4.745123e+002, 4.264278e+003
4.749944e+002, 4.253204e+003
4.754766e+002, 4.240303e+003
4.759587e+002, 4.226071e+003
4.764408e+002, 4.213265e+003
4.769229e+002, 4.201811e+003
4.774050e+002, 4.193378e+003
4.778871e+002, 4.193197e+003
4.783693e+002, 4.200364e+003
4.788514e+002, 4.206348e+003
4.793335e+002, 4.204372e+003
4.798156e+002, 4.198150e+003
4.802977e+002, 4.191259e+003
4.807798e+002, 4.183270e+003
4.812620e+002, 4.178300e+003
4.817441e+002, 4.180302e+003
4.822262e+002, 4.186441e+003
4.827083e+002, 4.192551e+003
4.831904e+002, 4.196954e+003
4.836725e+002, 4.201287e+003
4.841547e+002, 4.207093e+003
4.846368e+002, 4.214000e+003
4.851189e+002, 4.217683e+003
4.856010e+002, 4.216338e+003
4.860831e+002, 4.212421e+003
4.865652e+002, 4.206839e+003
4.870474e+002, 4.197214e+003
4.875295e+002, 4.191131e+003
4.880116e+002, 4.190723e+003
4.884937e+002, 4.192339e+003
4.889758e+002, 4.190446e+003
4.894579e+002, 4.183481e+003
4.899401e+002, 4.177793e+003
4.904222e+002, 4.175001e+003
4.909043e+002, 4.174636e+003
4.913864e+002, 4.174412e+003
4.918685e+002, 4.174261e+003
4.923506e+002, 4.174728e+003
4.928328e+002, 4.177828e+003
4.933149e+002, 4.182295e+003
4.937970e+002, 4.181248e+003
4.942791e+002, 4.173319e+003
4.947612e+002, 4.164347e+003
4.952433e+002, 4.161389e+003
4.957255e+002, 4.162635e+003
4.962076e+002, 4.163396e+003
4.966897e+002, 4.161892e+003
4.971718e+002, 4.159323e+003
4.976539e+002, 4.156277e+003
4.981360e+002, 4.153027e+003
4.986182e+002, 4.150521e+003
4.991003e+002, 4.148071e+003
4.995824e+002, 4.147399e+003
5.000645e+002, 4.150768e+003
5.005466e+002, 4.159831e+003
5.010287e+002, 4.166407e+003
5.015109e+002, 4.165956e+003
5.019930e+002, 4.162802e+003
5.024751e+002, 4.161263e+003
5.029572e+002, 4.163129e+003
5.034393e+002, 4.165089e+003
5.039214e+002, 4.166986e+003
5.044036e+002, 4.168699e+003
5.048857e+002, 4.169808e+003
5.053678e+002, 4.169970e+003
5.058499e+002, 4.170150e+003
5.063320e+002, 4.170625e+003
5.068141e+002, 4.171380e+003
5.072963e+002, 4.173042e+003
5.077784e+002, 4.175799e+003
5.082605e+002, 4.179082e+003
5.087426e+002, 4.182487e+003
5.092247e+002, 4.185997e+003
5.097068e+002, 4.189467e+003
5.101890e+002, 4.193144e+003
5.106711e+002, 4.196204e+003
5.111532e+002, 4.195878e+003
5.116353e+002, 4.193091e+003
5.121174e+002, 4.192343e+003
5.125995e+002, 4.198489e+003
5.130817e+002, 4.206558e+003
5.135638e+002, 4.209915e+003
5.140459e+002, 4.208634e+003
5.145280e+002, 4.207639e+003
5.150101e+002, 4.210883e+003
5.154922e+002, 4.215490e+003
5.159744e+002, 4.218661e+003
5.164565e+002, 4.219051e+003
5.169386e+002, 4.219624e+003
5.174207e+002, 4.221850e+003
5.179028e+002, 4.224825e+003
5.183849e+002, 4.227042e+003
5.188671e+002, 4.228493e+003
5.193492e+002, 4.228870e+003
5.198313e+002, 4.227054e+003
5.203134e+002, 4.223373e+003
5.207955e+002, 4.222776e+003
5.212776e+002, 4.225695e+003
5.217598e+002, 4.230997e+003
5.222419e+002, 4.238874e+003
5.227240e+002, 4.250463e+003
5.232061e+002, 4.258593e+003
5.236882e+002, 4.262967e+003
5.241703e+002, 4.264249e+003
5.246525e+002, 4.261733e+003
5.251346e+002, 4.255808e+003
5.256167e+002, 4.252860e+003
5.260988e+002, 4.255618e+003
5.265809e+002, 4.261276e+003
5.270630e+002, 4.264380e+003
5.275452e+002, 4.265528e+003
5.280273e+002, 4.268018e+003
5.285094e+002, 4.275329e+003
5.289915e+002, 4.284284e+003
5.294736e+002, 4.291523e+003
5.299557e+002, 4.296794e+003
5.304379e+002, 4.300883e+003
5.309200e+002, 4.302913e+003
5.314021e+002, 4.304633e+003
5.318842e+002, 4.307659e+003
5.323663e+002, 4.311167e+003
5.328484e+002, 4.317620e+003
5.333306e+002, 4.330522e+003
5.338127e+002, 4.346530e+003
5.342948e+002, 4.358265e+003
5.347769e+002, 4.361329e+003
5.352590e+002, 4.364639e+003
5.357411e+002, 4.370264e+003
5.362233e+002, 4.378134e+003
5.367054e+002, 4.386353e+003
5.371875e+002, 4.395917e+003
5.376696e+002, 4.403942e+003
5.381517e+002, 4.407040e+003
5.386339e+002, 4.404444e+003
5.391160e+002, 4.408749e+003
5.395981e+002, 4.422442e+003
5.400802e+002, 4.438028e+003
5.405623e+002, 4.443541e+003
5.410444e+002, 4.441235e+003
5.415266e+002, 4.444397e+003
5.420087e+002, 4.459410e+003
5.424908e+002, 4.479271e+003
5.429729e+002, 4.494246e+003
5.434550e+002, 4.505102e+003
5.439371e+002, 4.515496e+003
5.444193e+002, 4.528170e+003
5.449014e+002, 4.540852e+003
5.453835e+002, 4.551011e+003
5.458656e+002, 4.558237e+003
5.463477e+002, 4.566728e+003
5.468298e+002, 4.580569e+003
5.473120e+002, 4.595184e+003
5.477941e+002, 4.606630e+003
5.482762e+002, 4.609996e+003
5.487583e+002, 4.616147e+003
5.492404e+002, 4.627800e+003
5.497225e+002, 4.642095e+003
5.502047e+002, 4.654253e+003
5.506868e+002, 4.663687e+003
5.511689e+002, 4.672067e+003
5.516510e+002, 4.679353e+003
5.521331e+002, 4.685845e+003
5.526152e+002, 4.693215e+003
5.530974e+002, 4.701551e+003
5.535795e+002, 4.710622e+003
5.540616e+002, 4.720614e+003
5.545437e+002, 4.731409e+003
5.550258e+002, 4.741987e+003
5.555079e+002, 4.752366e+003
5.559901e+002, 4.762827e+003
5.564722e+002, 4.773300e+003
5.569543e+002, 4.784268e+003
5.574364e+002, 4.796569e+003
5.579185e+002, 4.810065e+003
5.584006e+002, 4.825615e+003
5.588828e+002, 4.846248e+003
5.593649e+002, 4.869435e+003
5.598470e+002, 4.889856e+003
5.603291e+002, 4.903978e+003
5.608112e+002, 4.915856e+003
5.612933e+002, 4.927852e+003
5.617755e+002, 4.939992e+003
5.622576e+002, 4.948542e+003
5.627397e+002, 4.948594e+003
5.632218e+002, 4.948259e+003
5.637039e+002, 4.952318e+003
5.641860e+002, 4.965568e+003
5.646682e+002, 4.970329e+003
5.651503e+002, 4.964242e+003
5.656324e+002, 4.952822e+003
5.661145e+002, 4.942795e+003
5.665966e+002, 4.934252e+003
5.670787e+002, 4.926240e+003
5.675609e+002, 4.918554e+003
5.680430e+002, 4.911497e+003
5.685251e+002, 4.906373e+003
5.690072e+002, 4.902920e+003
5.694893e+002, 4.899100e+003
5.699714e+002, 4.893135e+003
5.704536e+002, 4.886391e+003
5.709357e+002, 4.880840e+003
5.714178e+002, 4.876464e+003
5.718999e+002, 4.872225e+003
5.723820e+002, 4.867473e+003
5.728641e+002, 4.862520e+003
5.733463e+002, 4.858141e+003
5.738284e+002, 4.855592e+003
5.743105e+002, 4.850211e+003
5.747926e+002, 4.835833e+003
5.752747e+002, 4.819498e+003
5.757568e+002, 4.810313e+003
5.762390e+002, 4.819956e+003
5.767211e+002, 4.821718e+003
5.772032e+002, 4.809554e+003
5.776853e+002, 4.787593e+003
5.781674e+002, 4.770516e+003
5.786495e+002, 4.759770e+003
5.791317e+002, 4.749758e+003
5.796138e+002, 4.738197e+003
5.800959e+002, 4.725338e+003
5.805780e+002, 4.712903e+003
5.810601e+002, 4.700744e+003
5.815422e+002, 4.689778e+003
5.820244e+002, 4.680722e+003
5.825065e+002, 4.673420e+003
5.829886e+002, 4.668072e+003
5.834707e+002, 4.664994e+003
5.839528e+002, 4.661838e+003
5.844349e+002, 4.655379e+003
5.849171e+002, 4.647748e+003
5.853992e+002, 4.642129e+003
5.858813e+002, 4.642197e+003
5.863634e+002, 4.641658e+003
5.868455e+002, 4.636553e+003
5.873276e+002, 4.628669e+003
5.878098e+002, 4.623163e+003
5.882919e+002, 4.623849e+003
5.887740e+002, 4.624056e+003
5.892561e+002, 4.621428e+003
5.897382e+002, 4.615874e+003
5.902203e+002, 4.611383e+003
5.907025e+002, 4.607603e+003
5.911846e+002, 4.605563e+003
5.916667e+002, 4.606975e+003
5.921488e+002, 4.612302e+003
5.926309e+002, 4.614365e+003
5.931130e+002, 4.612666e+003
5.935952e+002, 4.608882e+003
5.940773e+002, 4.603812e+003
5.945594e+002, 4.598157e+003
5.950415e+002, 4.594942e+003
5.955236e+002, 4.595924e+003
5.960057e+002, 4.597780e+003
5.964879e+002, 4.596587e+003
5.969700e+002, 4.593392e+003
5.974521e+002, 4.590611e+003
5.979342e+002, 4.590251e+003
5.984163e+002, 4.589813e+003
5.988984e+002, 4.587768e+003
5.993806e+002, 4.584222e+003
5.998627e+002, 4.580634e+003
6.003448e+002, 4.578271e+003
6.008269e+002, 4.575047e+003
6.013090e+002, 4.568971e+003
6.017911e+002, 4.557728e+003
6.022733e+002, 4.553244e+003
6.027554e+002, 4.558866e+003
6.032375e+002, 4.566508e+003
6.037196e+002, 4.568010e+003
6.042017e+002, 4.562644e+003
6.046838e+002, 4.558780e+003
6.051660e+002, 4.557366e+003
6.056481e+002, 4.557878e+003
6.061302e+002, 4.560391e+003
6.066123e+002, 4.564394e+003
6.070944e+002, 4.567312e+003
6.075765e+002, 4.566583e+003
6.080587e+002, 4.565909e+003
6.085408e+002, 4.571725e+003
6.090229e+002, 4.581787e+003
6.095050e+002, 4.588313e+003
6.099871e+002, 4.582920e+003
6.104692e+002, 4.576121e+003
6.109514e+002, 4.574455e+003
6.114335e+002, 4.578583e+003
6.119156e+002, 4.582800e+003
6.123977e+002, 4.585518e+003
6.128798e+002, 4.588300e+003
6.133619e+002, 4.592143e+003
6.138441e+002, 4.598125e+003
6.143262e+002, 4.602535e+003
6.148083e+002, 4.604495e+003
6.152904e+002, 4.606193e+003
6.157725e+002, 4.611215e+003
6.162546e+002, 4.619943e+003
6.167368e+002, 4.625510e+003
6.172189e+002, 4.625493e+003
6.177010e+002, 4.623818e+003
6.181831e+002, 4.628497e+003
6.186652e+002, 4.638029e+003
6.191473e+002, 4.646398e+003
6.196295e+002, 4.647157e+003
6.201116e+002, 4.647680e+003
6.205937e+002, 4.657447e+003
6.210758e+002, 4.674485e+003
6.215579e+002, 4.689203e+003
6.220400e+002, 4.694141e+003
6.225222e+002, 4.697206e+003
6.230043e+002, 4.703663e+003
6.234864e+002, 4.715256e+003
6.239685e+002, 4.722731e+003
6.244506e+002, 4.722695e+003
6.249327e+002, 4.720360e+003
6.254149e+002, 4.718780e+003
6.258970e+002, 4.717661e+003
6.263791e+002, 4.718439e+003
6.268612e+002, 4.721814e+003
6.273433e+002, 4.725991e+003
6.278254e+002, 4.728772e+003
6.283076e+002, 4.730154e+003
6.287897e+002, 4.730270e+003
6.292718e+002, 4.729640e+003
6.297539e+002, 4.726969e+003
6.302360e+002, 4.717607e+003
6.307181e+002, 4.704025e+003
6.312003e+002, 4.694171e+003
6.316824e+002, 4.694361e+003
6.321645e+002, 4.698038e+003
6.326466e+002, 4.700033e+003
6.331287e+002, 4.700800e+003
6.336108e+002, 4.703741e+003
6.340930e+002, 4.712177e+003
6.345751e+002, 4.721329e+003
6.350572e+002, 4.728644e+003
6.355393e+002, 4.733635e+003
6.360214e+002, 4.738958e+003
6.365035e+002, 4.744978e+003
6.369857e+002, 4.750858e+003
6.374678e+002, 4.755547e+003
6.379499e+002, 4.758621e+003
6.384320e+002, 4.763298e+003
6.389141e+002, 4.769781e+003
6.393962e+002, 4.777686e+003
6.398784e+002, 4.787542e+003
6.403605e+002, 4.798607e+003
6.408426e+002, 4.808060e+003
6.413247e+002, 4.814923e+003
6.418068e+002, 4.820091e+003
6.422889e+002, 4.825119e+003
6.427711e+002, 4.829255e+003
6.432532e+002, 4.830878e+003
6.437353e+002, 4.828724e+003
6.442174e+002, 4.824437e+003
6.446995e+002, 4.818780e+003
6.451816e+002, 4.811693e+003
6.456638e+002, 4.802556e+003
6.461459e+002, 4.789296e+003
6.466280e+002, 4.775947e+003
6.471101e+002, 4.763289e+003
6.475922e+002, 4.751307e+003
6.480743e+002, 4.742130e+003
6.485565e+002, 4.736872e+003
6.490386e+002, 4.731530e+003
6.495207e+002, 4.721801e+003
6.500028e+002, 4.708522e+003
6.504849e+002, 4.700025e+003
6.509670e+002, 4.697400e+003
6.514492e+002, 4.696257e+003
6.519313e+002, 4.691344e+003
6.524134e+002, 4.684713e+003
6.528955e+002, 4.680626e+003
6.533776e+002, 4.681240e+003
6.538597e+002, 4.681999e+003
6.543419e+002, 4.680324e+003
6.548240e+002, 4.676925e+003
6.553061e+002, 4.672898e+003
6.557882e+002, 4.667068e+003
6.562703e+002, 4.662474e+003
6.567524e+002, 4.660440e+003
6.572346e+002, 4.660233e+003
6.577167e+002, 4.659500e+003
6.581988e+002, 4.657663e+003
6.586809e+002, 4.656797e+003
6.591630e+002, 4.657880e+003
6.596451e+002, 4.660528e+003
6.601273e+002, 4.662575e+003
6.606094e+002, 4.663983e+003
6.610915e+002, 4.665073e+003
6.615736e+002, 4.665425e+003
6.620557e+002, 4.665709e+003
6.625378e+002, 4.667431e+003
6.630200e+002, 4.670616e+003
6.635021e+002, 4.674227e+003
6.639842e+002, 4.677995e+003
6.644663e+002, 4.681545e+003
6.649484e+002, 4.684648e+003
6.654305e+002, 4.687635e+003
6.659127e+002, 4.689178e+003
6.663948e+002, 4.686203e+003
6.668769e+002, 4.683199e+003
6.673590e+002, 4.685089e+003
6.678411e+002, 4.696403e+003
6.683232e+002, 4.702860e+003
6.688054e+002, 4.701573e+003
6.692875e+002, 4.696995e+003
6.697696e+002, 4.697742e+003
6.702517e+002, 4.703948e+003
6.707338e+002, 4.707326e+003
6.712159e+002, 4.703718e+003
6.716981e+002, 4.698132e+003
6.721802e+002, 4.700680e+003
6.726623e+002, 4.709162e+003
6.731444e+002, 4.715812e+003
6.736265e+002, 4.715017e+003
6.741086e+002, 4.712099e+003
6.745908e+002, 4.710177e+003
6.750729e+002, 4.709435e+003
6.755550e+002, 4.710100e+003
6.760371e+002, 4.715164e+003
6.765192e+002, 4.719083e+003
6.770013e+002, 4.718766e+003
6.774835e+002, 4.713681e+003
6.779656e+002, 4.710303e+003
6.784477e+002, 4.707610e+003
6.789298e+002, 4.708450e+003
6.794119e+002, 4.716608e+003
6.798940e+002, 4.732244e+003
6.803762e+002, 4.743416e+003
6.808583e+002, 4.749780e+003
6.813404e+002, 4.752121e+003
6.818225e+002, 4.749342e+003
6.823046e+002, 4.743484e+003
6.827867e+002, 4.738343e+003
6.832689e+002, 4.734241e+003
6.837510e+002, 4.732708e+003
6.842331e+002, 4.737658e+003
6.847152e+002, 4.744945e+003
6.851973e+002, 4.749178e+003
6.856794e+002, 4.744363e+003
6.861616e+002, 4.741978e+003
6.866437e+002, 4.745933e+003
6.871258e+002, 4.753139e+003
6.876079e+002, 4.758252e+003
6.880900e+002, 4.760975e+003
6.885721e+002, 4.762029e+003
6.890543e+002, 4.760794e+003
6.895364e+002, 4.758438e+003
6.900185e+002, 4.757982e+003
6.905006e+002, 4.759426e+003
6.909827e+002, 4.763299e+003
6.914648e+002, 4.773990e+003
6.919470e+002, 4.785134e+003
6.924291e+002, 4.784933e+003
6.929112e+002, 4.775292e+003
6.933933e+002, 4.766858e+003
6.938754e+002, 4.765141e+003
6.943575e+002, 4.766860e+003
6.948397e+002, 4.771139e+003
6.953218e+002, 4.778265e+003
6.958039e+002, 4.782856e+003
6.962860e+002, 4.782309e+003
6.967681e+002, 4.781061e+003
6.972502e+002, 4.781563e+003
6.977324e+002, 4.784582e+003
6.982145e+002, 4.785357e+003
6.986966e+002, 4.783036e+003
6.991787e+002, 4.780966e+003
6.996608e+002, 4.783476e+003
7.001429e+002, 4.789385e+003
7.006251e+002, 4.792743e+003
7.011072e+002, 4.792469e+003
7.015893e+002, 4.791106e+003
7.020714e+002, 4.789768e+003
7.025535e+002, 4.789328e+003
7.030356e+002, 4.791302e+003
7.035178e+002, 4.797585e+003
7.039999e+002, 4.803614e+003
7.044820e+002, 4.807329e+003
7.049641e+002, 4.809744e+003
7.054462e+002, 4.812523e+003
7.059283e+002, 4.816434e+003
7.064105e+002, 4.819704e+003
7.068926e+002, 4.822233e+003
7.073747e+002, 4.823963e+003
7.078568e+002, 4.824470e+003
7.083389e+002, 4.823667e+003
7.088210e+002, 4.823323e+003
7.093032e+002, 4.824620e+003
7.097853e+002, 4.826243e+003
7.102674e+002, 4.824354e+003
7.107495e+002, 4.820021e+003
7.112316e+002, 4.817756e+003
7.117137e+002, 4.821529e+003
7.121959e+002, 4.827017e+003
7.126780e+002, 4.831500e+003
7.131601e+002, 4.834943e+003
7.136422e+002, 4.837769e+003
7.141243e+002, 4.839615e+003
7.146064e+002, 4.841340e+003
7.150886e+002, 4.843347e+003
7.155707e+002, 4.845670e+003
7.160528e+002, 4.847727e+003
7.165349e+002, 4.849667e+003
7.170170e+002, 4.851054e+003
7.174991e+002, 4.850834e+003
7.179813e+002, 4.849478e+003
7.184634e+002, 4.851290e+003
7.189455e+002, 4.856506e+003
7.194276e+002, 4.861926e+003
7.199097e+002, 4.863992e+003
7.203918e+002, 4.864948e+003
7.208740e+002, 4.868684e+003
7.213561e+002, 4.876677e+003
7.218382e+002, 4.881693e+003
7.223203e+002, 4.876856e+003
7.228024e+002, 4.869502e+003
7.232845e+002, 4.866134e+003
7.237667e+002, 4.870026e+003
7.242488e+002, 4.873057e+003
7.247309e+002, 4.874458e+003
7.252130e+002, 4.875792e+003
7.256951e+002, 4.879361e+003
7.261772e+002, 4.885383e+003
7.266594e+002, 4.889890e+003
7.271415e+002, 4.891888e+003
7.276236e+002, 4.893174e+003
7.281057e+002, 4.897986e+003
7.285878e+002, 4.904099e+003
7.290699e+002, 4.905279e+003
7.295521e+002, 4.895906e+003
7.300342e+002, 4.886823e+003
7.305163e+002, 4.885431e+003
7.309984e+002, 4.889408e+003
7.314805e+002, 4.894603e+003
7.319626e+002, 4.903950e+003
7.324448e+002, 4.909546e+003
7.329269e+002, 4.908025e+003
7.334090e+002, 4.902398e+003
7.338911e+002, 4.901423e+003
7.343732e+002, 4.906563e+003
7.348553e+002, 4.910205e+003
7.353375e+002, 4.908894e+003
7.358196e+002, 4.905386e+003
7.363017e+002, 4.907017e+003
7.367838e+002, 4.913239e+003
7.372659e+002, 4.920702e+003
7.377480e+002, 4.930398e+003
7.382302e+002, 4.938380e+003
7.387123e+002, 4.939941e+003
7.391944e+002, 4.936126e+003
7.396765e+002, 4.932308e+003
7.401586e+002, 4.929108e+003
7.406407e+002, 4.927563e+003
7.411229e+002, 4.928717e+003
7.416050e+002, 4.932399e+003
7.420871e+002, 4.935772e+003
7.425692e+002, 4.939076e+003
7.430513e+002, 4.941565e+003
7.435334e+002, 4.941858e+003
7.440156e+002, 4.940604e+003
7.444977e+002, 4.944313e+003
7.449798e+002, 4.953000e+003
7.454619e+002, 4.960643e+003
7.459440e+002, 4.960670e+003
7.464261e+002, 4.957864e+003
7.469083e+002, 4.958784e+003
7.473904e+002, 4.964057e+003
7.478725e+002, 4.968255e+003
7.483546e+002, 4.967014e+003
7.488367e+002, 4.965025e+003
7.493188e+002, 4.965505e+003
7.498010e+002, 4.969261e+003
7.502831e+002, 4.973134e+003
7.507652e+002, 4.977732e+003
7.512473e+002, 4.981384e+003
7.517294e+002, 4.982409e+003
7.522115e+002, 4.980841e+003
7.526937e+002, 4.979878e+003
7.531758e+002, 4.979867e+003
7.536579e+002, 4.979540e+003
7.541400e+002, 4.976852e+003
7.546221e+002, 4.973280e+003
7.551042e+002, 4.970874e+003
7.555864e+002, 4.969784e+003
7.560685e+002, 4.971329e+003
7.565506e+002, 4.979986e+003
7.570327e+002, 4.989840e+003
7.575148e+002, 4.994692e+003
7.579969e+002, 4.989594e+003
7.584791e+002, 4.986037e+003
7.589612e+002, 4.984153e+003
7.594433e+002, 4.983613e+003
7.599254e+002, 4.984375e+003
7.604075e+002, 4.986477e+003
7.608896e+002, 4.987779e+003
7.613718e+002, 4.987461e+003
7.618539e+002, 4.987640e+003
7.623360e+002, 4.992660e+003
7.628181e+002, 5.000056e+003
7.633002e+002, 5.004297e+003
7.637823e+002, 5.001316e+003
7.642645e+002, 4.999383e+003
7.647466e+002, 5.006614e+003
7.652287e+002, 5.016723e+003
7.657108e+002, 5.020309e+003
7.661929e+002, 5.010245e+003
7.666750e+002, 5.001303e+003
7.671572e+002, 4.993575e+003
7.676393e+002, 4.988514e+003
7.681214e+002, 4.990387e+003
7.686035e+002, 4.999865e+003
7.690856e+002, 5.006309e+003
7.695677e+002, 5.006120e+003
7.700499e+002, 5.003380e+003
7.705320e+002, 5.004288e+003
7.710141e+002, 5.007730e+003
7.714962e+002, 5.010900e+003
7.719783e+002, 5.011939e+003
7.724604e+002, 5.013022e+003
7.729426e+002, 5.016650e+003
7.734247e+002, 5.021042e+003
7.739068e+002, 5.021844e+003
7.743889e+002, 5.014076e+003
7.748710e+002, 5.009320e+003
7.753531e+002, 5.010950e+003
7.758353e+002, 5.016264e+003
7.763174e+002, 5.016886e+003
7.767995e+002, 5.012586e+003
7.772816e+002, 5.009229e+003
7.777637e+002, 5.008526e+003
7.782458e+002, 5.010572e+003
7.787280e+002, 5.018565e+003
7.792101e+002, 5.029971e+003
7.796922e+002, 5.036493e+003
7.801743e+002, 5.028280e+003
7.806564e+002, 5.020010e+003
7.811385e+002, 5.020006e+003
7.816207e+002, 5.026556e+003
7.821028e+002, 5.031545e+003
7.825849e+002, 5.033329e+003
7.830670e+002, 5.035183e+003
7.835491e+002, 5.038111e+003
7.840313e+002, 5.041635e+003
7.845134e+002, 5.043755e+003
7.849955e+002, 5.044412e+003
7.854776e+002, 5.045343e+003
7.859597e+002, 5.047760e+003
7.864418e+002, 5.050618e+003
7.869240e+002, 5.052520e+003
7.874061e+002, 5.053457e+003
7.878882e+002, 5.053388e+003
7.883703e+002, 5.050952e+003
7.888524e+002, 5.048796e+003
7.893345e+002, 5.048445e+003
7.898167e+002, 5.049755e+003
7.902988e+002, 5.050841e+003
7.907809e+002, 5.051015e+003
7.912630e+002, 5.052473e+003
7.917451e+002, 5.057045e+003
7.922272e+002, 5.063358e+003
7.927094e+002, 5.064606e+003
7.931915e+002, 5.061010e+003
7.936736e+002, 5.057862e+003
7.941557e+002, 5.058477e+003
7.946378e+002, 5.061067e+003
7.951199e+002, 5.063699e+003
7.956021e+002, 5.066326e+003
7.960842e+002, 5.069025e+003
7.965663e+002, 5.072796e+003
7.970484e+002, 5.075654e+003
7.975305e+002, 5.076465e+003
7.980126e+002, 5.075395e+003
7.984948e+002, 5.073442e+003
7.989769e+002, 5.069469e+003
7.994590e+002, 5.067620e+003
7.999411e+002, 5.070631e+003
8.004232e+002, 5.076928e+003
8.009053e+002, 5.079816e+003
8.013875e+002, 5.079657e+003
8.018696e+002, 5.079845e+003
8.023517e+002, 5.084535e+003
8.028338e+002, 5.089059e+003
8.033159e+002, 5.086890e+003
8.037980e+002, 5.079466e+003
8.042802e+002, 5.075739e+003
8.047623e+002, 5.082226e+003
8.052444e+002, 5.089058e+003
8.057265e+002, 5.092672e+003
8.062086e+002, 5.093330e+003
8.066907e+002, 5.093194e+003
8.071729e+002, 5.091564e+003
8.076550e+002, 5.092026e+003
8.081371e+002, 5.098523e+003
8.086192e+002, 5.107366e+003
8.091013e+002, 5.107416e+003
8.095834e+002, 5.100064e+003
8.100656e+002, 5.093203e+003
8.105477e+002, 5.090849e+003
8.110298e+002, 5.091269e+003
8.115119e+002, 5.094061e+003
8.119940e+002, 5.098936e+003
8.124761e+002, 5.103884e+003
8.129583e+002, 5.109719e+003
8.134404e+002, 5.114351e+003
8.139225e+002, 5.117219e+003
8.144046e+002, 5.118409e+003
8.148867e+002, 5.117437e+003
8.153688e+002, 5.114105e+003
8.158510e+002, 5.112881e+003
8.163331e+002, 5.117806e+003
8.168152e+002, 5.125208e+003
8.172973e+002, 5.128071e+003
8.177794e+002, 5.127618e+003
8.182615e+002, 5.128857e+003
8.187437e+002, 5.134789e+003
8.192258e+002, 5.142345e+003
8.197079e+002, 5.151422e+003
8.201900e+002, 5.161322e+003
8.206721e+002, 5.167787e+003
8.211542e+002, 5.169463e+003
8.216364e+002, 5.170543e+003
8.221185e+002, 5.171875e+003
8.226006e+002, 5.173873e+003
8.230827e+002, 5.178437e+003
8.235648e+002, 5.185324e+003
8.240469e+002, 5.192626e+003
8.245291e+002, 5.201338e+003
8.250112e+002, 5.208554e+003
8.254933e+002, 5.211178e+003
8.259754e+002, 5.210071e+003
8.264575e+002, 5.207911e+003
8.269396e+002, 5.203367e+003
8.274218e+002, 5.200502e+003
8.279039e+002, 5.200212e+003
8.283860e+002, 5.202357e+003
8.288681e+002, 5.206400e+003
8.293502e+002, 5.212303e+003
8.298323e+002, 5.220976e+003
8.303145e+002, 5.234643e+003
8.307966e+002, 5.248899e+003
8.312787e+002, 5.254552e+003
8.317608e+002, 5.253525e+003
8.322429e+002, 5.251678e+003
8.327250e+002, 5.250396e+003
8.332072e+002, 5.250337e+003
8.336893e+002, 5.252697e+003
8.341714e+002, 5.256542e+003
8.346535e+002, 5.259255e+003
8.351356e+002, 5.258969e+003
8.356177e+002, 5.260963e+003
8.360999e+002, 5.267490e+003
8.365820e+002, 5.275680e+003
8.370641e+002, 5.278817e+003
8.375462e+002, 5.277245e+003
8.380283e+002, 5.274505e+003
8.385104e+002, 5.270558e+003
8.389926e+002, 5.268025e+003
8.394747e+002, 5.271815e+003
8.399568e+002, 5.278615e+003
8.404389e+002, 5.282703e+003
8.409210e+002, 5.278007e+003
8.414031e+002, 5.275333e+003
8.418853e+002, 5.279510e+003
8.423674e+002, 5.285670e+003
8.428495e+002, 5.286132e+003
8.433316e+002, 5.279006e+003
8.438137e+002, 5.275935e+003
8.442958e+002, 5.279774e+003
8.447780e+002, 5.285610e+003
8.452601e+002, 5.286815e+003
8.457422e+002, 5.284269e+003
8.462243e+002, 5.279708e+003
8.467064e+002, 5.272432e+003
8.471885e+002, 5.266224e+003
8.476707e+002, 5.264381e+003
8.481528e+002, 5.264329e+003
8.486349e+002, 5.262951e+003
8.491170e+002, 5.257633e+003
8.495991e+002, 5.255785e+003
8.500812e+002, 5.259169e+003
8.505634e+002, 5.263652e+003
8.510455e+002, 5.265172e+003
8.515276e+002, 5.263820e+003
8.520097e+002, 5.259001e+003
8.524918e+002, 5.250114e+003
8.529739e+002, 5.241753e+003
8.534561e+002, 5.238553e+003
8.539382e+002, 5.237966e+003
8.544203e+002, 5.236882e+003
8.549024e+002, 5.233804e+003
8.553845e+002, 5.233430e+003
8.558666e+002, 5.240908e+003
8.563488e+002, 5.247378e+003
8.568309e+002, 5.245963e+003
8.573130e+002, 5.235075e+003
8.577951e+002, 5.227470e+003
8.582772e+002, 5.223140e+003
8.587593e+002, 5.222245e+003
8.592415e+002, 5.228390e+003
8.597236e+002, 5.236706e+003
8.602057e+002, 5.238219e+003
8.606878e+002, 5.232198e+003
8.611699e+002, 5.226107e+003
8.616520e+002, 5.224642e+003
8.621342e+002, 5.223363e+003
8.626163e+002, 5.218626e+003
8.630984e+002, 5.210224e+003
8.635805e+002, 5.206205e+003
8.640626e+002, 5.208292e+003
8.645447e+002, 5.210134e+003
8.650269e+002, 5.208019e+003
8.655090e+002, 5.202969e+003
8.659911e+002, 5.198548e+003
8.664732e+002, 5.194611e+003
8.669553e+002, 5.189645e+003
8.674374e+002, 5.178209e+003
8.679196e+002, 5.169344e+003
8.684017e+002, 5.171688e+003
8.688838e+002, 5.183624e+003
8.693659e+002, 5.192281e+003
8.698480e+002, 5.195587e+003
8.703301e+002, 5.196839e+003
8.708123e+002, 5.196158e+003
8.712944e+002, 5.194345e+003
8.717765e+002, 5.194947e+003
8.722586e+002, 5.197572e+003
8.727407e+002, 5.198669e+003
8.732228e+002, 5.196388e+003
8.737050e+002, 5.192107e+003
8.741871e+002, 5.185512e+003
8.746692e+002, 5.178208e+003
8.751513e+002, 5.173595e+003
8.756334e+002, 5.175284e+003
8.761155e+002, 5.176930e+003
8.765977e+002, 5.178072e+003
8.770798e+002, 5.178231e+003
8.775619e+002, 5.176314e+003
8.780440e+002, 5.172264e+003
8.785261e+002, 5.167100e+003
8.790082e+002, 5.160158e+003
8.794904e+002, 5.154536e+003
8.799725e+002, 5.156764e+003
8.804546e+002, 5.162403e+003
8.809367e+002, 5.163225e+003
8.814188e+002, 5.154308e+003
8.819009e+002, 5.146219e+003
8.823831e+002, 5.143487e+003
8.828652e+002, 5.142785e+003
8.833473e+002, 5.140828e+003
8.838294e+002, 5.137272e+003
8.843115e+002, 5.133700e+003
8.847936e+002, 5.130083e+003
8.852758e+002, 5.126973e+003
8.857579e+002, 5.125150e+003
8.862400e+002, 5.124279e+003
8.867221e+002, 5.123557e+003
8.872042e+002, 5.122915e+003
8.876863e+002, 5.122562e+003
8.881685e+002, 5.123086e+003
8.886506e+002, 5.123562e+003
8.891327e+002, 5.123102e+003
8.896148e+002, 5.121425e+003
8.900969e+002, 5.120288e+003
8.905790e+002, 5.119359e+003
8.910612e+002, 5.119508e+003
8.915433e+002, 5.122692e+003
8.920254e+002, 5.127171e+003
8.925075e+002, 5.125178e+003
8.929896e+002, 5.117498e+003
8.934717e+002, 5.111021e+003
8.939539e+002, 5.111086e+003
8.944360e+002, 5.112708e+003
8.949181e+002, 5.113249e+003
8.954002e+002, 5.112560e+003
8.958823e+002, 5.110454e+003
8.963644e+002, 5.106906e+003
8.968466e+002, 5.102089e+003
8.973287e+002, 5.094820e+003
8.978108e+002, 5.087470e+003
8.982929e+002, 5.087427e+003
8.987750e+002, 5.093624e+003
8.992571e+002, 5.098824e+003
8.997393e+002, 5.100088e+003
9.002214e+002, 5.099657e+003
9.007035e+002, 5.098550e+003
9.011856e+002, 5.097181e+003
9.016677e+002, 5.096255e+003
9.021498e+002, 5.095736e+003
9.026320e+002, 5.095932e+003
9.031141e+002, 5.097517e+003
9.035962e+002, 5.098852e+003
9.040783e+002, 5.097051e+003
9.045604e+002, 5.092390e+003
9.050425e+002, 5.089455e+003
9.055247e+002, 5.089118e+003
9.060068e+002, 5.089218e+003
9.064889e+002, 5.086016e+003
9.069710e+002, 5.083082e+003
9.074531e+002, 5.085523e+003
9.079352e+002, 5.096905e+003
9.084174e+002, 5.103255e+003
9.088995e+002, 5.100664e+003
9.093816e+002, 5.095121e+003
9.098637e+002, 5.088963e+003
9.103458e+002, 5.082131e+003
9.108279e+002, 5.081688e+003
9.113101e+002, 5.087751e+003
9.117922e+002, 5.093218e+003
9.122743e+002, 5.092024e+003
9.127564e+002, 5.088049e+003
9.132385e+002, 5.084663e+003
9.137206e+002, 5.082165e+003
9.142028e+002, 5.081402e+003
9.146849e+002, 5.084306e+003
9.151670e+002, 5.087128e+003
9.156491e+002, 5.089114e+003
9.161312e+002, 5.090171e+003
9.166133e+002, 5.089640e+003
9.170955e+002, 5.087538e+003
9.175776e+002, 5.084943e+003
9.180597e+002, 5.080862e+003
9.185418e+002, 5.078665e+003
9.190239e+002, 5.085773e+003
9.195060e+002, 5.097353e+003
9.199882e+002, 5.103936e+003
9.204703e+002, 5.095495e+003
9.209524e+002, 5.090951e+003
9.214345e+002, 5.095013e+003
9.219166e+002, 5.102802e+003
9.223987e+002, 5.108935e+003
9.228809e+002, 5.113364e+003
9.233630e+002, 5.115614e+003
9.238451e+002, 5.115394e+003
9.243272e+002, 5.114172e+003
9.248093e+002, 5.112735e+003
9.252914e+002, 5.111633e+003
9.257736e+002, 5.111362e+003
9.262557e+002, 5.111806e+003
9.267378e+002, 5.114576e+003
9.272199e+002, 5.124495e+003
9.277020e+002, 5.132748e+003
9.281841e+002, 5.133923e+003
9.286663e+002, 5.128072e+003
9.291484e+002, 5.125907e+003
9.296305e+002, 5.127506e+003
9.301126e+002, 5.131124e+003
9.305947e+002, 5.137639e+003
9.310768e+002, 5.144267e+003
9.315590e+002, 5.145942e+003
9.320411e+002, 5.144139e+003
9.325232e+002, 5.145004e+003
9.330053e+002, 5.154850e+003
9.334874e+002, 5.162290e+003
9.339695e+002, 5.162711e+003
9.344517e+002, 5.159779e+003
9.349338e+002, 5.163937e+003
9.354159e+002, 5.175388e+003
9.358980e+002, 5.182366e+003
9.363801e+002, 5.179978e+003
9.368622e+002, 5.176326e+003
9.373444e+002, 5.182281e+003
9.378265e+002, 5.192837e+003
9.383086e+002, 5.200270e+003
9.387907e+002, 5.198510e+003
9.392728e+002, 5.201611e+003
9.397549e+002, 5.214378e+003
9.402371e+002, 5.229982e+003
9.407192e+002, 5.243596e+003
9.412013e+002, 5.255092e+003
9.416834e+002, 5.264978e+003
9.421655e+002, 5.273104e+003
9.426476e+002, 5.281521e+003
9.431298e+002, 5.291373e+003
9.436119e+002, 5.302622e+003
9.440940e+002, 5.315820e+003
9.445761e+002, 5.330972e+003
9.450582e+002, 5.345666e+003
9.455403e+002, 5.358828e+003
9.460225e+002, 5.371972e+003
9.465046e+002, 5.384540e+003
9.469867e+002, 5.397658e+003
9.474688e+002, 5.418443e+003
9.479509e+002, 5.446015e+003
9.484330e+002, 5.470155e+003
9.489152e+002, 5.482717e+003
9.493973e+002, 5.495205e+003
9.498794e+002, 5.520761e+003
9.503615e+002, 5.553654e+003
9.508436e+002, 5.583846e+003
9.513257e+002, 5.600118e+003
9.518079e+002, 5.626428e+003
9.522900e+002, 5.667554e+003
9.527721e+002, 5.714269e+003
9.532542e+002, 5.754578e+003
9.537363e+002, 5.789806e+003
9.542184e+002, 5.830415e+003
9.547006e+002, 5.878055e+003
9.551827e+002, 5.927497e+003
9.556648e+002, 5.974152e+003
9.561469e+002, 6.021834e+003
9.566290e+002, 6.072644e+003
9.571111e+002, 6.126982e+003
9.575933e+002, 6.187466e+003
9.580754e+002, 6.254507e+003
9.585575e+002, 6.326953e+003
9.590396e+002, 6.404180e+003
9.595217e+002, 6.485602e+003
9.600038e+002, 6.570326e+003
9.604860e+002, 6.658591e+003
9.609681e+002, 6.752010e+003
9.614502e+002, 6.852736e+003
9.619323e+002, 6.956556e+003
9.624144e+002, 7.059711e+003
9.628965e+002, 7.163830e+003
9.633787e+002, 7.270596e+003
9.638608e+002, 7.383689e+003
9.643429e+002, 7.491350e+003
9.648250e+002, 7.591643e+003
9.653071e+002, 7.689413e+003
9.657892e+002, 7.791335e+003
9.662714e+002, 7.894626e+003
9.667535e+002, 7.994984e+003
9.672356e+002, 8.091157e+003
9.677177e+002, 8.181036e+003
9.681998e+002, 8.260301e+003
9.686819e+002, 8.334077e+003
9.691641e+002, 8.405586e+003
9.696462e+002, 8.476204e+003
9.701283e+002, 8.539131e+003
9.706104e+002, 8.595373e+003
9.710925e+002, 8.642848e+003
9.715746e+002, 8.680946e+003
9.720568e+002, 8.709768e+003
9.725389e+002, 8.730807e+003
9.730210e+002, 8.743271e+003
9.735031e+002, 8.743918e+003
9.739852e+002, 8.729536e+003
9.744673e+002, 8.705059e+003
9.749495e+002, 8.672355e+003
9.754316e+002, 8.630647e+003
9.759137e+002, 8.579520e+003
9.763958e+002, 8.519590e+003
9.768779e+002, 8.444049e+003
9.773600e+002, 8.350304e+003
9.778422e+002, 8.248104e+003
9.783243e+002, 8.147624e+003
9.788064e+002, 8.043651e+003
9.792885e+002, 7.929986e+003
9.797706e+002, 7.803790e+003
9.802527e+002, 7.676656e+003
9.807349e+002, 7.547687e+003
9.812170e+002, 7.421340e+003
9.816991e+002, 7.303189e+003
9.821812e+002, 7.191597e+003
9.826633e+002, 7.076281e+003
9.831454e+002, 6.957974e+003
9.836276e+002, 6.845732e+003
9.841097e+002, 6.745050e+003
9.845918e+002, 6.651823e+003
9.850739e+002, 6.565292e+003
9.855560e+002, 6.484264e+003
9.860381e+002, 6.406966e+003
9.865203e+002, 6.331912e+003
9.870024e+002, 6.262632e+003
9.874845e+002, 6.200406e+003
9.879666e+002, 6.142625e+003
9.884487e+002, 6.084240e+003
9.889308e+002, 6.027525e+003
9.894130e+002, 5.978044e+003
9.898951e+002, 5.937307e+003
9.903772e+002, 5.900010e+003
9.908593e+002, 5.864528e+003
9.913414e+002, 5.830248e+003
9.918235e+002, 5.795041e+003
9.923057e+002, 5.758091e+003
9.927878e+002, 5.733866e+003
9.932699e+002, 5.724139e+003
9.937520e+002, 5.714371e+003
9.942341e+002, 5.693082e+003
9.947162e+002, 5.669518e+003
9.951984e+002, 5.661603e+003
9.956805e+002, 5.664804e+003
9.961626e+002, 5.666998e+003
9.966447e+002, 5.659197e+003
9.971268e+002, 5.655748e+003
9.976089e+002, 5.662147e+003
9.980911e+002, 5.672224e+003
9.985732e+002, 5.676354e+003
9.990553e+002, 5.674639e+003
9.995374e+002, 5.677435e+003
1.000020e+003, 5.686127e+003
1.000502e+003, 5.697699e+003
1.000984e+003, 5.711190e+003
1.001466e+003, 5.724811e+003
1.001948e+003, 5.735861e+003
1.002430e+003, 5.743480e+003
1.002912e+003, 5.755378e+003
1.003394e+003, 5.773481e+003
1.003876e+003, 5.792741e+003
1.004359e+003, 5.811369e+003
1.004841e+003, 5.829541e+003
1.005323e+003, 5.846486e+003
1.005805e+003, 5.862899e+003
1.006287e+003, 5.880813e+003
1.006769e+003, 5.901787e+003
1.007251e+003, 5.924140e+003
1.007733e+003, 5.946502e+003
1.008216e+003, 5.969954e+003
1.008698e+003, 5.995229e+003
1.009180e+003, 6.022527e+003
1.009662e+003, 6.052249e+003
1.010144e+003, 6.084872e+003
1.010626e+003, 6.117203e+003
1.011108e+003, 6.142968e+003
1.011590e+003, 6.167066e+003
1.012072e+003, 6.198608e+003
1.012555e+003, 6.237764e+003
1.013037e+003, 6.272308e+003
1.013519e+003, 6.298169e+003
1.014001e+003, 6.317759e+003
1.014483e+003, 6.330310e+003
1.014965e+003, 6.338091e+003
1.015447e+003, 6.349923e+003
1.015929e+003, 6.365149e+003
1.016411e+003, 6.375618e+003
1.016894e+003, 6.377026e+003
1.017376e+003, 6.376752e+003
1.017858e+003, 6.382431e+003
1.018340e+003, 6.389627e+003
1.018822e+003, 6.392653e+003
1.019304e+003, 6.389512e+003
1.019786e+003, 6.385800e+003
1.020268e+003, 6.382070e+003
1.020751e+003, 6.376507e+003
1.021233e+003, 6.367817e+003
1.021715e+003, 6.356200e+003
1.022197e+003, 6.342922e+003
1.022679e+003, 6.327595e+003
1.023161e+003, 6.308041e+003
1.023643e+003, 6.277540e+003
1.024125e+003, 6.248771e+003
1.024607e+003, 6.226030e+003
1.025090e+003, 6.208593e+003
1.025572e+003, 6.196250e+003
1.026054e+003, 6.189207e+003
1.026536e+003, 6.182537e+003
1.027018e+003, 6.175433e+003
1.027500e+003, 6.167205e+003
1.027982e+003, 6.156175e+003
1.028464e+003, 6.144102e+003
1.028947e+003, 6.133250e+003
1.029429e+003, 6.124521e+003
1.029911e+003, 6.114301e+003
1.030393e+003, 6.100688e+003
1.030875e+003, 6.089063e+003
1.031357e+003, 6.084607e+003
1.031839e+003, 6.083508e+003
1.032321e+003, 6.070995e+003
1.032803e+003, 6.049460e+003
1.033286e+003, 6.028295e+003
1.033768e+003, 6.014966e+003
1.034250e+003, 6.000146e+003
1.034732e+003, 5.979620e+003
1.035214e+003, 5.954806e+003
1.035696e+003, 5.926768e+003
1.036178e+003, 5.892926e+003
1.036660e+003, 5.869958e+003
1.037143e+003, 5.859968e+003
1.037625e+003, 5.852092e+003
1.038107e+003, 5.834998e+003
1.038589e+003, 5.814336e+003
1.039071e+003, 5.797065e+003
1.039553e+003, 5.783414e+003
1.040035e+003, 5.770680e+003
1.040517e+003, 5.757596e+003
1.041000e+003, 5.746292e+003
1.041482e+003, 5.737505e+003
1.041964e+003, 5.731078e+003
1.042446e+003, 5.727321e+003
1.042928e+003, 5.725933e+003
1.043410e+003, 5.725942e+003
1.043892e+003, 5.727721e+003
1.044374e+003, 5.729075e+003
1.044856e+003, 5.728790e+003
1.045339e+003, 5.727435e+003
1.045821e+003, 5.725575e+003
1.046303e+003, 5.723337e+003
1.046785e+003, 5.719752e+003
1.047267e+003, 5.714591e+003
1.047749e+003, 5.710282e+003
1.048231e+003, 5.710799e+003
1.048713e+003, 5.711503e+003
1.049195e+003, 5.705204e+003
1.049677e+003, 5.694000e+003
1.050160e+003, 5.684233e+003
1.050642e+003, 5.682142e+003
1.051124e+003, 5.674842e+003
1.051606e+003, 5.659734e+003
1.052088e+003, 5.640632e+003
1.052570e+003, 5.623429e+003
1.053052e+003, 5.606755e+003
1.053534e+003, 5.585208e+003
1.054017e+003, 5.557978e+003
1.054499e+003, 5.531267e+003
1.054981e+003, 5.509412e+003
1.055463e+003, 5.488826e+003
1.055945e+003, 5.468289e+003
1.056427e+003, 5.447374e+003
1.056909e+003, 5.422450e+003
1.057391e+003, 5.392756e+003
1.057874e+003, 5.368958e+003
1.058356e+003, 5.356752e+003
1.058838e+003, 5.347789e+003
1.059320e+003, 5.331411e+003
1.059802e+003, 5.311989e+003
1.060284e+003, 5.295320e+003
1.060766e+003, 5.283811e+003
1.061248e+003, 5.272745e+003
1.061730e+003, 5.262106e+003
1.062213e+003, 5.251540e+003
1.062695e+003, 5.239128e+003
1.063177e+003, 5.226667e+003
1.063659e+003, 5.221860e+003
1.064141e+003, 5.223275e+003
1.064623e+003, 5.224430e+003
1.065105e+003, 5.222744e+003
1.065587e+003, 5.219197e+003
1.066070e+003, 5.212281e+003
1.066552e+003, 5.204532e+003
1.067034e+003, 5.200177e+003
1.067516e+003, 5.199334e+003
1.067998e+003, 5.197148e+003
1.068480e+003, 5.192920e+003
1.068962e+003, 5.188914e+003
1.069444e+003, 5.189084e+003
1.069927e+003, 5.189099e+003
1.070409e+003, 5.184528e+003
1.070891e+003, 5.175107e+003
1.071373e+003, 5.165882e+003
1.071855e+003, 5.156833e+003
1.072337e+003, 5.148543e+003
1.072819e+003, 5.140841e+003
1.073301e+003, 5.134503e+003
1.073783e+003, 5.131792e+003
1.074266e+003, 5.131206e+003
1.074748e+003, 5.129446e+003
1.075230e+003, 5.125072e+003
1.075712e+003, 5.121083e+003
1.076194e+003, 5.118867e+003
1.076676e+003, 5.116468e+003
1.077158e+003, 5.111773e+003
1.077640e+003, 5.105388e+003
1.078122e+003, 5.105084e+003
1.078604e+003, 5.109964e+003
1.079087e+003, 5.112485e+003
1.079569e+003, 5.106131e+003
1.080051e+003, 5.098489e+003
1.080533e+003, 5.093589e+003
1.081015e+003, 5.090606e+003
1.081497e+003, 5.087880e+003
1.081979e+003, 5.085622e+003
1.082461e+003, 5.082037e+003
1.082944e+003, 5.076565e+003
1.083426e+003, 5.072702e+003
1.083908e+003, 5.076064e+003
1.084390e+003, 5.081559e+003
1.084872e+003, 5.083464e+003
1.085354e+003, 5.081524e+003
1.085836e+003, 5.077407e+003
1.086318e+003, 5.068802e+003
1.086801e+003, 5.063188e+003
1.087283e+003, 5.062967e+003
1.087765e+003, 5.065663e+003
1.088247e+003, 5.067640e+003
1.088729e+003, 5.068742e+003
1.089211e+003, 5.067867e+003
1.089693e+003, 5.063971e+003
1.090175e+003, 5.062389e+003
1.090657e+003, 5.069384e+003
1.091140e+003, 5.075248e+003
1.091622e+003, 5.074208e+003
1.092104e+003, 5.067202e+003
1.092586e+003, 5.061404e+003
1.093068e+003, 5.056818e+003
1.093550e+003, 5.053891e+003
1.094032e+003, 5.053924e+003
1.094514e+003, 5.053982e+003
1.094997e+003, 5.049205e+003
1.095479e+003, 5.044556e+003
1.095961e+003, 5.047739e+003
1.096443e+003, 5.063839e+003
1.096925e+003, 5.069374e+003
1.097407e+003, 5.062875e+003
1.097889e+003, 5.054956e+003
1.098371e+003, 5.055333e+003
1.098854e+003, 5.058127e+003
1.099336e+003, 5.054053e+003
1.099818e+003, 5.045443e+003
1.100300e+003, 5.042225e+003
1.100782e+003, 5.052420e+003
1.101264e+003, 5.057833e+003
1.101746e+003, 5.055300e+003
1.102228e+003, 5.049153e+003
1.102710e+003, 5.042705e+003
1.103193e+003, 5.037717e+003
1.103675e+003, 5.039865e+003
1.104157e+003, 5.049820e+003
1.104639e+003, 5.058537e+003
1.105121e+003, 5.062409e+003
1.105603e+003, 5.063743e+003
1.106085e+003, 5.062851e+003
1.106567e+003, 5.060611e+003
1.107049e+003, 5.059725e+003
1.107531e+003, 5.060026e+003
1.108014e+003, 5.060425e+003
1.108496e+003, 5.060721e+003
1.108978e+003, 5.060541e+003
1.109460e+003, 5.056835e+003
1.109942e+003, 5.054595e+003
1.110424e+003, 5.059963e+003
1.110906e+003, 5.073467e+003
1.111388e+003, 5.077365e+003
1.111871e+003, 5.070930e+003
1.112353e+003, 5.065241e+003
1.112835e+003, 5.066814e+003
1.113317e+003, 5.070651e+003
1.113799e+003, 5.071272e+003
1.114281e+003, 5.070455e+003
1.114763e+003, 5.071226e+003
1.115245e+003, 5.075587e+003
1.115728e+003, 5.078657e+003
1.116210e+003, 5.080503e+003
1.116692e+003, 5.081087e+003
1.117174e+003, 5.078444e+003
1.117656e+003, 5.075469e+003
1.118138e+003, 5.077797e+003
1.118620e+003, 5.084676e+003
1.119102e+003, 5.092481e+003
1.119584e+003, 5.103233e+003
1.120067e+003, 5.109458e+003
1.120549e+003, 5.107720e+003
1.121031e+003, 5.104452e+003
1.121513e+003, 5.110279e+003
1.121995e+003, 5.121786e+003
1.122477e+003, 5.126281e+003
1.122959e+003, 5.122733e+003
1.123441e+003, 5.119727e+003
1.123924e+003, 5.121414e+003
1.124406e+003, 5.125208e+003
1.124888e+003, 5.130432e+003
1.125370e+003, 5.136569e+003
1.125852e+003, 5.142815e+003
1.126334e+003, 5.149048e+003
1.126816e+003, 5.153102e+003
1.127298e+003, 5.154580e+003
1.127781e+003, 5.153744e+003
1.128263e+003, 5.148291e+003
1.128745e+003, 5.142650e+003
1.129227e+003, 5.140813e+003
1.129709e+003, 5.142624e+003
1.130191e+003, 5.144293e+003
1.130673e+003, 5.145860e+003
1.131155e+003, 5.146741e+003
1.131637e+003, 5.146176e+003
1.132120e+003, 5.145730e+003
1.132602e+003, 5.148378e+003
1.133084e+003, 5.151544e+003
1.133566e+003, 5.151273e+003
1.134048e+003, 5.145806e+003
1.134530e+003, 5.141462e+003
1.135012e+003, 5.138633e+003
1.135494e+003, 5.135076e+003
1.135976e+003, 5.127248e+003
1.136458e+003, 5.119087e+003
1.136941e+003, 5.119545e+003
1.137423e+003, 5.124689e+003
1.137905e+003, 5.124923e+003
1.138387e+003, 5.113764e+003
1.138869e+003, 5.102759e+003
1.139351e+003, 5.091878e+003
1.139833e+003, 5.082677e+003
1.140315e+003, 5.076703e+003
1.140798e+003, 5.073682e+003
1.141280e+003, 5.075261e+003
1.141762e+003, 5.080102e+003
1.142244e+003, 5.080161e+003
1.142726e+003, 5.065267e+003
1.143208e+003, 5.054604e+003
1.143690e+003, 5.054557e+003
1.144172e+003, 5.057901e+003
1.144655e+003, 5.052640e+003
1.145137e+003, 5.041091e+003
1.145619e+003, 5.032339e+003
1.146101e+003, 5.027616e+003
1.146583e+003, 5.023222e+003
1.147065e+003, 5.016576e+003
1.147547e+003, 5.010432e+003
1.148029e+003, 5.005725e+003
1.148511e+003, 5.002580e+003
1.148994e+003, 5.002244e+003
1.149476e+003, 5.004261e+003
1.149958e+003, 5.003657e+003
1.150440e+003, 4.998384e+003
1.150922e+003, 4.994919e+003
1.151404e+003, 4.999623e+003
1.151886e+003, 5.006488e+003
1.152368e+003, 5.011404e+003
1.152851e+003, 5.014273e+003
1.153333e+003, 5.015198e+003
1.153815e+003, 5.014107e+003
1.154297e+003, 5.011012e+003
1.154779e+003, 5.004379e+003
1.155261e+003, 4.999023e+003
1.155743e+003, 5.001729e+003
1.156225e+003, 5.006884e+003
1.156708e+003, 5.007270e+003
1.157190e+003, 5.001554e+003
1.157672e+003, 5.000104e+003
1.158154e+003, 5.003559e+003
1.158636e+003, 5.006037e+003
1.159118e+003, 5.004287e+003
1.159600e+003, 5.000015e+003
1.160082e+003, 4.993804e+003
1.160564e+003, 4.986906e+003
1.161047e+003, 4.981405e+003
1.161529e+003, 4.976874e+003
1.162011e+003, 4.976103e+003
1.162493e+003, 4.980016e+003
1.162975e+003, 4.984136e+003
1.163457e+003, 4.985054e+003
1.163939e+003, 4.984070e+003
1.164421e+003, 4.981661e+003
1.164903e+003, 4.978821e+003
1.165385e+003, 4.978564e+003
1.165868e+003, 4.983700e+003
1.166350e+003, 4.987093e+003
1.166832e+003, 4.987709e+003
1.167314e+003, 4.987590e+003
1.167796e+003, 4.990099e+003
1.168278e+003, 4.992720e+003
1.168760e+003, 4.989170e+003
1.169242e+003, 4.980550e+003
1.169725e+003, 4.975862e+003
1.170207e+003, 4.980629e+003
1.170689e+003, 4.985963e+003
1.171171e+003, 4.991470e+003
1.171653e+003, 4.995377e+003
1.172135e+003, 4.993507e+003
1.172617e+003, 4.988534e+003
1.173099e+003, 4.987158e+003
1.173582e+003, 4.990018e+003
1.174064e+003, 4.990914e+003
1.174546e+003, 4.984622e+003
1.175028e+003, 4.979763e+003
1.175510e+003, 4.978328e+003
1.175992e+003, 4.979765e+003
1.176474e+003, 4.985542e+003
1.176956e+003, 4.993096e+003
1.177438e+003, 4.994041e+003
1.177921e+003, 4.986059e+003
1.178403e+003, 4.978419e+003
1.178885e+003, 4.973546e+003
1.179367e+003, 4.971705e+003
1.179849e+003, 4.973937e+003
1.180331e+003, 4.978632e+003
1.180813e+003, 4.980925e+003
1.181295e+003, 4.981244e+003
1.181778e+003, 4.980807e+003
1.182260e+003, 4.979365e+003
1.182742e+003, 4.979432e+003
1.183224e+003, 4.985995e+003
1.183706e+003, 4.990210e+003
1.184188e+003, 4.985424e+003
1.184670e+003, 4.974281e+003
1.185152e+003, 4.972748e+003
1.185635e+003, 4.979014e+003
1.186117e+003, 4.983796e+003
1.186599e+003, 4.983078e+003
1.187081e+003, 4.981204e+003
1.187563e+003, 4.979919e+003
1.188045e+003, 4.978544e+003
1.188527e+003, 4.976028e+003
1.189009e+003, 4.972696e+003
1.189491e+003, 4.972868e+003
1.189974e+003, 4.976179e+003
1.190456e+003, 4.979931e+003
1.190938e+003, 4.983872e+003
1.191420e+003, 4.986482e+003
1.191902e+003, 4.986931e+003
1.192384e+003, 4.985675e+003
1.192866e+003, 4.982167e+003
1.193348e+003, 4.976261e+003
1.193830e+003, 4.977041e+003
1.194313e+003, 4.983857e+003
1.194795e+003, 4.988765e+003
1.195277e+003, 4.986675e+003
1.195759e+003, 4.981727e+003
1.196241e+003, 4.973104e+003
1.196723e+003, 4.964770e+003
1.197205e+003, 4.962851e+003
1.197687e+003, 4.967647e+003
1.198169e+003, 4.967342e+003
1.198652e+003, 4.961649e+003
1.199134e+003, 4.956172e+003
1.199616e+003, 4.954008e+003
1.200098e+003, 4.954056e+003
1.200580e+003, 4.957234e+003
1.201062e+003, 4.961600e+003
1.201544e+003, 4.964044e+003
1.202026e+003, 4.964539e+003
1.202509e+003, 4.964265e+003
1.202991e+003, 4.963294e+003
1.203473e+003, 4.963464e+003
1.203955e+003, 4.968894e+003
1.204437e+003, 4.973062e+003
1.204919e+003, 4.969614e+003
1.205401e+003, 4.962298e+003
1.205883e+003, 4.959458e+003
1.206365e+003, 4.961095e+003
1.206848e+003, 4.964147e+003
1.207330e+003, 4.968372e+003
1.207812e+003, 4.970608e+003
1.208294e+003, 4.966602e+003
1.208776e+003, 4.961444e+003
1.209258e+003, 4.957892e+003
1.209740e+003, 4.956208e+003
1.210222e+003, 4.958542e+003
1.210705e+003, 4.965036e+003
1.211187e+003, 4.966329e+003
1.211669e+003, 4.960413e+003
1.212151e+003, 4.953248e+003
1.212633e+003, 4.947629e+003
1.213115e+003, 4.944503e+003
1.213597e+003, 4.946844e+003
1.214079e+003, 4.952300e+003
1.214562e+003, 4.951462e+003
1.215044e+003, 4.944546e+003
1.215526e+003, 4.941095e+003
1.216008e+003, 4.943927e+003
1.216490e+003, 4.946819e+003
1.216972e+003, 4.943583e+003
1.217454e+003, 4.939509e+003
1.217936e+003, 4.938668e+003
1.218418e+003, 4.940476e+003
1.218901e+003, 4.942356e+003
1.219383e+003, 4.944259e+003
1.219865e+003, 4.946286e+003
1.220347e+003, 4.948658e+003
1.220829e+003, 4.950179e+003
1.221311e+003, 4.950233e+003
1.221793e+003, 4.948713e+003
1.222275e+003, 4.944741e+003
1.222757e+003, 4.939059e+003
1.223240e+003, 4.937508e+003
1.223722e+003, 4.939735e+003
1.224204e+003, 4.940350e+003
1.224686e+003, 4.936873e+003
1.225168e+003, 4.933653e+003
1.225650e+003, 4.936026e+003
1.226132e+003, 4.937618e+003
1.226614e+003, 4.932520e+003
1.227096e+003, 4.922000e+003
1.227579e+003, 4.917661e+003
1.228061e+003, 4.918918e+003
1.228543e+003, 4.920476e+003
1.229025e+003, 4.919567e+003
1.229507e+003, 4.920176e+003
1.229989e+003, 4.929299e+003
1.230471e+003, 4.936330e+003
1.230953e+003, 4.931121e+003
1.231436e+003, 4.915778e+003
1.231918e+003, 4.911965e+003
1.232400e+003, 4.918106e+003
1.232882e+003, 4.923686e+003
1.233364e+003, 4.923941e+003
1.233846e+003, 4.923538e+003
1.234328e+003, 4.925058e+003
1.234810e+003, 4.926499e+003
1.235292e+003, 4.925877e+003
1.235775e+003, 4.923760e+003
1.236257e+003, 4.926002e+003
1.236739e+003, 4.931377e+003
1.237221e+003, 4.933111e+003
1.237703e+003, 4.924411e+003
1.238185e+003, 4.917836e+003
1.238667e+003, 4.919848e+003
1.239149e+003, 4.924107e+003
1.239632e+003, 4.926679e+003
1.240114e+003, 4.927683e+003
1.240596e+003, 4.928439e+003
1.241078e+003, 4.928605e+003
1.241560e+003, 4.926719e+003
1.242042e+003, 4.916951e+003
1.242524e+003, 4.912986e+003
1.243006e+003, 4.921420e+003
1.243489e+003, 4.931948e+003
1.243971e+003, 4.936300e+003
1.244453e+003, 4.936034e+003
1.244935e+003, 4.938049e+003
1.245417e+003, 4.941305e+003
1.245899e+003, 4.941841e+003
1.246381e+003, 4.933667e+003
1.246863e+003, 4.929280e+003
1.247345e+003, 4.931611e+003
1.247828e+003, 4.935670e+003
1.248310e+003, 4.937263e+003
1.248792e+003, 4.937333e+003
1.249274e+003, 4.939007e+003
1.249756e+003, 4.941491e+003
1.250238e+003, 4.941939e+003
1.250720e+003, 4.935616e+003
1.251202e+003, 4.933471e+003
1.251684e+003, 4.937844e+003
1.252167e+003, 4.942689e+003
1.252649e+003, 4.941834e+003
1.253131e+003, 4.938188e+003
1.253613e+003, 4.937069e+003
1.254095e+003, 4.938125e+003
1.254577e+003, 4.940021e+003
1.255059e+003, 4.944546e+003
1.255541e+003, 4.945150e+003
1.256023e+003, 4.940363e+003
1.256506e+003, 4.935394e+003
1.256988e+003, 4.935963e+003
1.257470e+003, 4.938385e+003
1.257952e+003, 4.937975e+003
1.258434e+003, 4.935057e+003
1.258916e+003, 4.930439e+003
1.259398e+003, 4.922416e+003
1.259880e+003, 4.918922e+003
1.260363e+003, 4.921052e+003
1.260845e+003, 4.924136e+003
1.261327e+003, 4.925130e+003
1.261809e+003, 4.924348e+003
1.262291e+003, 4.920454e+003
1.262773e+003, 4.915313e+003
1.263255e+003, 4.914048e+003
1.263737e+003, 4.918050e+003
1.264219e+003, 4.919481e+003
1.264702e+003, 4.917707e+003
1.265184e+003, 4.914761e+003
1.265666e+003, 4.911904e+003
1.266148e+003, 4.908789e+003
1.266630e+003, 4.903455e+003
1.267112e+003, 4.898398e+003
1.267594e+003, 4.899747e+003
1.268076e+003, 4.908369e+003
1.268559e+003, 4.908926e+003
1.269041e+003, 4.900521e+003
1.269523e+003, 4.892946e+003
1.270005e+003, 4.894464e+003
1.270487e+003, 4.897045e+003
1.270969e+003, 4.894566e+003
1.271451e+003, 4.891200e+003
1.271933e+003, 4.893823e+003
1.272416e+003, 4.901706e+003
1.272898e+003, 4.905500e+003
1.273380e+003, 4.904817e+003
1.273862e+003, 4.902958e+003
1.274344e+003, 4.901231e+003
1.274826e+003, 4.899269e+003
1.275308e+003, 4.896178e+003
1.275790e+003, 4.893643e+003
1.276272e+003, 4.894682e+003
1.276755e+003, 4.898083e+003
1.277237e+003, 4.899222e+003
1.277719e+003, 4.898036e+003
1.278201e+003, 4.896133e+003
1.278683e+003, 4.892943e+003
1.279165e+003, 4.891006e+003
1.279647e+003, 4.890736e+003
1.280129e+003, 4.891828e+003
1.280611e+003, 4.894307e+003
1.281094e+003, 4.897729e+003
1.281576e+003, 4.902970e+003
1.282058e+003, 4.908765e+003
1.282540e+003, 4.908653e+003
1.283022e+003, 4.895154e+003
1.283504e+003, 4.886751e+003
1.283986e+003, 4.885715e+003
1.284468e+003, 4.888323e+003
1.284950e+003, 4.891999e+003
1.285433e+003, 4.896297e+003
1.285915e+003, 4.902325e+003
1.286397e+003, 4.908521e+003
1.286879e+003, 4.908295e+003
1.287361e+003, 4.898461e+003
1.287843e+003, 4.894303e+003
1.288325e+003, 4.897635e+003
1.288807e+003, 4.903063e+003
1.289290e+003, 4.907917e+003
1.289772e+003, 4.911067e+003
1.290254e+003, 4.911911e+003
1.290736e+003, 4.909946e+003
1.291218e+003, 4.903683e+003
1.291700e+003, 4.892412e+003
1.292182e+003, 4.886675e+003
1.292664e+003, 4.887123e+003
1.293146e+003, 4.889075e+003
1.293629e+003, 4.889815e+003
1.294111e+003, 4.890469e+003
1.294593e+003, 4.892646e+003
1.295075e+003, 4.894354e+003
1.295557e+003, 4.892290e+003
1.296039e+003, 4.887102e+003
1.296521e+003, 4.884286e+003
1.297003e+003, 4.883805e+003
1.297486e+003, 4.883396e+003
1.297968e+003, 4.884292e+003
1.298450e+003, 4.882218e+003
1.298932e+003, 4.874272e+003
1.299414e+003, 4.866685e+003
1.299896e+003, 4.869007e+003
1.300378e+003, 4.876599e+003
1.300860e+003, 4.875019e+003
1.301343e+003, 4.866257e+003
1.301825e+003, 4.861054e+003
##END=



