##NAMES=Zincroselite
##RRUFFID=R100192
##IDEAL CHEMISTRY=Ca_2_Zn^2+^(As^5+^O_4_)_2_&#183;2H_2_O
##LOCALITY=Tsumeb, Namibia
##OWNER=RRUFF
##SOURCE=William W Pinch
##DESCRIPTION=Colorless, lathlike, elongated and striated, associated with tennantite ore. A piece of the co-type specimen from John Innes
##STATUS=The identification of this mineral has been confirmed by single-crystal X-ray diffraction.
##URL=rruff.info/R100192
##MEASURED CHEMISTRY=Ca_2.06_(Zn_0.90_Mn_0.06_Mg_0.05_Fe_0.01_)(As_0.99_O_4_)_2_Â·2H_2_O
132.0151, 34.05441
132.4972, 35.19666
132.9794, 36.66665
133.4615, 38.27299
133.9436, 39.99233
134.4257, 41.81152
134.9078, 43.24824
135.3899, 44.03029
135.8721, 44.56037
136.3542, 46.05780
136.8363, 48.62950
137.3184, 51.70769
137.8005, 54.74136
138.2826, 57.67646
138.7648, 61.16002
139.2469, 65.20228
139.7290, 69.88575
140.2111, 75.61764
140.6932, 82.67751
141.1753, 90.36043
141.6575, 97.78429
142.1396, 104.6067
142.6217, 112.3634
143.1038, 121.6631
143.5859, 132.7042
144.0681, 142.7747
144.5502, 151.4904
145.0323, 159.6560
145.5144, 168.4881
145.9965, 178.9735
146.4786, 188.5042
146.9608, 196.0642
147.4429, 201.2538
147.9250, 206.6308
148.4071, 211.6366
148.8892, 217.0513
149.3713, 223.8963
149.8535, 232.3512
150.3356, 242.1598
150.8177, 253.3224
151.2998, 266.0518
151.7819, 279.6644
152.2640, 293.7495
152.7462, 308.8099
153.2283, 325.4799
153.7104, 344.8386
154.1925, 364.9797
154.6746, 385.0796
155.1567, 403.9774
155.6389, 424.2843
156.1210, 447.1602
156.6031, 471.8047
157.0852, 496.4716
157.5673, 521.1552
158.0495, 545.4330
158.5316, 569.4371
159.0137, 593.8358
159.4958, 616.7502
159.9779, 637.6458
160.4600, 656.7721
160.9422, 674.9457
161.4243, 692.5441
161.9064, 709.2221
162.3885, 724.6301
162.8706, 738.0451
163.3527, 751.1782
163.8349, 764.0736
164.3170, 777.0797
164.7991, 791.8610
165.2812, 808.8620
165.7633, 828.1368
166.2454, 849.7375
166.7276, 873.8922
167.2097, 900.1852
167.6918, 928.6669
168.1739, 959.1228
168.6560, 991.8752
169.1381, 1027.910
169.6203, 1065.683
170.1024, 1096.411
170.5845, 1122.748
171.0666, 1149.818
171.5487, 1177.862
172.0309, 1206.846
172.5130, 1238.583
172.9951, 1276.048
173.4772, 1316.743
173.9593, 1356.929
174.4414, 1393.371
174.9236, 1429.354
175.4057, 1467.955
175.8878, 1509.526
176.3699, 1551.800
176.8520, 1593.813
177.3341, 1635.522
177.8163, 1676.999
178.2984, 1717.578
178.7805, 1757.810
179.2626, 1799.442
179.7447, 1842.052
180.2268, 1882.991
180.7090, 1919.007
181.1911, 1950.694
181.6732, 1979.325
182.1553, 2005.746
182.6374, 2029.473
183.1195, 2049.250
183.6017, 2065.582
184.0838, 2076.661
184.5659, 2080.994
185.0480, 2078.729
185.5301, 2070.480
186.0123, 2055.798
186.4944, 2035.299
186.9765, 2011.123
187.4586, 1982.962
187.9407, 1951.703
188.4228, 1918.015
188.9050, 1882.123
189.3871, 1844.504
189.8692, 1804.957
190.3513, 1764.090
190.8334, 1724.084
191.3155, 1685.607
191.7977, 1647.214
192.2798, 1607.005
192.7619, 1565.011
193.2440, 1521.148
193.7261, 1473.531
194.2082, 1422.852
194.6904, 1374.732
195.1725, 1329.704
195.6546, 1286.766
196.1367, 1245.610
196.6188, 1205.977
197.1009, 1168.506
197.5831, 1133.720
198.0652, 1101.295
198.5473, 1070.904
199.0294, 1042.639
199.5115, 1016.145
199.9937, 990.6776
200.4758, 966.5313
200.9579, 943.3788
201.4400, 921.2007
201.9221, 899.9408
202.4042, 880.3635
202.8864, 862.8909
203.3685, 846.7122
203.8506, 829.5048
204.3327, 810.8850
204.8148, 793.4094
205.2969, 778.8928
205.7791, 767.7718
206.2612, 756.2411
206.7433, 743.6407
207.2254, 730.8358
207.7075, 720.4672
208.1896, 713.3818
208.6718, 706.1903
209.1539, 696.1067
209.6360, 681.9504
210.1181, 671.7019
210.6002, 667.0419
211.0823, 665.8549
211.5645, 662.2379
212.0466, 655.7233
212.5287, 647.8781
213.0108, 639.3024
213.4929, 629.6254
213.9750, 620.5670
214.4572, 612.4086
214.9393, 604.8719
215.4214, 596.6837
215.9035, 587.1750
216.3856, 578.2909
216.8678, 571.2513
217.3499, 566.2093
217.8320, 562.1549
218.3141, 559.1857
218.7962, 557.1314
219.2783, 555.4933
219.7605, 554.1061
220.2426, 553.4232
220.7247, 553.7189
221.2068, 555.1150
221.6889, 557.1464
222.1710, 559.9916
222.6532, 563.4127
223.1353, 566.5416
223.6174, 569.2362
224.0995, 571.9527
224.5816, 575.0087
225.0637, 578.8265
225.5459, 581.9221
226.0280, 583.7432
226.5101, 584.9410
226.9922, 587.4309
227.4743, 591.5305
227.9564, 596.4446
228.4386, 602.0155
228.9207, 608.6415
229.4028, 614.6295
229.8849, 619.5092
230.3670, 623.8443
230.8492, 629.4456
231.3313, 636.7589
231.8134, 644.5660
232.2955, 652.6010
232.7776, 661.3566
233.2597, 668.9052
233.7419, 675.0593
234.2240, 680.0920
234.7061, 684.5169
235.1882, 688.3100
235.6703, 691.5565
236.1524, 694.3967
236.6346, 697.1627
237.1167, 698.7758
237.5988, 699.3874
238.0809, 698.8286
238.5630, 696.5076
239.0451, 691.5017
239.5273, 686.1237
240.0094, 681.3983
240.4915, 677.9268
240.9736, 673.4048
241.4557, 667.3774
241.9378, 660.4550
242.4200, 654.1152
242.9021, 649.4307
243.3842, 643.5181
243.8663, 635.0349
244.3484, 622.9252
244.8306, 611.3203
245.3127, 600.2895
245.7948, 589.8271
246.2769, 580.0724
246.7590, 571.5872
247.2411, 563.0492
247.7233, 554.0306
248.2054, 544.4589
248.6875, 534.5674
249.1696, 523.9532
249.6517, 513.3932
250.1338, 504.2460
250.6160, 496.8619
251.0981, 490.2455
251.5802, 484.2684
252.0623, 479.0245
252.5444, 473.7345
253.0265, 468.3148
253.5087, 462.9580
253.9908, 458.0125
254.4729, 453.3967
254.9550, 449.2855
255.4371, 445.6952
255.9192, 442.6438
256.4014, 440.2632
256.8835, 438.7924
257.3656, 437.7554
257.8477, 436.4131
258.3298, 434.2748
258.8120, 432.9482
259.2941, 433.0226
259.7762, 434.6012
260.2583, 435.8535
260.7404, 436.8056
261.2225, 437.4005
261.7047, 437.3836
262.1868, 436.1721
262.6689, 435.9033
263.1510, 437.3578
263.6331, 440.4531
264.1152, 442.5395
264.5974, 442.8699
265.0795, 443.3261
265.5616, 445.8317
266.0437, 451.0208
266.5258, 456.3216
267.0079, 461.3619
267.4901, 466.1795
267.9722, 470.6399
268.4543, 474.7601
268.9364, 478.6116
269.4185, 482.1269
269.9006, 485.1219
270.3828, 488.6102
270.8649, 492.8551
271.3470, 497.7188
271.8291, 502.5032
272.3112, 507.0231
272.7933, 512.0714
273.2755, 518.3328
273.7576, 525.9780
274.2397, 533.5369
274.7218, 540.6467
275.2039, 547.5956
275.6860, 555.1341
276.1682, 563.2560
276.6503, 572.2568
277.1324, 582.1684
277.6145, 592.8322
278.0966, 605.5754
278.5787, 620.9539
279.0609, 637.8871
279.5430, 654.4322
280.0251, 670.5184
280.5072, 686.2870
280.9893, 702.3616
281.4715, 718.6127
281.9536, 732.6937
282.4357, 744.3465
282.9178, 754.1221
283.3999, 763.4523
283.8820, 772.4608
284.3642, 778.6010
284.8463, 780.2505
285.3284, 777.6142
285.8105, 773.1434
286.2926, 766.6239
286.7747, 758.8876
287.2569, 750.1094
287.7390, 740.3929
288.2211, 732.6902
288.7032, 728.2966
289.1853, 726.9247
289.6674, 726.9891
290.1496, 728.3619
290.6317, 731.9368
291.1138, 739.4935
291.5959, 750.6310
292.0780, 762.0876
292.5602, 772.0475
293.0423, 781.9697
293.5244, 795.9534
294.0065, 814.0466
294.4886, 833.9415
294.9707, 854.4717
295.4529, 875.4620
295.9350, 895.8497
296.4171, 915.7032
296.8992, 934.7972
297.3813, 952.9391
297.8634, 969.9723
298.3456, 984.9433
298.8277, 997.4402
299.3098, 1007.188
299.7919, 1013.364
300.2740, 1015.546
300.7561, 1014.421
301.2383, 1010.440
301.7204, 1003.732
302.2025, 995.0961
302.6846, 984.2106
303.1667, 971.9169
303.6488, 959.2791
304.1310, 946.6674
304.6131, 933.4418
305.0952, 918.0033
305.5773, 901.4014
306.0594, 886.5372
306.5415, 874.9371
307.0237, 865.7419
307.5058, 857.8639
307.9879, 851.2225
308.4700, 846.1497
308.9521, 842.9630
309.4343, 841.4908
309.9164, 841.3215
310.3985, 841.9819
310.8806, 844.0793
311.3627, 847.7646
311.8448, 853.0657
312.3270, 860.8557
312.8091, 871.9831
313.2912, 885.7923
313.7733, 901.5099
314.2554, 918.4244
314.7375, 937.5541
315.2197, 959.3770
315.7018, 984.0200
316.1839, 1010.924
316.6660, 1039.544
317.1481, 1070.640
317.6302, 1104.453
318.1124, 1141.160
318.5945, 1180.629
319.0766, 1223.609
319.5587, 1269.622
320.0408, 1317.589
320.5229, 1368.756
321.0051, 1420.664
321.4872, 1471.913
321.9693, 1520.178
322.4514, 1570.661
322.9335, 1624.039
323.4156, 1680.322
323.8978, 1739.532
324.3799, 1800.717
324.8620, 1865.655
325.3441, 1935.375
325.8262, 2009.728
326.3083, 2087.380
326.7905, 2168.108
327.2726, 2252.454
327.7547, 2339.953
328.2368, 2430.025
328.7189, 2524.568
329.2010, 2624.059
329.6832, 2727.547
330.1653, 2836.699
330.6474, 2955.075
331.1295, 3076.425
331.6116, 3197.254
332.0938, 3319.009
332.5759, 3438.701
333.0580, 3557.243
333.5401, 3674.289
334.0222, 3779.594
334.5043, 3875.892
334.9865, 3957.973
335.4686, 4024.798
335.9507, 4079.785
336.4328, 4110.320
336.9149, 4115.300
337.3970, 4095.760
337.8792, 4054.750
338.3613, 3990.456
338.8434, 3908.685
339.3255, 3808.956
339.8076, 3688.945
340.2898, 3564.787
340.7719, 3433.691
341.2540, 3301.535
341.7361, 3172.157
342.2182, 3047.252
342.7003, 2929.910
343.1825, 2822.889
343.6646, 2724.916
344.1467, 2634.090
344.6288, 2549.348
345.1109, 2473.089
345.5930, 2407.145
346.0752, 2351.899
346.5573, 2302.654
347.0394, 2257.980
347.5215, 2218.444
348.0036, 2184.625
348.4857, 2156.636
348.9679, 2132.880
349.4500, 2113.730
349.9321, 2097.769
350.4142, 2081.094
350.8963, 2063.061
351.3784, 2044.064
351.8606, 2026.027
352.3427, 2008.164
352.8248, 1987.039
353.3069, 1960.350
353.7890, 1929.659
354.2711, 1896.716
354.7533, 1861.888
355.2354, 1824.125
355.7175, 1782.928
356.1996, 1738.499
356.6817, 1691.183
357.1638, 1639.095
357.6460, 1585.697
358.1281, 1533.052
358.6102, 1481.327
359.0923, 1428.985
359.5744, 1374.142
360.0565, 1319.259
360.5387, 1266.708
361.0208, 1217.295
361.5029, 1169.949
361.9850, 1124.635
362.4671, 1081.269
362.9492, 1040.230
363.4314, 1001.203
363.9135, 964.8592
364.3956, 931.7968
364.8777, 902.7805
365.3598, 875.0986
365.8419, 847.2869
366.3241, 820.6451
366.8062, 797.3244
367.2883, 779.8438
367.7704, 763.5601
368.2526, 747.1191
368.7347, 730.1365
369.2168, 714.7570
369.6989, 701.0506
370.1810, 688.8322
370.6631, 677.8339
371.1453, 668.3796
371.6274, 659.6619
372.1095, 651.6730
372.5916, 644.3121
373.0737, 637.1367
373.5558, 629.8426
374.0380, 623.0905
374.5201, 617.2146
375.0022, 612.4614
375.4843, 607.9006
375.9664, 603.3276
376.4485, 599.0897
376.9307, 596.1592
377.4128, 595.0720
377.8949, 593.0849
378.3770, 588.5676
378.8591, 581.7306
379.3412, 576.3821
379.8234, 572.6055
380.3055, 570.1769
380.7876, 569.5095
381.2697, 570.4714
381.7518, 570.6917
382.2339, 569.1171
382.7161, 566.7484
383.1982, 566.0001
383.6803, 566.8399
384.1624, 568.1085
384.6445, 568.9426
385.1266, 569.5474
385.6088, 570.3824
386.0909, 571.4640
386.5730, 572.9459
387.0551, 575.1773
387.5372, 577.9645
388.0193, 580.8002
388.5015, 582.6756
388.9836, 584.8323
389.4657, 589.0348
389.9478, 595.4366
390.4299, 601.7240
390.9120, 606.2205
391.3942, 609.7288
391.8763, 613.1546
392.3584, 615.7617
392.8405, 619.3746
393.3226, 624.9794
393.8047, 632.4137
394.2869, 640.9335
394.7690, 651.2931
395.2511, 661.9396
395.7332, 671.7712
396.2154, 679.7847
396.6975, 688.6939
397.1796, 699.3931
397.6617, 711.4006
398.1438, 723.7787
398.6259, 737.6415
399.1081, 750.7650
399.5902, 762.3499
400.0723, 772.1838
400.5544, 782.0460
401.0365, 792.8791
401.5186, 803.0528
402.0008, 811.1629
402.4829, 817.0967
402.9650, 821.2656
403.4471, 823.6644
403.9292, 824.3231
404.4113, 823.1438
404.8935, 819.5197
405.3756, 815.4518
405.8577, 812.0258
406.3398, 809.4283
406.8219, 806.1555
407.3040, 801.7863
407.7862, 797.5349
408.2683, 794.7859
408.7504, 793.5306
409.2325, 794.3246
409.7146, 797.7421
410.1967, 803.2679
410.6789, 809.5197
411.1610, 816.5102
411.6431, 824.1686
412.1252, 832.4335
412.6073, 841.2742
413.0894, 850.6465
413.5716, 860.4922
414.0537, 870.5159
414.5358, 880.4084
415.0179, 890.0700
415.5000, 899.5342
415.9821, 908.6489
416.4643, 917.5143
416.9464, 926.4849
417.4285, 935.5910
417.9106, 943.6791
418.3927, 949.1467
418.8748, 953.4568
419.3570, 958.2507
419.8391, 965.5233
420.3212, 972.0465
420.8033, 976.6671
421.2854, 979.4701
421.7675, 980.9955
422.2497, 980.4737
422.7318, 979.4453
423.2139, 978.8976
423.6960, 979.8756
424.1781, 979.3351
424.6602, 977.1503
425.1424, 973.2112
425.6245, 967.4089
426.1066, 960.7952
426.5887, 951.1003
427.0709, 937.1025
427.5530, 918.7983
428.0351, 901.3262
428.5172, 885.3891
428.9993, 869.0194
429.4814, 850.4977
429.9636, 829.1141
430.4457, 808.3280
430.9278, 788.5975
431.4099, 769.4345
431.8920, 749.3873
432.3741, 727.9670
432.8563, 708.0873
433.3384, 691.1367
433.8205, 676.8337
434.3026, 664.0148
434.7847, 652.6939
435.2668, 642.2225
435.7490, 631.7587
436.2311, 621.5001
436.7132, 612.5512
437.1953, 605.3529
437.6774, 599.3505
438.1595, 593.6599
438.6417, 588.3891
439.1238, 583.9831
439.6059, 581.0038
440.0880, 578.8788
440.5701, 577.0916
441.0522, 575.6120
441.5344, 574.2504
442.0165, 572.3571
442.4986, 570.6786
442.9807, 570.1442
443.4628, 571.6722
443.9449, 573.8002
444.4271, 575.8240
444.9092, 577.8837
445.3913, 580.8522
445.8734, 585.5945
446.3555, 590.7255
446.8376, 595.6051
447.3198, 600.3539
447.8019, 604.5046
448.2840, 607.8206
448.7661, 610.6052
449.2482, 613.2620
449.7303, 615.8319
450.2125, 618.1846
450.6946, 620.4172
451.1767, 622.4976
451.6588, 623.9598
452.1409, 625.0753
452.6230, 624.9885
453.1052, 622.7633
453.5873, 618.2093
454.0694, 613.8279
454.5515, 609.9221
455.0337, 606.0494
455.5158, 601.0077
455.9979, 594.9135
456.4800, 590.1873
456.9621, 588.2349
457.4442, 588.2112
457.9264, 587.8057
458.4085, 587.0749
458.8906, 587.6332
459.3727, 591.0430
459.8548, 596.5586
460.3369, 603.1679
460.8191, 611.2607
461.3012, 619.1396
461.7833, 624.7515
462.2654, 629.1843
462.7475, 634.6686
463.2296, 643.0087
463.7118, 652.0576
464.1939, 660.5042
464.6760, 668.3245
465.1581, 676.7387
465.6402, 685.7653
466.1223, 695.6602
466.6045, 706.4965
467.0866, 720.1237
467.5687, 732.3382
468.0508, 742.3420
468.5329, 750.8976
469.0150, 759.8510
469.4972, 769.5270
469.9793, 778.9583
470.4614, 787.9509
470.9435, 796.5505
471.4256, 803.8689
471.9077, 809.8741
472.3899, 814.6901
472.8720, 818.5720
473.3541, 821.6373
473.8362, 822.8185
474.3183, 821.8514
474.8004, 819.1680
475.2826, 815.3268
475.7647, 810.3701
476.2468, 804.9218
476.7289, 799.8984
477.2110, 794.4545
477.6931, 786.3253
478.1753, 775.4744
478.6574, 764.2697
479.1395, 755.5872
479.6216, 747.5399
480.1037, 737.1175
480.5858, 722.4335
481.0680, 707.2227
481.5501, 694.1927
482.0322, 682.4952
482.5143, 670.4720
482.9964, 656.7658
483.4786, 643.2110
483.9607, 630.7796
484.4428, 619.7264
484.9249, 608.4977
485.4070, 596.2871
485.8892, 584.2438
486.3713, 573.2160
486.8534, 564.3675
487.3355, 554.9482
487.8176, 544.4818
488.2997, 533.5674
488.7819, 523.1473
489.2640, 512.9446
489.7461, 503.8110
490.2282, 496.3590
490.7103, 490.3939
491.1924, 483.6497
491.6746, 475.9230
492.1567, 468.0650
492.6388, 460.7994
493.1209, 454.0259
493.6030, 447.8068
494.0851, 442.1426
494.5673, 436.7663
495.0494, 431.2041
495.5315, 425.5852
496.0136, 420.5861
496.4957, 416.6029
496.9778, 413.3176
497.4600, 410.5048
497.9421, 408.1075
498.4242, 405.5019
498.9063, 402.1362
499.3884, 398.4850
499.8705, 394.8226
500.3527, 391.0334
500.8348, 387.7407
501.3169, 385.7192
501.7990, 384.2434
502.2811, 382.2732
502.7632, 378.7105
503.2454, 375.6578
503.7275, 373.9204
504.2096, 373.3316
504.6917, 371.8669
505.1738, 368.8568
505.6559, 365.9140
506.1381, 363.9314
506.6202, 363.1112
507.1023, 362.5690
507.5844, 362.5424
508.0665, 362.3797
508.5486, 360.8992
509.0308, 358.0508
509.5129, 355.8525
509.9950, 355.0719
510.4771, 354.9860
510.9592, 353.9019
511.4413, 351.9213
511.9235, 350.0376
512.4056, 348.9532
512.8877, 348.3293
513.3698, 347.6176
513.8519, 346.7603
514.3340, 346.0481
514.8162, 345.9054
515.2983, 345.9532
515.7804, 345.7189
516.2625, 344.6685
516.7446, 343.8218
517.2267, 343.9682
517.7089, 344.6454
518.1910, 344.7080
518.6731, 343.1668
519.1552, 341.6800
519.6373, 340.8913
520.1194, 340.8677
520.6016, 340.7797
521.0837, 340.6202
521.5658, 340.4008
522.0479, 340.1360
522.5300, 339.8456
523.0121, 339.4043
523.4943, 338.7227
523.9764, 337.9904
524.4585, 337.5717
524.9406, 337.4786
525.4227, 337.4352
525.9048, 337.3894
526.3870, 337.3057
526.8691, 337.0932
527.3513, 336.7535
527.8334, 336.3207
528.3155, 335.7436
528.7976, 335.1128
529.2797, 334.4556
529.7618, 333.7034
530.2440, 333.3532
530.7261, 334.5697
531.2082, 336.1421
531.6903, 336.5017
532.1724, 333.2040
532.6545, 330.6670
533.1367, 330.8463
533.6188, 333.0185
534.1009, 334.5788
534.5830, 334.9001
535.0651, 334.7660
535.5472, 334.2896
536.0294, 333.3604
536.5115, 332.9281
536.9936, 333.3169
537.4757, 333.7534
537.9578, 333.3785
538.4399, 331.9134
538.9221, 331.5108
539.4042, 332.6539
539.8863, 334.4817
540.3684, 335.5611
540.8505, 335.9250
541.3326, 335.9586
541.8148, 335.6989
542.2969, 335.2787
542.7790, 334.8348
543.2611, 334.3966
543.7432, 334.1721
544.2253, 334.1996
544.7075, 334.5673
545.1896, 335.3575
545.6717, 336.5794
546.1538, 338.2388
546.6359, 341.7996
547.1180, 345.1947
547.6002, 346.1743
548.0823, 341.0721
548.5644, 337.1364
549.0465, 336.1549
549.5286, 337.2853
550.0107, 338.0583
550.4929, 338.0056
550.9750, 338.3200
551.4571, 339.6435
551.9392, 341.9883
552.4213, 343.1298
552.9034, 342.8820
553.3856, 342.0410
553.8677, 341.0141
554.3498, 339.8484
554.8319, 339.1254
555.3140, 338.9163
555.7961, 339.1077
556.2783, 339.7758
556.7604, 340.7472
557.2425, 341.5089
557.7246, 341.6710
558.2067, 341.7594
558.6888, 342.6310
559.1710, 343.9440
559.6531, 344.5122
560.1352, 342.5737
560.6173, 340.6530
561.0994, 340.5065
561.5815, 342.5210
562.0637, 344.0835
562.5458, 344.4019
563.0279, 344.2634
563.5100, 344.2539
563.9921, 344.4993
564.4742, 344.6334
564.9564, 344.5421
565.4385, 344.4097
565.9206, 344.6092
566.4027, 345.2271
566.8848, 345.6790
567.3669, 345.6494
567.8491, 345.4067
568.3312, 346.0648
568.8133, 347.5755
569.2954, 348.7397
569.7775, 348.3383
570.2596, 347.1858
570.7418, 346.8983
571.2239, 347.5959
571.7060, 348.2648
572.1881, 347.6777
572.6702, 346.8449
573.1523, 346.9922
573.6345, 349.1757
574.1166, 351.0055
574.5987, 351.3245
575.0808, 350.7586
575.5629, 350.3479
576.0450, 350.4174
576.5272, 350.4918
577.0093, 350.6359
577.4914, 350.7681
577.9735, 350.1708
578.4556, 348.2648
578.9377, 346.8444
579.4199, 346.9825
579.9020, 348.7139
580.3841, 350.2691
580.8662, 351.7296
581.3483, 352.5976
581.8304, 351.6707
582.3126, 349.6271
582.7947, 348.9358
583.2768, 350.2769
583.7589, 352.3937
584.2410, 354.5440
584.7231, 356.4355
585.2053, 357.4907
585.6874, 356.8516
586.1696, 355.8686
586.6517, 355.1231
587.1338, 354.6027
587.6159, 354.2335
588.0980, 353.5123
588.5801, 353.3570
589.0623, 354.4848
589.5444, 357.2272
590.0265, 358.8980
590.5086, 359.0017
590.9907, 358.6719
591.4728, 358.7453
591.9550, 359.2650
592.4371, 360.0705
592.9192, 361.3395
593.4013, 362.4514
593.8834, 362.2878
594.3655, 361.0410
594.8477, 359.8542
595.3298, 358.9929
595.8119, 358.5269
596.2940, 358.6588
596.7761, 359.2942
597.2582, 360.1175
597.7404, 360.7567
598.2225, 361.6741
598.7046, 363.7231
599.1867, 366.8890
599.6688, 368.6978
600.1509, 366.7513
600.6331, 364.4259
601.1152, 363.9654
601.5973, 366.6250
602.0794, 368.2921
602.5615, 368.5405
603.0436, 368.1893
603.5258, 368.1522
604.0079, 368.5093
604.4900, 368.7440
604.9721, 368.7218
605.4542, 368.6224
605.9363, 368.7069
606.4185, 368.9978
606.9006, 369.7019
607.3827, 371.5386
607.8648, 373.4463
608.3469, 373.3654
608.8290, 371.6710
609.3112, 370.4725
609.7933, 371.1600
610.2754, 372.7124
610.7575, 374.5767
611.2396, 376.7366
611.7217, 378.5074
612.2039, 379.6275
612.6860, 380.2946
613.1681, 380.6319
613.6502, 380.1798
614.1323, 380.2224
614.6144, 381.0045
615.0966, 382.0722
615.5787, 382.8784
616.0608, 383.4537
616.5429, 383.4753
617.0250, 382.6747
617.5071, 381.5090
617.9893, 380.8890
618.4714, 380.8224
618.9535, 381.3367
619.4356, 382.9485
619.9177, 384.8853
620.3998, 386.0240
620.8820, 386.4538
621.3641, 387.0677
621.8462, 389.0593
622.3283, 390.9583
622.8104, 391.4206
623.2925, 389.7400
623.7747, 388.8414
624.2568, 389.7368
624.7389, 391.3191
625.2210, 392.7683
625.7031, 394.3253
626.1852, 395.1274
626.6674, 394.8145
627.1495, 394.0761
627.6316, 393.9659
628.1137, 394.4886
628.5958, 395.5764
629.0779, 397.4193
629.5601, 399.5806
630.0422, 401.2493
630.5243, 402.4689
631.0064, 403.4997
631.4885, 404.6763
631.9706, 405.6054
632.4528, 405.5750
632.9349, 404.7040
633.4170, 404.4135
633.8991, 405.8530
634.3812, 407.6719
634.8633, 408.9560
635.3455, 409.1631
635.8276, 410.3228
636.3097, 413.2350
636.7918, 416.4107
637.2739, 418.6712
637.7560, 419.9420
638.2382, 420.3044
638.7203, 419.3732
639.2024, 418.2540
639.6845, 418.8654
640.1666, 420.9933
640.6487, 422.8720
641.1309, 423.8614
641.6130, 424.5135
642.0951, 425.5414
642.5772, 426.8423
643.0594, 428.0929
643.5415, 428.9375
644.0236, 429.8677
644.5057, 431.3781
644.9879, 433.3885
645.4700, 434.9964
645.9521, 435.8842
646.4342, 436.4453
646.9163, 436.8114
647.3984, 436.9395
647.8806, 437.2639
648.3627, 437.8375
648.8448, 438.5422
649.3269, 439.4604
649.8090, 440.5944
650.2911, 440.9273
650.7733, 440.2056
651.2554, 439.5201
651.7375, 440.2641
652.2196, 442.0534
652.7017, 443.9878
653.1838, 445.9243
653.6660, 447.7080
654.1481, 449.1725
654.6302, 450.3937
655.1123, 451.5304
655.5944, 452.9008
656.0765, 453.8766
656.5587, 453.7793
657.0408, 452.9816
657.5229, 453.3018
658.0050, 455.4187
658.4871, 457.4739
658.9692, 458.7993
659.4514, 459.4586
659.9335, 460.2201
660.4156, 461.1157
660.8977, 461.8347
661.3798, 462.1310
661.8619, 462.0762
662.3441, 461.7647
662.8262, 461.1962
663.3083, 460.7372
663.7904, 460.9908
664.2725, 461.3694
664.7546, 461.1281
665.2368, 459.7872
665.7189, 458.7523
666.2010, 458.4353
666.6831, 458.6942
667.1652, 459.4176
667.6473, 461.1323
668.1295, 462.4035
668.6116, 463.0324
669.0937, 463.2595
669.5758, 463.4633
670.0579, 463.6183
670.5400, 464.0145
671.0222, 464.8127
671.5043, 465.8123
671.9864, 466.5751
672.4685, 467.1517
672.9506, 467.8193
673.4327, 468.7339
673.9149, 469.7829
674.3970, 471.0685
674.8791, 472.4997
675.3612, 473.4586
675.8433, 473.2516
676.3254, 472.9011
676.8076, 472.8800
677.2897, 473.2227
677.7718, 473.9561
678.2539, 475.3273
678.7360, 476.7545
679.2181, 477.8097
679.7003, 478.4374
680.1824, 479.3072
680.6645, 480.4834
681.1466, 481.7149
681.6287, 482.4698
682.1108, 483.0594
682.5930, 484.4763
683.0751, 487.1822
683.5572, 489.8375
684.0393, 490.9142
684.5214, 491.3504
685.0035, 492.4986
685.4857, 495.7662
685.9678, 498.6479
686.4499, 500.0297
686.9320, 500.6356
687.4141, 502.1393
687.8962, 505.1373
688.3784, 507.8766
688.8605, 509.8639
689.3426, 511.3732
689.8247, 513.3608
690.3068, 515.8632
690.7889, 518.4213
691.2711, 520.7941
691.7532, 523.0948
692.2353, 525.4441
692.7174, 527.8448
693.1995, 530.4377
693.6816, 533.9727
694.1638, 537.2387
694.6459, 538.8284
695.1280, 538.5517
695.6101, 539.3297
696.0922, 542.5035
696.5743, 546.4448
697.0565, 550.3906
697.5386, 554.5135
698.0207, 558.0015
698.5028, 560.6038
698.9849, 563.1213
699.4670, 566.5797
699.9492, 570.8204
700.4313, 574.0428
700.9135, 575.8885
701.3956, 577.3892
701.8777, 579.5689
702.3598, 582.1696
702.8419, 584.7142
703.3240, 586.8580
703.8062, 589.3381
704.2883, 593.2084
704.7704, 597.4359
705.2525, 600.4432
705.7346, 600.6349
706.2167, 601.3524
706.6989, 603.2695
707.1810, 605.7512
707.6631, 607.2531
708.1452, 607.5489
708.6273, 608.1686
709.1094, 609.7597
709.5916, 611.7904
710.0737, 612.9324
710.5558, 613.3386
711.0379, 613.8307
711.5200, 614.8446
712.0021, 616.1356
712.4843, 618.1488
712.9664, 620.4993
713.4485, 621.2640
713.9306, 617.5052
714.4127, 613.9909
714.8948, 613.3943
715.3770, 615.7675
715.8591, 616.8891
716.3412, 616.3001
716.8233, 615.3682
717.3054, 614.9396
717.7875, 614.9756
718.2697, 614.5300
718.7518, 613.6036
719.2339, 612.1972
719.7160, 609.7443
720.1981, 607.0283
720.6802, 605.4863
721.1624, 605.4166
721.6445, 605.2239
722.1266, 603.8393
722.6087, 601.9963
723.0908, 600.3319
723.5729, 599.1169
724.0551, 597.7626
724.5372, 596.1094
725.0193, 594.4448
725.5014, 593.1691
725.9835, 592.4128
726.4656, 591.2383
726.9478, 589.4883
727.4299, 587.4186
727.9120, 585.1239
728.3941, 582.7815
728.8762, 581.1846
729.3583, 580.9494
729.8405, 580.6461
730.3226, 578.9877
730.8047, 576.4583
731.2868, 573.9128
731.7689, 571.0321
732.2510, 568.8090
732.7332, 568.1799
733.2153, 568.2092
733.6974, 566.8377
734.1795, 563.3182
734.6616, 560.5318
735.1437, 559.4886
735.6259, 559.3918
736.1080, 558.0642
736.5901, 555.6474
737.0722, 553.3929
737.5543, 551.4925
738.0364, 550.3725
738.5186, 551.1618
739.0007, 553.2933
739.4828, 554.7735
739.9649, 554.4819
740.4470, 553.5966
740.9291, 552.4302
741.4113, 551.0459
741.8934, 549.8531
742.3755, 548.6701
742.8576, 548.0038
743.3397, 547.9651
743.8218, 548.5966
744.3040, 550.6620
744.7861, 554.1942
745.2682, 557.3203
745.7503, 558.3377
746.2324, 558.3088
746.7145, 558.8397
747.1967, 559.9774
747.6788, 561.3090
748.1609, 562.2672
748.6430, 563.5975
749.1251, 565.9633
749.6072, 569.7062
750.0894, 573.0091
750.5715, 575.2717
751.0536, 577.7879
751.5357, 581.6561
752.0178, 587.1341
752.4999, 590.8632
752.9821, 592.5955
753.4642, 594.3395
753.9463, 598.1317
754.4284, 603.2515
754.9105, 608.1658
755.3926, 612.6618
755.8748, 617.5374
756.3569, 623.4952
756.8390, 629.9913
757.3211, 636.5671
757.8032, 642.7007
758.2853, 649.8503
758.7675, 658.2193
759.2496, 667.3926
759.7318, 677.1943
760.2139, 687.5958
760.6960, 698.2992
761.1781, 709.2852
761.6602, 720.3612
762.1423, 730.3072
762.6245, 740.2461
763.1066, 753.0319
763.5887, 769.5556
764.0708, 787.9559
764.5529, 807.5007
765.0350, 827.7875
765.5172, 848.3368
765.9993, 868.4088
766.4814, 889.5638
766.9635, 911.2097
767.4456, 934.3801
767.9277, 960.3509
768.4099, 989.4599
768.8920, 1020.540
769.3741, 1053.501
769.8562, 1088.352
770.3383, 1125.565
770.8204, 1165.123
771.3026, 1207.091
771.7847, 1251.919
772.2668, 1298.351
772.7489, 1344.934
773.2310, 1392.941
773.7131, 1443.670
774.1953, 1498.660
774.6774, 1555.516
775.1595, 1613.961
775.6416, 1674.071
776.1237, 1735.916
776.6058, 1799.480
777.0880, 1865.290
777.5701, 1932.913
778.0522, 2002.467
778.5343, 2075.556
779.0164, 2150.501
779.4985, 2222.854
779.9807, 2291.444
780.4628, 2354.888
780.9449, 2412.313
781.4270, 2463.569
781.9091, 2509.785
782.3912, 2556.455
782.8734, 2590.037
783.3555, 2608.115
783.8376, 2612.092
784.3197, 2605.278
784.8018, 2587.656
785.2839, 2558.729
785.7661, 2518.345
786.2482, 2466.944
786.7303, 2401.299
787.2124, 2325.288
787.6945, 2248.210
788.1766, 2173.516
788.6588, 2097.771
789.1409, 2024.245
789.6230, 1948.314
790.1051, 1874.271
790.5872, 1800.996
791.0693, 1732.413
791.5515, 1670.076
792.0336, 1612.978
792.5157, 1559.928
792.9978, 1510.931
793.4799, 1466.520
793.9620, 1426.700
794.4442, 1391.245
794.9263, 1359.106
795.4084, 1330.522
795.8905, 1305.736
796.3726, 1285.985
796.8547, 1268.928
797.3369, 1253.029
797.8190, 1239.007
798.3011, 1228.711
798.7832, 1222.451
799.2653, 1219.018
799.7474, 1218.049
800.2296, 1219.738
800.7117, 1224.723
801.1938, 1232.955
801.6759, 1243.899
802.1580, 1256.918
802.6401, 1272.974
803.1223, 1292.349
803.6044, 1315.593
804.0865, 1343.684
804.5686, 1376.746
805.0507, 1415.107
805.5328, 1458.021
806.0150, 1506.683
806.4971, 1564.779
806.9792, 1631.671
807.4613, 1709.908
807.9434, 1799.986
808.4255, 1902.161
808.9077, 2017.964
809.3898, 2147.909
809.8719, 2294.360
810.3540, 2459.543
810.8361, 2640.331
811.3182, 2837.843
811.8004, 3048.185
812.2825, 3266.603
812.7646, 3494.743
813.2467, 3727.095
813.7288, 3959.175
814.2109, 4196.678
814.6931, 4447.135
815.1752, 4711.591
815.6573, 4997.474
816.1394, 5306.208
816.6215, 5642.816
817.1037, 6011.365
817.5858, 6413.089
818.0679, 6860.260
818.5500, 7362.847
819.0322, 7910.529
819.5143, 8494.193
819.9964, 9112.428
820.4785, 9760.252
820.9606, 10447.05
821.4427, 11131.58
821.9249, 11820.17
822.4070, 12492.04
822.8891, 13121.29
823.3712, 13700.74
823.8533, 14160.31
824.3354, 14508.28
824.8176, 14678.03
825.2997, 14583.89
825.7818, 14259.14
826.2639, 13763.37
826.7460, 12995.03
827.2281, 12201.02
827.7103, 11369.14
828.1924, 10563.79
828.6745, 9856.364
829.1566, 9253.806
829.6387, 8744.907
830.1208, 8335.705
830.6030, 8011.836
831.0851, 7776.019
831.5672, 7616.643
832.0493, 7504.086
832.5314, 7435.417
833.0135, 7402.517
833.4957, 7406.502
833.9778, 7441.023
834.4599, 7499.201
834.9420, 7593.250
835.4241, 7692.455
835.9063, 7797.392
836.3884, 7906.694
836.8705, 8022.358
837.3526, 8143.803
837.8347, 8247.479
838.3168, 8332.168
838.7990, 8396.275
839.2811, 8446.468
839.7632, 8473.299
840.2453, 8464.900
840.7274, 8419.996
841.2095, 8335.284
841.6917, 8202.918
842.1738, 8032.949
842.6559, 7832.978
843.1380, 7599.650
843.6201, 7345.792
844.1022, 7068.617
844.5844, 6780.618
845.0665, 6488.865
845.5486, 6194.896
846.0307, 5906.124
846.5128, 5621.739
846.9949, 5349.258
847.4771, 5091.897
847.9592, 4849.793
848.4413, 4622.888
848.9234, 4411.658
849.4055, 4216.404
849.8876, 4040.044
850.3698, 3876.808
850.8519, 3725.844
851.3340, 3586.446
851.8161, 3459.011
852.2982, 3343.493
852.7803, 3237.181
853.2625, 3138.176
853.7446, 3047.599
854.2267, 2964.794
854.7088, 2889.538
855.1909, 2819.333
855.6730, 2754.123
856.1552, 2694.452
856.6373, 2640.918
857.1194, 2593.300
857.6015, 2547.997
858.0836, 2504.634
858.5657, 2463.956
859.0479, 2426.543
859.5300, 2391.256
860.0121, 2356.133
860.4942, 2321.519
860.9763, 2288.868
861.4584, 2262.707
861.9406, 2235.612
862.4227, 2203.403
862.9048, 2167.489
863.3869, 2134.472
863.8690, 2106.036
864.3511, 2075.578
864.8333, 2040.741
865.3154, 2003.570
865.7975, 1966.725
866.2796, 1930.080
866.7617, 1892.764
867.2438, 1854.626
867.7260, 1814.810
868.2081, 1770.431
868.6902, 1724.223
869.1723, 1679.656
869.6544, 1639.541
870.1365, 1597.285
870.6187, 1551.571
871.1008, 1504.787
871.5829, 1460.755
872.0650, 1419.410
872.5471, 1379.208
873.0292, 1339.923
873.5114, 1301.776
873.9935, 1264.743
874.4756, 1229.102
874.9577, 1195.410
875.4399, 1163.677
875.9220, 1133.006
876.4041, 1102.778
876.8862, 1074.227
877.3683, 1048.529
877.8505, 1026.063
878.3326, 1003.442
878.8147, 980.4781
879.2968, 959.1796
879.7789, 942.2787
880.2610, 928.1121
880.7432, 913.6646
881.2253, 898.7707
881.7074, 884.7073
882.1895, 872.4050
882.6716, 860.8199
883.1537, 849.2615
883.6359, 837.7961
884.1180, 827.6407
884.6001, 819.2534
885.0822, 810.0732
885.5643, 798.7000
886.0464, 785.7932
886.5286, 772.2473
887.0107, 758.4056
887.4928, 745.5814
887.9749, 736.6990
888.4570, 727.1119
888.9391, 714.2305
889.4213, 698.7370
889.9034, 682.7404
890.3855, 665.0889
890.8676, 650.3715
891.3497, 640.0914
891.8318, 632.3527
892.3140, 623.3948
892.7961, 613.4980
893.2782, 603.6571
893.7603, 594.0624
894.2424, 585.0695
894.7245, 577.1657
895.2067, 570.0612
895.6888, 563.3146
896.1709, 556.7610
896.6530, 550.8929
897.1351, 546.0200
897.6172, 541.4208
898.0994, 536.3270
898.5815, 530.8362
899.0636, 525.7128
899.5457, 521.0861
900.0278, 517.0146
900.5099, 514.0989
900.9921, 511.3767
901.4742, 507.6154
901.9563, 502.4477
902.4384, 498.5177
902.9205, 496.6320
903.4026, 495.3456
903.8848, 494.3678
904.3669, 493.5035
904.8490, 490.5110
905.3311, 485.4900
905.8132, 480.9024
906.2953, 478.3621
906.7775, 476.8378
907.2596, 475.8614
907.7417, 475.0689
908.2238, 473.2456
908.7059, 468.4432
909.1880, 464.6244
909.6702, 462.8734
910.1523, 462.4201
910.6344, 461.6507
911.1165, 460.5615
911.5986, 458.7961
912.0807, 456.0836
912.5629, 453.1043
913.0450, 450.4656
913.5271, 448.1375
914.0092, 446.0163
914.4913, 443.9315
914.9734, 442.4300
915.4556, 441.9675
915.9377, 441.7412
916.4198, 441.0365
916.9019, 439.8274
917.3840, 438.5752
917.8661, 437.2945
918.3483, 436.0055
918.8304, 434.5839
919.3125, 433.2255
919.7946, 432.3255
920.2767, 431.9361
920.7589, 431.1477
921.2410, 429.4624
921.7231, 427.5076
922.2052, 425.2083
922.6873, 422.7463
923.1694, 422.1747
923.6516, 423.5654
924.1337, 424.3408
924.6158, 422.4368
925.0979, 419.8760
925.5800, 419.6110
926.0621, 420.8398
926.5443, 421.5605
927.0264, 420.4435
927.5085, 419.5626
927.9906, 419.5012
928.4727, 419.7841
928.9548, 419.6541
929.4370, 419.1086
929.9191, 418.3315
930.4012, 417.3190
930.8833, 416.2830
931.3654, 415.5313
931.8475, 414.8787
932.3297, 414.0791
932.8118, 413.1108
933.2939, 411.8826
933.7761, 409.8671
934.2582, 408.0831
934.7403, 407.2876
935.2224, 407.5038
935.7045, 407.2180
936.1866, 406.4192
936.6688, 405.3021
937.1509, 403.7640
937.6330, 402.1504
938.1151, 400.6817
938.5972, 399.4426
939.0793, 398.8305
939.5615, 399.9890
940.0436, 400.5319
940.5257, 399.7420
941.0078, 398.0450
941.4899, 396.3713
941.9720, 394.7430
942.4542, 393.7108
942.9363, 393.3882
943.4184, 393.7941
943.9005, 395.7873
944.3826, 398.1796
944.8647, 399.3090
945.3469, 397.9697
945.8290, 396.8028
946.3111, 395.9414
946.7932, 395.4216
947.2753, 395.5686
947.7574, 396.3044
948.2396, 395.5209
948.7217, 393.1331
949.2038, 391.5896
949.6859, 394.2697
950.1680, 397.5606
950.6501, 397.7675
951.1323, 394.9158
951.6144, 393.3346
952.0965, 394.5406
952.5786, 395.3477
953.0607, 394.6731
953.5428, 393.0167
954.0250, 391.6886
954.5071, 390.6989
954.9892, 390.1053
955.4713, 389.8587
955.9534, 390.1396
956.4355, 391.7889
956.9177, 393.7886
957.3998, 394.6272
957.8819, 393.1884
958.3640, 392.3273
958.8461, 392.0253
959.3282, 392.4711
959.8104, 394.3213
960.2925, 397.0814
960.7746, 399.0927
961.2567, 400.2220
961.7388, 400.6264
962.2209, 400.5140
962.7031, 399.6353
963.1852, 397.1866
963.6673, 393.3514
964.1494, 391.4438
964.6315, 391.9355
965.1136, 392.8529
965.5958, 393.8171
966.0779, 394.3353
966.5600, 392.6167
967.0421, 389.5998
967.5242, 387.8804
968.0063, 388.6150
968.4885, 390.6063
968.9706, 394.7529
969.4527, 399.1917
969.9348, 401.8777
970.4169, 402.7920
970.8990, 401.4966
971.3812, 397.6066
971.8633, 393.5924
972.3454, 391.7881
972.8275, 391.5309
973.3096, 392.3698
973.7917, 394.2036
974.2739, 395.0280
974.7560, 393.1104
975.2381, 391.1378
975.7202, 390.1894
976.2023, 390.0263
976.6844, 389.1999
977.1666, 387.7232
977.6487, 387.2021
978.1308, 389.1381
978.6129, 390.9736
979.0950, 389.3508
979.5771, 385.9654
980.0593, 383.5936
980.5414, 383.8554
981.0235, 383.8537
981.5056, 383.3279
981.9877, 382.6999
982.4698, 382.5442
982.9520, 382.7116
983.4341, 382.1517
983.9162, 380.8032
984.3983, 379.4268
984.8804, 378.3234
985.3625, 377.5937
985.8447, 377.6752
986.3268, 378.4568
986.8089, 378.0983
987.2910, 376.1992
987.7731, 374.2814
988.2552, 372.8470
988.7374, 371.6647
989.2195, 370.0705
989.7016, 368.3632
990.1837, 367.3806
990.6658, 367.7414
991.1479, 368.1967
991.6301, 368.7027
992.1122, 368.7159
992.5944, 367.5101
993.0765, 364.6585
993.5586, 363.1273
994.0407, 363.0447
994.5228, 363.4625
995.0049, 363.9928
995.4871, 364.3249
995.9692, 363.6886
996.4513, 362.2892
996.9334, 361.6512
997.4155, 363.3293
997.8976, 364.4873
998.3798, 364.3784
998.8619, 363.3827
999.3440, 362.0046
999.8261, 360.3819
1000.308, 360.1290
1000.790, 362.1836
1001.272, 363.9436
1001.755, 362.6483
1002.237, 360.2296
1002.719, 358.7813
1003.201, 358.8885
1003.683, 358.9208
1004.165, 358.7686
1004.647, 358.8289
1005.129, 359.5209
1005.612, 360.5984
1006.094, 361.4941
1006.576, 362.1630
1007.058, 362.4229
1007.540, 361.7438
1008.022, 361.1183
1008.504, 361.1077
1008.986, 361.3549
1009.468, 361.2142
1009.951, 360.6263
1010.433, 360.1073
1010.915, 359.7200
1011.397, 359.4516
1011.879, 359.1915
1012.361, 359.0872
1012.843, 359.4798
1013.325, 360.5257
1013.807, 361.0178
1014.290, 360.3545
1014.772, 359.7166
1015.254, 359.7085
1015.736, 360.1037
1016.218, 359.9110
1016.700, 359.2191
1017.182, 358.5415
1017.664, 358.2108
1018.147, 357.8296
1018.629, 356.9141
1019.111, 355.8866
1019.593, 355.3751
1020.075, 355.4785
1020.557, 355.9183
1021.039, 356.7945
1021.521, 357.5679
1022.003, 357.7441
1022.486, 357.4556
1022.968, 356.7567
1023.450, 355.7176
1023.932, 354.9673
1024.414, 354.9576
1024.896, 355.0552
1025.378, 355.0725
1025.860, 355.0352
1026.343, 354.9359
1026.825, 354.7991
1027.307, 354.9877
1027.789, 355.6705
1028.271, 356.4770
1028.753, 357.5534
1029.235, 358.3091
1029.717, 357.8276
1030.199, 355.2225
1030.682, 354.3989
1031.164, 356.0035
1031.646, 357.5656
1032.128, 357.4286
1032.610, 356.1740
1033.092, 354.9922
1033.574, 353.9729
1034.056, 353.4855
1034.539, 354.1507
1035.021, 354.8238
1035.503, 355.2526
1035.985, 355.4274
1036.467, 355.2307
1036.949, 354.6480
1037.431, 354.2340
1037.913, 354.0329
1038.396, 354.2049
1038.878, 355.4319
1039.360, 356.7141
1039.842, 357.1313
1040.324, 356.5826
1040.806, 355.5825
1041.288, 353.8114
1041.770, 352.4290
1042.252, 351.7635
1042.734, 351.7195
1043.217, 352.5085
1043.699, 353.7246
1044.181, 354.2038
1044.663, 353.0980
1045.145, 352.4136
1045.627, 353.5347
1046.109, 354.8765
1046.591, 355.1541
1047.074, 354.3037
1047.556, 354.0916
1048.038, 354.5185
1048.520, 355.1095
1049.002, 355.7099
1049.484, 356.1883
1049.966, 356.3495
1050.448, 356.2983
1050.931, 356.3398
1051.413, 356.5714
1051.895, 356.7654
1052.377, 356.9312
1052.859, 356.9689
1053.341, 356.8210
1053.823, 356.4374
1054.305, 355.3735
1054.787, 353.5765
1055.270, 352.7385
1055.752, 354.8653
1056.234, 356.7403
1056.716, 356.7399
1057.198, 355.4870
1057.680, 355.6349
1058.162, 357.0605
1058.644, 357.7673
1059.126, 356.8135
1059.609, 355.7008
1060.091, 355.7288
1060.573, 356.3598
1061.055, 357.1435
1061.537, 358.3282
1062.019, 358.3437
1062.501, 356.9296
1062.983, 355.3171
1063.466, 354.1791
1063.948, 353.4789
1064.430, 353.1363
1064.912, 353.1642
1065.394, 353.5951
1065.876, 354.9698
1066.358, 356.0604
1066.840, 356.8378
1067.323, 357.0762
1067.805, 356.0483
1068.287, 354.0547
1068.769, 353.5611
1069.251, 354.7478
1069.733, 355.8866
1070.215, 355.3245
1070.697, 354.6983
1071.179, 355.3720
1071.661, 356.9530
1072.144, 357.6430
1072.626, 357.3080
1073.108, 356.9720
1073.590, 356.9524
1074.072, 356.8726
1074.554, 356.1462
1075.036, 355.1351
1075.518, 354.2645
1076.001, 353.5735
1076.483, 353.2727
1076.965, 353.3512
1077.447, 353.8715
1077.929, 355.1332
1078.411, 356.7024
1078.893, 357.2774
1079.375, 357.0551
1079.858, 356.6686
1080.340, 356.1708
1080.822, 355.8250
1081.304, 355.7898
1081.786, 355.8862
1082.268, 355.9757
1082.750, 356.0541
1083.232, 356.1235
1083.714, 356.1841
1084.197, 356.2656
1084.679, 356.5678
1085.161, 356.7417
1085.643, 356.4649
1086.125, 355.8436
1086.607, 355.2487
1087.089, 354.7143
1087.571, 354.0681
1088.054, 353.1682
1088.536, 352.6100
1089.018, 352.9599
1089.500, 354.1696
1089.982, 356.8255
1090.464, 361.0155
1090.946, 363.0380
1091.428, 360.9451
1091.911, 358.6060
1092.393, 357.1067
1092.875, 356.2037
1093.357, 355.4731
1093.839, 354.8529
1094.321, 353.9977
1094.803, 352.4971
1095.285, 351.7902
1095.767, 353.4494
1096.250, 355.3596
1096.732, 356.0731
1097.214, 355.6549
1097.696, 355.5252
1098.178, 355.6613
1098.660, 355.5928
1099.142, 354.8524
1099.624, 354.0839
1100.106, 353.8559
1100.589, 353.3945
1101.071, 353.1469
1101.553, 353.1503
1102.035, 352.9953
1102.517, 353.3489
1102.999, 353.6611
1103.481, 353.0568
1103.963, 352.4064
1104.446, 353.2031
1104.928, 355.0664
1105.410, 356.2667
1105.892, 355.2604
1106.374, 355.7635
1106.856, 359.0421
1107.338, 362.4758
1107.820, 361.8086
1108.302, 358.6962
1108.785, 357.2646
1109.267, 357.9924
1109.749, 358.6217
1110.231, 357.7437
1110.713, 357.1478
1111.195, 357.7556
1111.677, 358.9300
1112.159, 358.6969
1112.641, 357.3096
1113.124, 356.3477
1113.606, 356.2603
1114.088, 356.4127
1114.570, 356.6691
1115.052, 356.7462
1115.534, 356.1736
1116.016, 355.0299
1116.498, 355.4146
1116.981, 357.4092
1117.463, 358.3773
1117.945, 356.2716
1118.427, 354.0722
1118.909, 355.4641
1119.391, 358.3478
1119.873, 359.6220
1120.355, 358.2167
1120.838, 357.5796
1121.320, 357.9277
1121.802, 358.0899
1122.284, 356.7188
1122.766, 354.9984
1123.248, 354.8866
1123.730, 355.9082
1124.212, 356.7481
1124.694, 357.0019
1125.177, 356.9716
1125.659, 356.3315
1126.141, 356.1094
1126.623, 358.4715
1127.105, 361.8646
1127.587, 361.3012
1128.069, 357.1832
1128.551, 354.3966
1129.033, 356.2094
1129.516, 358.3124
1129.998, 359.5484
1130.480, 360.3064
1130.962, 361.5855
1131.444, 363.0696
1131.926, 362.8005
1132.408, 360.4169
1132.890, 358.3902
1133.373, 358.5681
1133.855, 359.2851
1134.337, 359.7303
1134.819, 359.9145
1135.301, 359.8567
1135.783, 359.5678
1136.265, 359.2064
1136.747, 358.7906
1137.229, 358.4104
1137.712, 357.8030
1138.194, 357.5103
1138.676, 358.4279
1139.158, 360.5368
1139.640, 360.9204
1140.122, 359.3544
1140.604, 358.2997
1141.086, 359.0433
1141.569, 360.1995
1142.051, 360.2379
1142.533, 359.7069
1143.015, 359.2890
1143.497, 358.9684
1143.979, 359.3232
1144.461, 360.5616
1144.943, 361.6312
1145.426, 361.7116
1145.908, 361.3592
1146.390, 361.1592
1146.872, 361.2559
1147.354, 361.9575
1147.836, 364.4919
1148.318, 365.7674
1148.800, 365.4286
1149.282, 364.5056
1149.765, 363.7881
1150.247, 363.1623
1150.729, 362.1776
1151.211, 361.0020
1151.693, 360.3192
1152.175, 360.8195
1152.657, 361.2670
1153.139, 361.4274
1153.621, 361.5161
1154.104, 361.7578
1154.586, 362.1415
1155.068, 362.6730
1155.550, 363.3406
1156.032, 363.9656
1156.514, 364.8763
1156.996, 365.1417
1157.478, 364.1004
1157.961, 362.6785
1158.443, 362.7057
1158.925, 363.9041
1159.407, 364.6855
1159.889, 364.8140
1160.371, 364.9453
1160.853, 365.7107
1161.335, 366.3209
1161.818, 366.3144
1162.300, 365.8802
1162.782, 365.4534
1163.264, 365.0568
1163.746, 365.0177
1164.228, 365.4649
1164.710, 365.9069
1165.192, 365.4984
1165.674, 365.4067
1166.156, 367.0762
1166.639, 369.9701
1167.121, 370.2296
1167.603, 367.8739
1168.085, 365.9864
1168.567, 365.6560
1169.049, 365.7408
1169.531, 365.1232
1170.013, 365.5132
1170.496, 364.8633
1170.978, 366.1320
1171.460, 366.9484
1171.942, 367.3099
1172.424, 367.2372
1172.906, 366.3967
1173.388, 365.7185
1173.870, 366.4467
1174.353, 367.7491
1174.835, 368.4982
1175.317, 368.5306
1175.799, 368.5737
1176.281, 368.5920
1176.763, 368.9592
1177.245, 370.3546
1177.727, 371.7108
1178.209, 371.7343
1178.692, 370.9054
1179.174, 369.9651
1179.656, 368.7238
1180.138, 368.2596
1180.620, 368.6900
1181.102, 369.2599
1181.584, 369.3904
1182.066, 369.3715
1182.548, 369.6020
1183.031, 369.9685
1183.513, 370.2222
1183.995, 370.5185
1184.477, 370.1184
1184.959, 368.7622
1185.441, 367.6007
1185.923, 367.8108
1186.405, 368.7258
1186.888, 369.4975
1187.370, 370.1676
1187.852, 370.9975
1188.334, 372.4778
1188.816, 373.1224
1189.298, 372.6512
1189.780, 371.8021
1190.262, 371.1213
1190.745, 370.6720
1191.227, 370.6011
1191.709, 370.8693
1192.191, 371.2831
1192.673, 372.2231
1193.155, 372.3591
1193.637, 371.2643
1194.119, 370.0063
1194.601, 370.0411
1195.084, 370.6642
1195.566, 370.4950
1196.048, 369.5855
1196.530, 369.6857
1197.012, 372.0556
1197.494, 373.4828
1197.976, 373.1129
1198.458, 372.1796
1198.941, 372.3768
1199.423, 373.2266
1199.905, 374.0457
1200.387, 374.7475
1200.869, 375.0530
1201.351, 374.7933
1201.833, 374.3415
1202.315, 373.6469
1202.797, 373.0932
1203.280, 373.3607
1203.762, 374.1853
1204.244, 375.3446
1204.726, 376.8468
1205.208, 377.4404
1205.690, 376.4305
1206.172, 375.5594
1206.654, 375.3683
1207.136, 375.5298
1207.619, 375.5019
1208.101, 375.3965
1208.583, 375.5189
1209.065, 376.0160
1209.547, 375.8328
1210.029, 374.2562
1210.511, 373.2521
1210.993, 373.6216
1211.476, 374.7681
1211.958, 375.8795
1212.440, 376.8756
1212.922, 377.6169
1213.404, 378.1060
1213.886, 378.1617
1214.368, 377.7199
1214.850, 377.0078
1215.333, 375.9008
1215.815, 374.9139
1216.297, 375.3907
1216.779, 376.5418
1217.261, 376.7618
1217.743, 375.2018
1218.225, 374.9336
1218.707, 376.6563
1219.189, 378.4149
1219.672, 379.5201
1220.154, 379.8451
1220.636, 378.5019
1221.118, 376.4333
1221.600, 375.3033
1222.082, 375.6634
1222.564, 376.7640
1223.046, 378.9941
1223.528, 380.5974
1224.011, 380.2591
1224.493, 379.2401
1224.975, 379.9913
1225.457, 379.6407
1225.939, 379.5484
1226.421, 380.3145
1226.903, 379.7678
1227.385, 380.7918
1227.868, 381.5299
1228.350, 380.5952
1228.832, 379.1718
1229.314, 379.1302
1229.796, 379.8766
1230.278, 380.4185
1230.760, 380.5032
1231.242, 380.5918
1231.724, 380.7310
1232.207, 380.6320
1232.689, 379.7299
1233.171, 378.9152
1233.653, 379.8851
1234.135, 381.5499
1234.617, 381.9948
1235.099, 380.5871
1235.581, 379.2916
1236.063, 378.0687
1236.546, 377.3394
1237.028, 377.6063
1237.510, 378.2652
1237.992, 378.8552
1238.474, 379.3370
1238.956, 379.6301
1239.438, 379.7437
1239.920, 379.7020
1240.403, 379.5092
1240.885, 379.0805
1241.367, 377.6436
1241.849, 376.6864
1242.331, 378.1382
1242.813, 380.6146
1243.295, 382.0243
1243.777, 382.1630
1244.260, 382.0316
1244.742, 381.6262
1245.224, 381.3417
1245.706, 381.3940
1246.188, 381.6846
1246.670, 382.7699
1247.152, 383.6673
1247.634, 382.8636
1248.116, 380.1279
1248.599, 379.0800
1249.081, 379.6610
1249.563, 380.6197
1250.045, 381.6865
1250.527, 382.3748
1251.009, 382.1277
1251.491, 381.5720
1251.973, 381.2363
1252.455, 381.1280
1252.938, 381.8515
1253.420, 383.2383
1253.902, 383.9861
1254.384, 382.4435
1254.866, 381.3481
1255.348, 382.1649
1255.830, 383.3748
1256.313, 383.6821
1256.795, 383.2023
1257.277, 382.4941
1257.759, 381.6263
1258.241, 380.9069
1258.723, 379.8621
1259.205, 379.9516
1259.687, 381.8382
1260.169, 384.1855
1260.651, 386.1827
1261.134, 387.6266
1261.616, 387.5189
1262.098, 386.2370
1262.580, 385.1192
1263.062, 384.6679
1263.544, 384.4427
1264.026, 384.4727
1264.508, 384.5285
1264.991, 384.4218
1265.473, 384.2124
1265.955, 383.6530
1266.437, 383.1161
1266.919, 383.5975
1267.401, 386.6083
1267.883, 388.3514
1268.365, 388.6848
1268.848, 388.1357
1269.330, 386.4710
1269.812, 384.6624
1270.294, 383.8362
1270.776, 383.8448
1271.258, 384.5058
1271.740, 386.2883
1272.222, 386.8043
1272.704, 385.8786
1273.187, 384.9417
1273.669, 384.9901
1274.151, 385.4452
1274.633, 385.9859
1275.115, 386.5123
1275.597, 386.8164
1276.079, 386.7836
1276.561, 387.6230
1277.043, 389.2924
1277.526, 390.2820
1278.008, 388.8685
1278.490, 387.4283
1278.972, 387.5349
1279.454, 388.2225
1279.936, 388.6268
1280.418, 388.7347
1280.900, 387.9276
1281.383, 386.4073
1281.865, 385.4659
1282.347, 386.0107
1282.829, 386.8533
1283.311, 387.7964
1283.793, 388.6542
1284.275, 389.3609
1284.757, 389.8475
1285.240, 389.5495
1285.722, 388.7699
1286.204, 388.5188
1286.686, 389.6262
1287.168, 390.5343
1287.650, 391.1471
1288.132, 391.3786
1288.614, 391.0226
1289.096, 390.3487
1289.578, 389.8426
1290.061, 389.4582
1290.543, 389.0472
1291.025, 388.1208
1291.507, 388.5061
1291.989, 390.4786
1292.471, 392.4879
1292.953, 394.0649
1293.435, 394.6735
1293.918, 392.4138
1294.400, 389.3720
1294.882, 389.0377
1295.364, 391.9593
1295.846, 392.8681
1296.328, 391.7331
1296.810, 390.9310
1297.292, 391.8965
1297.775, 392.9228
1298.257, 392.7816
1298.739, 392.0607
1299.221, 391.1483
1299.703, 390.1427
1300.185, 390.4011
1300.667, 391.7018
1301.149, 392.6704
1301.631, 392.6223
1302.114, 392.4337
1302.596, 392.8043
##END=



