##NAMES=Zincolibethenite
##RRUFFID=R060763
##IDEAL CHEMISTRY=Cu^2+^Zn^2+^P^5+^O_4_(OH)
##LOCALITY=Kabwe mine, Kabwe, Zambia
##OWNER=RRUFF
##SOURCE=Michael Scott
##DESCRIPTION=Pale greenish-blue botryoidal groups of radiating crystals, associated with colorless tarbuttite
##STATUS=The identification of this mineral has been confirmed only by single crystal X-ray diffraction.
##URL=rruff.info/R060763
9.059570e+001, 1.815079e+003
9.107782e+001, 1.822851e+003
9.155994e+001, 1.825703e+003
9.204205e+001, 1.818547e+003
9.252417e+001, 1.809999e+003
9.300629e+001, 1.803996e+003
9.348840e+001, 1.791993e+003
9.397052e+001, 1.761589e+003
9.445264e+001, 1.707859e+003
9.493475e+001, 1.654843e+003
9.541687e+001, 1.603200e+003
9.589898e+001, 1.553429e+003
9.638110e+001, 1.506186e+003
9.686321e+001, 1.461682e+003
9.734533e+001, 1.418848e+003
9.782745e+001, 1.375443e+003
9.830956e+001, 1.337835e+003
9.879168e+001, 1.306128e+003
9.927380e+001, 1.278054e+003
9.975591e+001, 1.253709e+003
1.002380e+002, 1.232142e+003
1.007201e+002, 1.211612e+003
1.012023e+002, 1.191196e+003
1.016844e+002, 1.170828e+003
1.021665e+002, 1.150618e+003
1.026486e+002, 1.129500e+003
1.031307e+002, 1.108889e+003
1.036128e+002, 1.089716e+003
1.040950e+002, 1.071538e+003
1.045771e+002, 1.055993e+003
1.050592e+002, 1.045321e+003
1.055413e+002, 1.037450e+003
1.060234e+002, 1.029672e+003
1.065055e+002, 1.019659e+003
1.069877e+002, 1.008526e+003
1.074698e+002, 1.001527e+003
1.079519e+002, 1.003914e+003
1.084340e+002, 1.003800e+003
1.089161e+002, 9.965549e+002
1.093982e+002, 9.830314e+002
1.098804e+002, 9.657247e+002
1.103625e+002, 9.454579e+002
1.108446e+002, 9.206969e+002
1.113267e+002, 9.015780e+002
1.118088e+002, 8.902074e+002
1.122909e+002, 8.820562e+002
1.127731e+002, 8.760194e+002
1.132552e+002, 8.715041e+002
1.137373e+002, 8.677312e+002
1.142194e+002, 8.636956e+002
1.147015e+002, 8.595613e+002
1.151836e+002, 8.546197e+002
1.156658e+002, 8.480273e+002
1.161479e+002, 8.410280e+002
1.166300e+002, 8.350587e+002
1.171121e+002, 8.306728e+002
1.175942e+002, 8.269247e+002
1.180763e+002, 8.215560e+002
1.185584e+002, 8.143975e+002
1.190406e+002, 8.065142e+002
1.195227e+002, 7.974371e+002
1.200048e+002, 7.877441e+002
1.204869e+002, 7.788850e+002
1.209690e+002, 7.713504e+002
1.214511e+002, 7.654227e+002
1.219333e+002, 7.610175e+002
1.224154e+002, 7.585568e+002
1.228975e+002, 7.568668e+002
1.233796e+002, 7.548923e+002
1.238617e+002, 7.525236e+002
1.243438e+002, 7.507180e+002
1.248260e+002, 7.528251e+002
1.253081e+002, 7.547029e+002
1.257902e+002, 7.517113e+002
1.262723e+002, 7.409825e+002
1.267544e+002, 7.260988e+002
1.272365e+002, 7.153643e+002
1.277187e+002, 7.110803e+002
1.282008e+002, 7.073587e+002
1.286829e+002, 7.017429e+002
1.291650e+002, 6.955732e+002
1.296471e+002, 6.909278e+002
1.301292e+002, 6.894852e+002
1.306114e+002, 6.908754e+002
1.310935e+002, 6.895805e+002
1.315756e+002, 6.831632e+002
1.320577e+002, 6.762130e+002
1.325398e+002, 6.692831e+002
1.330219e+002, 6.626669e+002
1.335041e+002, 6.567277e+002
1.339862e+002, 6.518404e+002
1.344683e+002, 6.482242e+002
1.349504e+002, 6.441260e+002
1.354325e+002, 6.389125e+002
1.359146e+002, 6.338036e+002
1.363968e+002, 6.293737e+002
1.368789e+002, 6.257243e+002
1.373610e+002, 6.228303e+002
1.378431e+002, 6.208644e+002
1.383252e+002, 6.200635e+002
1.388073e+002, 6.189930e+002
1.392895e+002, 6.169932e+002
1.397716e+002, 6.149042e+002
1.402537e+002, 6.143321e+002
1.407358e+002, 6.161325e+002
1.412179e+002, 6.174720e+002
1.417000e+002, 6.139092e+002
1.421821e+002, 6.059591e+002
1.426643e+002, 5.978749e+002
1.431464e+002, 5.912983e+002
1.436285e+002, 5.859630e+002
1.441106e+002, 5.807620e+002
1.445927e+002, 5.749974e+002
1.450748e+002, 5.699727e+002
1.455570e+002, 5.668591e+002
1.460391e+002, 5.656608e+002
1.465212e+002, 5.649622e+002
1.470033e+002, 5.636896e+002
1.474854e+002, 5.618119e+002
1.479675e+002, 5.596272e+002
1.484497e+002, 5.574020e+002
1.489318e+002, 5.546902e+002
1.494139e+002, 5.510354e+002
1.498960e+002, 5.463932e+002
1.503781e+002, 5.412589e+002
1.508602e+002, 5.362540e+002
1.513424e+002, 5.308925e+002
1.518245e+002, 5.267642e+002
1.523066e+002, 5.242740e+002
1.527887e+002, 5.226272e+002
1.532708e+002, 5.213726e+002
1.537529e+002, 5.203194e+002
1.542351e+002, 5.192925e+002
1.547172e+002, 5.178470e+002
1.551993e+002, 5.153987e+002
1.556814e+002, 5.132151e+002
1.561635e+002, 5.116628e+002
1.566456e+002, 5.103141e+002
1.571278e+002, 5.087654e+002
1.576099e+002, 5.068373e+002
1.580920e+002, 5.044537e+002
1.585741e+002, 5.012052e+002
1.590562e+002, 4.955904e+002
1.595383e+002, 4.908896e+002
1.600205e+002, 4.882863e+002
1.605026e+002, 4.872348e+002
1.609847e+002, 4.865704e+002
1.614668e+002, 4.858072e+002
1.619489e+002, 4.848027e+002
1.624310e+002, 4.831197e+002
1.629131e+002, 4.793531e+002
1.633953e+002, 4.762676e+002
1.638774e+002, 4.764359e+002
1.643595e+002, 4.794669e+002
1.648416e+002, 4.814128e+002
1.653237e+002, 4.791747e+002
1.658058e+002, 4.741986e+002
1.662880e+002, 4.700471e+002
1.667701e+002, 4.672811e+002
1.672522e+002, 4.653115e+002
1.677343e+002, 4.635878e+002
1.682164e+002, 4.621413e+002
1.686985e+002, 4.608077e+002
1.691807e+002, 4.592477e+002
1.696628e+002, 4.577980e+002
1.701449e+002, 4.569900e+002
1.706270e+002, 4.573171e+002
1.711091e+002, 4.582401e+002
1.715912e+002, 4.586418e+002
1.720734e+002, 4.587897e+002
1.725555e+002, 4.577747e+002
1.730376e+002, 4.544717e+002
1.735197e+002, 4.501403e+002
1.740018e+002, 4.466240e+002
1.744839e+002, 4.452333e+002
1.749661e+002, 4.455269e+002
1.754482e+002, 4.448257e+002
1.759303e+002, 4.424372e+002
1.764124e+002, 4.397096e+002
1.768945e+002, 4.365830e+002
1.773766e+002, 4.334098e+002
1.778588e+002, 4.308052e+002
1.783409e+002, 4.292956e+002
1.788230e+002, 4.288906e+002
1.793051e+002, 4.279625e+002
1.797872e+002, 4.260180e+002
1.802693e+002, 4.240368e+002
1.807515e+002, 4.223857e+002
1.812336e+002, 4.209562e+002
1.817157e+002, 4.194085e+002
1.821978e+002, 4.174174e+002
1.826799e+002, 4.149052e+002
1.831620e+002, 4.127141e+002
1.836441e+002, 4.110419e+002
1.841263e+002, 4.094323e+002
1.846084e+002, 4.075879e+002
1.850905e+002, 4.055533e+002
1.855726e+002, 4.036371e+002
1.860547e+002, 4.021309e+002
1.865368e+002, 4.010987e+002
1.870190e+002, 4.002180e+002
1.875011e+002, 3.996998e+002
1.879832e+002, 3.991884e+002
1.884653e+002, 3.983612e+002
1.889474e+002, 3.972002e+002
1.894296e+002, 3.960350e+002
1.899117e+002, 3.953264e+002
1.903938e+002, 3.950396e+002
1.908759e+002, 3.941630e+002
1.913580e+002, 3.918140e+002
1.918401e+002, 3.891830e+002
1.923223e+002, 3.876681e+002
1.928044e+002, 3.875288e+002
1.932865e+002, 3.879645e+002
1.937686e+002, 3.885686e+002
1.942507e+002, 3.892293e+002
1.947328e+002, 3.894503e+002
1.952150e+002, 3.886691e+002
1.956971e+002, 3.874095e+002
1.961792e+002, 3.868832e+002
1.966613e+002, 3.876403e+002
1.971434e+002, 3.881022e+002
1.976255e+002, 3.868094e+002
1.981077e+002, 3.842931e+002
1.985898e+002, 3.818843e+002
1.990719e+002, 3.800069e+002
1.995540e+002, 3.787220e+002
2.000361e+002, 3.784017e+002
2.005182e+002, 3.796089e+002
2.010004e+002, 3.810705e+002
2.014825e+002, 3.822494e+002
2.019646e+002, 3.831305e+002
2.024467e+002, 3.836696e+002
2.029288e+002, 3.835428e+002
2.034109e+002, 3.828349e+002
2.038930e+002, 3.830558e+002
2.043752e+002, 3.851411e+002
2.048573e+002, 3.872540e+002
2.053394e+002, 3.891891e+002
2.058215e+002, 3.906402e+002
2.063036e+002, 3.910156e+002
2.067857e+002, 3.895204e+002
2.072679e+002, 3.860128e+002
2.077500e+002, 3.834242e+002
2.082321e+002, 3.821885e+002
2.087142e+002, 3.815429e+002
2.091963e+002, 3.818817e+002
2.096784e+002, 3.827331e+002
2.101606e+002, 3.830039e+002
2.106427e+002, 3.815191e+002
2.111248e+002, 3.779282e+002
2.116069e+002, 3.758067e+002
2.120890e+002, 3.763177e+002
2.125711e+002, 3.770594e+002
2.130533e+002, 3.773423e+002
2.135354e+002, 3.770411e+002
2.140175e+002, 3.761884e+002
2.144996e+002, 3.747451e+002
2.149817e+002, 3.725776e+002
2.154638e+002, 3.707463e+002
2.159460e+002, 3.692717e+002
2.164281e+002, 3.680226e+002
2.169102e+002, 3.668382e+002
2.173923e+002, 3.657777e+002
2.178744e+002, 3.651513e+002
2.183565e+002, 3.654003e+002
2.188387e+002, 3.667160e+002
2.193208e+002, 3.668040e+002
2.198029e+002, 3.644650e+002
2.202850e+002, 3.620239e+002
2.207671e+002, 3.614135e+002
2.212492e+002, 3.624442e+002
2.217314e+002, 3.628772e+002
2.222135e+002, 3.604799e+002
2.226956e+002, 3.550385e+002
2.231777e+002, 3.512261e+002
2.236598e+002, 3.496952e+002
2.241419e+002, 3.492688e+002
2.246240e+002, 3.494904e+002
2.251062e+002, 3.502499e+002
2.255883e+002, 3.507636e+002
2.260704e+002, 3.502422e+002
2.265525e+002, 3.488182e+002
2.270346e+002, 3.477537e+002
2.275167e+002, 3.476942e+002
2.279989e+002, 3.476716e+002
2.284810e+002, 3.464767e+002
2.289631e+002, 3.440100e+002
2.294452e+002, 3.418939e+002
2.299273e+002, 3.414992e+002
2.304094e+002, 3.424092e+002
2.308916e+002, 3.434442e+002
2.313737e+002, 3.451093e+002
2.318558e+002, 3.464340e+002
2.323379e+002, 3.460210e+002
2.328200e+002, 3.436400e+002
2.333021e+002, 3.411303e+002
2.337843e+002, 3.393742e+002
2.342664e+002, 3.383019e+002
2.347485e+002, 3.380185e+002
2.352306e+002, 3.392822e+002
2.357127e+002, 3.407284e+002
2.361948e+002, 3.402448e+002
2.366770e+002, 3.373659e+002
2.371591e+002, 3.344689e+002
2.376412e+002, 3.321937e+002
2.381233e+002, 3.307579e+002
2.386054e+002, 3.308023e+002
2.390875e+002, 3.331566e+002
2.395697e+002, 3.361578e+002
2.400518e+002, 3.368020e+002
2.405339e+002, 3.341819e+002
2.410160e+002, 3.321269e+002
2.414981e+002, 3.328297e+002
2.419802e+002, 3.344980e+002
2.424624e+002, 3.354339e+002
2.429445e+002, 3.349692e+002
2.434266e+002, 3.338290e+002
2.439087e+002, 3.334269e+002
2.443908e+002, 3.343489e+002
2.448729e+002, 3.343655e+002
2.453550e+002, 3.322334e+002
2.458372e+002, 3.293409e+002
2.463193e+002, 3.267074e+002
2.468014e+002, 3.246539e+002
2.472835e+002, 3.231844e+002
2.477656e+002, 3.224261e+002
2.482477e+002, 3.228350e+002
2.487299e+002, 3.228602e+002
2.492120e+002, 3.223716e+002
2.496941e+002, 3.213779e+002
2.501762e+002, 3.195568e+002
2.506583e+002, 3.168585e+002
2.511404e+002, 3.141069e+002
2.516226e+002, 3.128084e+002
2.521047e+002, 3.138496e+002
2.525868e+002, 3.143721e+002
2.530689e+002, 3.144267e+002
2.535510e+002, 3.137806e+002
2.540331e+002, 3.118196e+002
2.545153e+002, 3.085585e+002
2.549974e+002, 3.051099e+002
2.554795e+002, 3.032594e+002
2.559616e+002, 3.039371e+002
2.564437e+002, 3.042810e+002
2.569258e+002, 3.041239e+002
2.574080e+002, 3.037629e+002
2.578901e+002, 3.032762e+002
2.583722e+002, 3.027349e+002
2.588543e+002, 3.023151e+002
2.593364e+002, 3.023589e+002
2.598185e+002, 3.034330e+002
2.603007e+002, 3.034654e+002
2.607828e+002, 3.016761e+002
2.612649e+002, 2.996730e+002
2.617470e+002, 2.984166e+002
2.622291e+002, 2.980111e+002
2.627112e+002, 2.979957e+002
2.631934e+002, 2.978313e+002
2.636755e+002, 2.973900e+002
2.641576e+002, 2.972919e+002
2.646397e+002, 2.981161e+002
2.651218e+002, 2.987371e+002
2.656039e+002, 2.983414e+002
2.660861e+002, 2.970381e+002
2.665682e+002, 2.955898e+002
2.670503e+002, 2.947285e+002
2.675324e+002, 2.945302e+002
2.680145e+002, 2.945202e+002
2.684966e+002, 2.952667e+002
2.689788e+002, 2.956587e+002
2.694609e+002, 2.949088e+002
2.699430e+002, 2.932281e+002
2.704251e+002, 2.914764e+002
2.709072e+002, 2.903618e+002
2.713893e+002, 2.899191e+002
2.718715e+002, 2.893217e+002
2.723536e+002, 2.886614e+002
2.728357e+002, 2.877992e+002
2.733178e+002, 2.861521e+002
2.737999e+002, 2.841763e+002
2.742820e+002, 2.831596e+002
2.747642e+002, 2.841310e+002
2.752463e+002, 2.868641e+002
2.757284e+002, 2.885171e+002
2.762105e+002, 2.885003e+002
2.766926e+002, 2.883330e+002
2.771747e+002, 2.884832e+002
2.776568e+002, 2.888694e+002
2.781389e+002, 2.893216e+002
2.786211e+002, 2.898010e+002
2.791032e+002, 2.902020e+002
2.795853e+002, 2.900129e+002
2.800674e+002, 2.884485e+002
2.805495e+002, 2.873317e+002
2.810316e+002, 2.872680e+002
2.815138e+002, 2.879397e+002
2.819959e+002, 2.889446e+002
2.824780e+002, 2.902076e+002
2.829601e+002, 2.913988e+002
2.834422e+002, 2.915244e+002
2.839243e+002, 2.899681e+002
2.844065e+002, 2.886990e+002
2.848886e+002, 2.882770e+002
2.853707e+002, 2.883383e+002
2.858528e+002, 2.882433e+002
2.863349e+002, 2.877329e+002
2.868170e+002, 2.873374e+002
2.872992e+002, 2.882235e+002
2.877813e+002, 2.910726e+002
2.882634e+002, 2.927893e+002
2.887455e+002, 2.922151e+002
2.892276e+002, 2.905146e+002
2.897097e+002, 2.890202e+002
2.901919e+002, 2.880310e+002
2.906740e+002, 2.872614e+002
2.911561e+002, 2.863685e+002
2.916382e+002, 2.853347e+002
2.921203e+002, 2.843348e+002
2.926024e+002, 2.832046e+002
2.930846e+002, 2.822173e+002
2.935667e+002, 2.820297e+002
2.940488e+002, 2.826866e+002
2.945309e+002, 2.827349e+002
2.950130e+002, 2.803654e+002
2.954951e+002, 2.755760e+002
2.959773e+002, 2.725277e+002
2.964594e+002, 2.722853e+002
2.969415e+002, 2.731656e+002
2.974236e+002, 2.743285e+002
2.979057e+002, 2.756143e+002
2.983878e+002, 2.763896e+002
2.988700e+002, 2.763755e+002
2.993521e+002, 2.753538e+002
2.998342e+002, 2.729863e+002
3.003163e+002, 2.677090e+002
3.007984e+002, 2.625553e+002
3.012805e+002, 2.590006e+002
3.017627e+002, 2.570013e+002
3.022448e+002, 2.563347e+002
3.027269e+002, 2.572697e+002
3.032090e+002, 2.592129e+002
3.036911e+002, 2.603534e+002
3.041732e+002, 2.605243e+002
3.046554e+002, 2.602964e+002
3.051375e+002, 2.597915e+002
3.056196e+002, 2.590744e+002
3.061017e+002, 2.583919e+002
3.065838e+002, 2.579578e+002
3.070659e+002, 2.573757e+002
3.075481e+002, 2.555493e+002
3.080302e+002, 2.519302e+002
3.085123e+002, 2.493440e+002
3.089944e+002, 2.494567e+002
3.094765e+002, 2.510413e+002
3.099586e+002, 2.520815e+002
3.104408e+002, 2.520785e+002
3.109229e+002, 2.513853e+002
3.114050e+002, 2.501250e+002
3.118871e+002, 2.482232e+002
3.123692e+002, 2.470770e+002
3.128513e+002, 2.476986e+002
3.133335e+002, 2.488781e+002
3.138156e+002, 2.491835e+002
3.142977e+002, 2.483960e+002
3.147798e+002, 2.470764e+002
3.152619e+002, 2.454237e+002
3.157440e+002, 2.435278e+002
3.162262e+002, 2.425016e+002
3.167083e+002, 2.432993e+002
3.171904e+002, 2.443894e+002
3.176725e+002, 2.444609e+002
3.181546e+002, 2.435190e+002
3.186367e+002, 2.423900e+002
3.191188e+002, 2.416438e+002
3.196010e+002, 2.411437e+002
3.200831e+002, 2.402404e+002
3.205652e+002, 2.382803e+002
3.210473e+002, 2.365704e+002
3.215294e+002, 2.358965e+002
3.220115e+002, 2.360892e+002
3.224937e+002, 2.365877e+002
3.229758e+002, 2.372128e+002
3.234579e+002, 2.378942e+002
3.239400e+002, 2.384726e+002
3.244221e+002, 2.390762e+002
3.249042e+002, 2.393607e+002
3.253864e+002, 2.391028e+002
3.258685e+002, 2.384605e+002
3.263506e+002, 2.377409e+002
3.268327e+002, 2.370515e+002
3.273148e+002, 2.362498e+002
3.277969e+002, 2.347827e+002
3.282791e+002, 2.322608e+002
3.287612e+002, 2.312216e+002
3.292433e+002, 2.337449e+002
3.297254e+002, 2.372555e+002
3.302075e+002, 2.383113e+002
3.306896e+002, 2.363181e+002
3.311718e+002, 2.340957e+002
3.316539e+002, 2.347810e+002
3.321360e+002, 2.386556e+002
3.326181e+002, 2.408104e+002
3.331002e+002, 2.399641e+002
3.335823e+002, 2.381985e+002
3.340645e+002, 2.366219e+002
3.345466e+002, 2.354112e+002
3.350287e+002, 2.349055e+002
3.355108e+002, 2.354905e+002
3.359929e+002, 2.370131e+002
3.364750e+002, 2.381851e+002
3.369572e+002, 2.387086e+002
3.374393e+002, 2.392479e+002
3.379214e+002, 2.404397e+002
3.384035e+002, 2.418770e+002
3.388856e+002, 2.424784e+002
3.393677e+002, 2.416428e+002
3.398499e+002, 2.399063e+002
3.403320e+002, 2.386601e+002
3.408141e+002, 2.376848e+002
3.412962e+002, 2.374695e+002
3.417783e+002, 2.388064e+002
3.422604e+002, 2.407069e+002
3.427426e+002, 2.417003e+002
3.432247e+002, 2.413612e+002
3.437068e+002, 2.407712e+002
3.441889e+002, 2.416120e+002
3.446710e+002, 2.449726e+002
3.451531e+002, 2.463741e+002
3.456353e+002, 2.437405e+002
3.461174e+002, 2.405539e+002
3.465995e+002, 2.398801e+002
3.470816e+002, 2.417191e+002
3.475637e+002, 2.436135e+002
3.480458e+002, 2.432720e+002
3.485280e+002, 2.405410e+002
3.490101e+002, 2.387100e+002
3.494922e+002, 2.382650e+002
3.499743e+002, 2.380622e+002
3.504564e+002, 2.378163e+002
3.509385e+002, 2.374405e+002
3.514207e+002, 2.367572e+002
3.519028e+002, 2.356163e+002
3.523849e+002, 2.342009e+002
3.528670e+002, 2.333013e+002
3.533491e+002, 2.331900e+002
3.538312e+002, 2.332539e+002
3.543134e+002, 2.337934e+002
3.547955e+002, 2.343260e+002
3.552776e+002, 2.342412e+002
3.557597e+002, 2.333347e+002
3.562418e+002, 2.319541e+002
3.567239e+002, 2.306905e+002
3.572061e+002, 2.297821e+002
3.576882e+002, 2.284691e+002
3.581703e+002, 2.265078e+002
3.586524e+002, 2.243623e+002
3.591345e+002, 2.219585e+002
3.596166e+002, 2.195287e+002
3.600987e+002, 2.179289e+002
3.605808e+002, 2.181574e+002
3.610630e+002, 2.205040e+002
3.615451e+002, 2.218562e+002
3.620272e+002, 2.216799e+002
3.625093e+002, 2.211379e+002
3.629914e+002, 2.206089e+002
3.634735e+002, 2.199938e+002
3.639557e+002, 2.190517e+002
3.644378e+002, 2.176342e+002
3.649199e+002, 2.157833e+002
3.654020e+002, 2.136004e+002
3.658841e+002, 2.098734e+002
3.663662e+002, 2.075883e+002
3.668484e+002, 2.075722e+002
3.673305e+002, 2.088306e+002
3.678126e+002, 2.109218e+002
3.682947e+002, 2.135495e+002
3.687768e+002, 2.156791e+002
3.692589e+002, 2.152683e+002
3.697411e+002, 2.106767e+002
3.702232e+002, 2.080571e+002
3.707053e+002, 2.089907e+002
3.711874e+002, 2.106445e+002
3.716695e+002, 2.119890e+002
3.721516e+002, 2.127364e+002
3.726338e+002, 2.127325e+002
3.731159e+002, 2.116180e+002
3.735980e+002, 2.094422e+002
3.740801e+002, 2.078316e+002
3.745622e+002, 2.072856e+002
3.750443e+002, 2.067157e+002
3.755265e+002, 2.056079e+002
3.760086e+002, 2.042720e+002
3.764907e+002, 2.031730e+002
3.769728e+002, 2.025052e+002
3.774549e+002, 2.022584e+002
3.779370e+002, 2.025505e+002
3.784192e+002, 2.037147e+002
3.789013e+002, 2.044643e+002
3.793834e+002, 2.046208e+002
3.798655e+002, 2.041311e+002
3.803476e+002, 2.025513e+002
3.808297e+002, 1.998215e+002
3.813119e+002, 1.972167e+002
3.817940e+002, 1.961331e+002
3.822761e+002, 1.965399e+002
3.827582e+002, 1.970298e+002
3.832403e+002, 1.972418e+002
3.837224e+002, 1.977628e+002
3.842046e+002, 1.995121e+002
3.846867e+002, 2.020037e+002
3.851688e+002, 2.035313e+002
3.856509e+002, 2.024843e+002
3.861330e+002, 1.999444e+002
3.866151e+002, 1.983598e+002
3.870973e+002, 1.978946e+002
3.875794e+002, 1.978179e+002
3.880615e+002, 1.981221e+002
3.885436e+002, 1.984463e+002
3.890257e+002, 1.981715e+002
3.895078e+002, 1.968706e+002
3.899900e+002, 1.955131e+002
3.904721e+002, 1.949452e+002
3.909542e+002, 1.951012e+002
3.914363e+002, 1.955969e+002
3.919184e+002, 1.966616e+002
3.924005e+002, 1.975562e+002
3.928827e+002, 1.970882e+002
3.933648e+002, 1.951613e+002
3.938469e+002, 1.934554e+002
3.943290e+002, 1.928293e+002
3.948111e+002, 1.927687e+002
3.952932e+002, 1.923319e+002
3.957754e+002, 1.913218e+002
3.962575e+002, 1.906322e+002
3.967396e+002, 1.913931e+002
3.972217e+002, 1.933999e+002
3.977038e+002, 1.942623e+002
3.981859e+002, 1.928761e+002
3.986681e+002, 1.912044e+002
3.991501e+002, 1.906008e+002
3.996323e+002, 1.908331e+002
4.001144e+002, 1.909150e+002
4.005965e+002, 1.902969e+002
4.010786e+002, 1.893012e+002
4.015607e+002, 1.889039e+002
4.020428e+002, 1.894419e+002
4.025250e+002, 1.898787e+002
4.030071e+002, 1.900293e+002
4.034892e+002, 1.899883e+002
4.039713e+002, 1.899189e+002
4.044534e+002, 1.898428e+002
4.049355e+002, 1.895047e+002
4.054177e+002, 1.884645e+002
4.058998e+002, 1.863630e+002
4.063819e+002, 1.855252e+002
4.068640e+002, 1.874954e+002
4.073461e+002, 1.891010e+002
4.078282e+002, 1.879872e+002
4.083104e+002, 1.851733e+002
4.087925e+002, 1.835741e+002
4.092746e+002, 1.851621e+002
4.097567e+002, 1.890040e+002
4.102388e+002, 1.907820e+002
4.107209e+002, 1.881364e+002
4.112031e+002, 1.863943e+002
4.116852e+002, 1.866521e+002
4.121673e+002, 1.876297e+002
4.126494e+002, 1.881691e+002
4.131315e+002, 1.879423e+002
4.136136e+002, 1.872679e+002
4.140958e+002, 1.864906e+002
4.145779e+002, 1.855130e+002
4.150600e+002, 1.848147e+002
4.155421e+002, 1.843938e+002
4.160242e+002, 1.842719e+002
4.165063e+002, 1.847883e+002
4.169885e+002, 1.856312e+002
4.174706e+002, 1.860378e+002
4.179527e+002, 1.853470e+002
4.184348e+002, 1.840295e+002
4.189169e+002, 1.838281e+002
4.193990e+002, 1.853877e+002
4.198812e+002, 1.866359e+002
4.203633e+002, 1.866321e+002
4.208454e+002, 1.862074e+002
4.213275e+002, 1.862254e+002
4.218096e+002, 1.869116e+002
4.222917e+002, 1.874717e+002
4.227739e+002, 1.867941e+002
4.232560e+002, 1.849680e+002
4.237381e+002, 1.839552e+002
4.242202e+002, 1.846687e+002
4.247023e+002, 1.853921e+002
4.251844e+002, 1.844998e+002
4.256666e+002, 1.824463e+002
4.261487e+002, 1.808892e+002
4.266308e+002, 1.806054e+002
4.271129e+002, 1.811776e+002
4.275950e+002, 1.824400e+002
4.280771e+002, 1.844921e+002
4.285593e+002, 1.854590e+002
4.290414e+002, 1.836093e+002
4.295235e+002, 1.803787e+002
4.300056e+002, 1.789978e+002
4.304877e+002, 1.800309e+002
4.309698e+002, 1.816508e+002
4.314520e+002, 1.838069e+002
4.319341e+002, 1.857860e+002
4.324162e+002, 1.856901e+002
4.328983e+002, 1.828138e+002
4.333804e+002, 1.795439e+002
4.338625e+002, 1.789165e+002
4.343447e+002, 1.814285e+002
4.348268e+002, 1.825072e+002
4.353089e+002, 1.804422e+002
4.357910e+002, 1.782298e+002
4.362731e+002, 1.779334e+002
4.367552e+002, 1.792604e+002
4.372374e+002, 1.808926e+002
4.377195e+002, 1.821168e+002
4.382016e+002, 1.829669e+002
4.386837e+002, 1.835448e+002
4.391658e+002, 1.838125e+002
4.396479e+002, 1.838462e+002
4.401301e+002, 1.836293e+002
4.406122e+002, 1.831929e+002
4.410943e+002, 1.824505e+002
4.415764e+002, 1.814471e+002
4.420585e+002, 1.804449e+002
4.425406e+002, 1.796740e+002
4.430227e+002, 1.790499e+002
4.435049e+002, 1.792747e+002
4.439870e+002, 1.814178e+002
4.444691e+002, 1.833107e+002
4.449512e+002, 1.843707e+002
4.454333e+002, 1.847064e+002
4.459154e+002, 1.845423e+002
4.463976e+002, 1.839620e+002
4.468797e+002, 1.830739e+002
4.473618e+002, 1.819146e+002
4.478439e+002, 1.800230e+002
4.483260e+002, 1.792497e+002
4.488081e+002, 1.810318e+002
4.492903e+002, 1.832455e+002
4.497724e+002, 1.846709e+002
4.502545e+002, 1.852058e+002
4.507366e+002, 1.853348e+002
4.512187e+002, 1.853620e+002
4.517008e+002, 1.852767e+002
4.521830e+002, 1.851178e+002
4.526651e+002, 1.850713e+002
4.531472e+002, 1.844847e+002
4.536293e+002, 1.816293e+002
4.541114e+002, 1.783122e+002
4.545935e+002, 1.775190e+002
4.550757e+002, 1.809955e+002
4.555578e+002, 1.849329e+002
4.560399e+002, 1.860712e+002
4.565220e+002, 1.849310e+002
4.570041e+002, 1.836261e+002
4.574862e+002, 1.824709e+002
4.579684e+002, 1.819550e+002
4.584505e+002, 1.832344e+002
4.589326e+002, 1.863085e+002
4.594147e+002, 1.885193e+002
4.598968e+002, 1.894507e+002
4.603789e+002, 1.892808e+002
4.608611e+002, 1.873743e+002
4.613432e+002, 1.841899e+002
4.618253e+002, 1.819734e+002
4.623074e+002, 1.822318e+002
4.627895e+002, 1.843700e+002
4.632716e+002, 1.859338e+002
4.637538e+002, 1.867489e+002
4.642359e+002, 1.872674e+002
4.647180e+002, 1.875500e+002
4.652001e+002, 1.875582e+002
4.656822e+002, 1.871340e+002
4.661643e+002, 1.863052e+002
4.666465e+002, 1.854194e+002
4.671286e+002, 1.848762e+002
4.676107e+002, 1.847219e+002
4.680928e+002, 1.844148e+002
4.685749e+002, 1.838262e+002
4.690570e+002, 1.832156e+002
4.695392e+002, 1.825713e+002
4.700213e+002, 1.819704e+002
4.705034e+002, 1.815962e+002
4.709855e+002, 1.815446e+002
4.714676e+002, 1.815097e+002
4.719497e+002, 1.808198e+002
4.724319e+002, 1.792239e+002
4.729140e+002, 1.780815e+002
4.733961e+002, 1.777380e+002
4.738782e+002, 1.778091e+002
4.743603e+002, 1.784684e+002
4.748424e+002, 1.794567e+002
4.753246e+002, 1.798678e+002
4.758067e+002, 1.787850e+002
4.762888e+002, 1.768951e+002
4.767709e+002, 1.757127e+002
4.772530e+002, 1.753346e+002
4.777351e+002, 1.750842e+002
4.782173e+002, 1.746232e+002
4.786994e+002, 1.741294e+002
4.791815e+002, 1.741108e+002
4.796636e+002, 1.749860e+002
4.801457e+002, 1.748700e+002
4.806278e+002, 1.716409e+002
4.811100e+002, 1.670755e+002
4.815920e+002, 1.645496e+002
4.820742e+002, 1.647008e+002
4.825563e+002, 1.657835e+002
4.830384e+002, 1.663933e+002
4.835205e+002, 1.665177e+002
4.840026e+002, 1.665742e+002
4.844847e+002, 1.659917e+002
4.849669e+002, 1.659557e+002
4.854490e+002, 1.674798e+002
4.859311e+002, 1.697691e+002
4.864132e+002, 1.713349e+002
4.868953e+002, 1.716328e+002
4.873774e+002, 1.714437e+002
4.878596e+002, 1.721411e+002
4.883417e+002, 1.745031e+002
4.888238e+002, 1.755898e+002
4.893059e+002, 1.746419e+002
4.897880e+002, 1.733707e+002
4.902701e+002, 1.725848e+002
4.907523e+002, 1.721533e+002
4.912344e+002, 1.715203e+002
4.917165e+002, 1.702807e+002
4.921986e+002, 1.688327e+002
4.926807e+002, 1.683223e+002
4.931628e+002, 1.690230e+002
4.936450e+002, 1.699097e+002
4.941271e+002, 1.712984e+002
4.946092e+002, 1.724138e+002
4.950913e+002, 1.725066e+002
4.955734e+002, 1.716466e+002
4.960555e+002, 1.708090e+002
4.965377e+002, 1.708188e+002
4.970198e+002, 1.713524e+002
4.975019e+002, 1.715983e+002
4.979840e+002, 1.715730e+002
4.984661e+002, 1.710378e+002
4.989482e+002, 1.690558e+002
4.994304e+002, 1.668023e+002
4.999125e+002, 1.667190e+002
5.003946e+002, 1.700212e+002
5.008767e+002, 1.728067e+002
5.013588e+002, 1.724848e+002
5.018409e+002, 1.705272e+002
5.023231e+002, 1.696819e+002
5.028052e+002, 1.705215e+002
5.032873e+002, 1.716104e+002
5.037694e+002, 1.715897e+002
5.042515e+002, 1.704082e+002
5.047336e+002, 1.693086e+002
5.052158e+002, 1.680393e+002
5.056979e+002, 1.671189e+002
5.061800e+002, 1.670498e+002
5.066621e+002, 1.673520e+002
5.071442e+002, 1.671761e+002
5.076263e+002, 1.662451e+002
5.081085e+002, 1.652141e+002
5.085906e+002, 1.651903e+002
5.090727e+002, 1.666102e+002
5.095548e+002, 1.674546e+002
5.100369e+002, 1.672357e+002
5.105190e+002, 1.669230e+002
5.110012e+002, 1.667354e+002
5.114833e+002, 1.667435e+002
5.119654e+002, 1.671208e+002
5.124475e+002, 1.680716e+002
5.129296e+002, 1.690432e+002
5.134117e+002, 1.688953e+002
5.138939e+002, 1.674597e+002
5.143760e+002, 1.661632e+002
5.148581e+002, 1.650296e+002
5.153402e+002, 1.644523e+002
5.158223e+002, 1.650175e+002
5.163044e+002, 1.665282e+002
5.167866e+002, 1.676902e+002
5.172687e+002, 1.678242e+002
5.177508e+002, 1.673990e+002
5.182329e+002, 1.669642e+002
5.187150e+002, 1.665254e+002
5.191971e+002, 1.659033e+002
5.196793e+002, 1.648010e+002
5.201614e+002, 1.637162e+002
5.206435e+002, 1.640282e+002
5.211256e+002, 1.663822e+002
5.216077e+002, 1.679551e+002
5.220898e+002, 1.677747e+002
5.225720e+002, 1.669708e+002
5.230541e+002, 1.665760e+002
5.235362e+002, 1.665776e+002
5.240183e+002, 1.662390e+002
5.245004e+002, 1.649439e+002
5.249825e+002, 1.629946e+002
5.254647e+002, 1.619550e+002
5.259468e+002, 1.626041e+002
5.264289e+002, 1.631053e+002
5.269110e+002, 1.629968e+002
5.273931e+002, 1.628914e+002
5.278752e+002, 1.634655e+002
5.283574e+002, 1.646767e+002
5.288395e+002, 1.657771e+002
5.293216e+002, 1.661054e+002
5.298037e+002, 1.657517e+002
5.302858e+002, 1.651797e+002
5.307679e+002, 1.641876e+002
5.312501e+002, 1.634520e+002
5.317322e+002, 1.637306e+002
5.322143e+002, 1.641928e+002
5.326964e+002, 1.637267e+002
5.331785e+002, 1.619678e+002
5.336606e+002, 1.607051e+002
5.341428e+002, 1.618561e+002
5.346249e+002, 1.641905e+002
5.351070e+002, 1.648238e+002
5.355891e+002, 1.632784e+002
5.360712e+002, 1.615371e+002
5.365533e+002, 1.610878e+002
5.370355e+002, 1.617358e+002
5.375176e+002, 1.621335e+002
5.379997e+002, 1.615773e+002
5.384818e+002, 1.616494e+002
5.389639e+002, 1.637077e+002
5.394460e+002, 1.662244e+002
5.399282e+002, 1.670475e+002
5.404103e+002, 1.658634e+002
5.408924e+002, 1.642595e+002
5.413745e+002, 1.639460e+002
5.418566e+002, 1.649749e+002
5.423387e+002, 1.654911e+002
5.428209e+002, 1.651390e+002
5.433029e+002, 1.646615e+002
5.437850e+002, 1.640981e+002
5.442672e+002, 1.635392e+002
5.447493e+002, 1.629705e+002
5.452314e+002, 1.624120e+002
5.457135e+002, 1.621886e+002
5.461956e+002, 1.629814e+002
5.466777e+002, 1.646507e+002
5.471599e+002, 1.653499e+002
5.476420e+002, 1.644676e+002
5.481241e+002, 1.637067e+002
5.486062e+002, 1.643643e+002
5.490883e+002, 1.657969e+002
5.495704e+002, 1.670967e+002
5.500526e+002, 1.683126e+002
5.505347e+002, 1.689461e+002
5.510168e+002, 1.682759e+002
5.514989e+002, 1.668712e+002
5.519810e+002, 1.657515e+002
5.524631e+002, 1.651164e+002
5.529453e+002, 1.653204e+002
5.534274e+002, 1.670728e+002
5.539095e+002, 1.703831e+002
5.543916e+002, 1.714844e+002
5.548737e+002, 1.684373e+002
5.553558e+002, 1.658513e+002
5.558380e+002, 1.651084e+002
5.563201e+002, 1.654620e+002
5.568022e+002, 1.661941e+002
5.572843e+002, 1.670117e+002
5.577664e+002, 1.675840e+002
5.582485e+002, 1.674127e+002
5.587307e+002, 1.664555e+002
5.592128e+002, 1.660024e+002
5.596949e+002, 1.663661e+002
5.601770e+002, 1.668114e+002
5.606591e+002, 1.671052e+002
5.611412e+002, 1.673246e+002
5.616234e+002, 1.676134e+002
5.621055e+002, 1.680263e+002
5.625876e+002, 1.682913e+002
5.630697e+002, 1.681152e+002
5.635518e+002, 1.675963e+002
5.640339e+002, 1.670241e+002
5.645161e+002, 1.664019e+002
5.649982e+002, 1.658661e+002
5.654803e+002, 1.654943e+002
5.659624e+002, 1.653008e+002
5.664445e+002, 1.652860e+002
5.669266e+002, 1.657078e+002
5.674088e+002, 1.659412e+002
5.678909e+002, 1.655884e+002
5.683730e+002, 1.650171e+002
5.688551e+002, 1.645721e+002
5.693372e+002, 1.643690e+002
5.698193e+002, 1.646446e+002
5.703015e+002, 1.657927e+002
5.707836e+002, 1.677038e+002
5.712657e+002, 1.681594e+002
5.717478e+002, 1.657984e+002
5.722299e+002, 1.637574e+002
5.727120e+002, 1.622890e+002
5.731942e+002, 1.614744e+002
5.736763e+002, 1.616250e+002
5.741584e+002, 1.626587e+002
5.746405e+002, 1.637470e+002
5.751226e+002, 1.641533e+002
5.756047e+002, 1.640126e+002
5.760869e+002, 1.638260e+002
5.765690e+002, 1.635371e+002
5.770511e+002, 1.634644e+002
5.775332e+002, 1.640791e+002
5.780153e+002, 1.648056e+002
5.784974e+002, 1.647201e+002
5.789796e+002, 1.636790e+002
5.794617e+002, 1.624101e+002
5.799438e+002, 1.605698e+002
5.804259e+002, 1.590118e+002
5.809080e+002, 1.590778e+002
5.813901e+002, 1.605985e+002
5.818723e+002, 1.619912e+002
5.823544e+002, 1.622635e+002
5.828365e+002, 1.616585e+002
5.833186e+002, 1.610044e+002
5.838007e+002, 1.604098e+002
5.842828e+002, 1.595826e+002
5.847650e+002, 1.579655e+002
5.852471e+002, 1.565888e+002
5.857292e+002, 1.562264e+002
5.862113e+002, 1.567345e+002
5.866934e+002, 1.575586e+002
5.871755e+002, 1.585147e+002
5.876577e+002, 1.592636e+002
5.881398e+002, 1.587401e+002
5.886219e+002, 1.566633e+002
5.891040e+002, 1.552636e+002
5.895861e+002, 1.553857e+002
5.900682e+002, 1.560312e+002
5.905504e+002, 1.561821e+002
5.910325e+002, 1.559479e+002
5.915146e+002, 1.560589e+002
5.919967e+002, 1.572171e+002
5.924788e+002, 1.584012e+002
5.929609e+002, 1.587854e+002
5.934431e+002, 1.584716e+002
5.939252e+002, 1.576971e+002
5.944073e+002, 1.565156e+002
5.948894e+002, 1.552135e+002
5.953715e+002, 1.540925e+002
5.958536e+002, 1.529535e+002
5.963358e+002, 1.529700e+002
5.968179e+002, 1.556602e+002
5.973000e+002, 1.576489e+002
5.977821e+002, 1.571060e+002
5.982642e+002, 1.553552e+002
5.987463e+002, 1.544062e+002
5.992285e+002, 1.549277e+002
5.997106e+002, 1.558846e+002
6.001927e+002, 1.558412e+002
6.006748e+002, 1.548584e+002
6.011569e+002, 1.547704e+002
6.016390e+002, 1.560768e+002
6.021212e+002, 1.573786e+002
6.026033e+002, 1.579354e+002
6.030854e+002, 1.579543e+002
6.035675e+002, 1.576636e+002
6.040496e+002, 1.570336e+002
6.045317e+002, 1.562632e+002
6.050139e+002, 1.552961e+002
6.054960e+002, 1.543156e+002
6.059781e+002, 1.535317e+002
6.064602e+002, 1.529922e+002
6.069423e+002, 1.527834e+002
6.074244e+002, 1.529686e+002
6.079066e+002, 1.535365e+002
6.083887e+002, 1.544730e+002
6.088708e+002, 1.568847e+002
6.093529e+002, 1.580263e+002
6.098350e+002, 1.567839e+002
6.103171e+002, 1.551088e+002
6.107993e+002, 1.540930e+002
6.112814e+002, 1.538999e+002
6.117635e+002, 1.545347e+002
6.122456e+002, 1.563326e+002
6.127277e+002, 1.584105e+002
6.132098e+002, 1.587237e+002
6.136920e+002, 1.571130e+002
6.141741e+002, 1.555453e+002
6.146562e+002, 1.542116e+002
6.151383e+002, 1.534497e+002
6.156204e+002, 1.540489e+002
6.161025e+002, 1.557155e+002
6.165847e+002, 1.565884e+002
6.170668e+002, 1.557384e+002
6.175489e+002, 1.545325e+002
6.180310e+002, 1.533943e+002
6.185131e+002, 1.526164e+002
6.189952e+002, 1.530032e+002
6.194774e+002, 1.547452e+002
6.199595e+002, 1.567248e+002
6.204416e+002, 1.576210e+002
6.209237e+002, 1.573731e+002
6.214058e+002, 1.570091e+002
6.218879e+002, 1.562245e+002
6.223701e+002, 1.557090e+002
6.228522e+002, 1.557768e+002
6.233343e+002, 1.560820e+002
6.238164e+002, 1.562322e+002
6.242985e+002, 1.561683e+002
6.247806e+002, 1.562035e+002
6.252628e+002, 1.568412e+002
6.257448e+002, 1.577367e+002
6.262269e+002, 1.578293e+002
6.267090e+002, 1.570271e+002
6.271912e+002, 1.562256e+002
6.276733e+002, 1.556396e+002
6.281554e+002, 1.554704e+002
6.286375e+002, 1.564070e+002
6.291196e+002, 1.588431e+002
6.296017e+002, 1.603369e+002
6.300839e+002, 1.599849e+002
6.305660e+002, 1.590714e+002
6.310481e+002, 1.583739e+002
6.315302e+002, 1.578546e+002
6.320123e+002, 1.570563e+002
6.324944e+002, 1.557700e+002
6.329766e+002, 1.546936e+002
6.334587e+002, 1.553979e+002
6.339408e+002, 1.585650e+002
6.344229e+002, 1.599488e+002
6.349050e+002, 1.582970e+002
6.353871e+002, 1.563722e+002
6.358693e+002, 1.551038e+002
6.363514e+002, 1.544522e+002
6.368335e+002, 1.544746e+002
6.373156e+002, 1.553291e+002
6.377977e+002, 1.561968e+002
6.382798e+002, 1.564042e+002
6.387620e+002, 1.562488e+002
6.392441e+002, 1.562793e+002
6.397262e+002, 1.565580e+002
6.402083e+002, 1.569321e+002
6.406904e+002, 1.573100e+002
6.411725e+002, 1.577010e+002
6.416547e+002, 1.581507e+002
6.421368e+002, 1.592168e+002
6.426189e+002, 1.594700e+002
6.431010e+002, 1.583003e+002
6.435831e+002, 1.568655e+002
6.440652e+002, 1.556707e+002
6.445474e+002, 1.548414e+002
6.450295e+002, 1.544317e+002
6.455116e+002, 1.544707e+002
6.459937e+002, 1.549457e+002
6.464758e+002, 1.561816e+002
6.469579e+002, 1.581643e+002
6.474401e+002, 1.590876e+002
6.479222e+002, 1.584522e+002
6.484043e+002, 1.572026e+002
6.488864e+002, 1.558484e+002
6.493685e+002, 1.544421e+002
6.498506e+002, 1.531523e+002
6.503328e+002, 1.515998e+002
6.508149e+002, 1.507742e+002
6.512970e+002, 1.518772e+002
6.517791e+002, 1.534772e+002
6.522612e+002, 1.535484e+002
6.527433e+002, 1.521140e+002
6.532255e+002, 1.509909e+002
6.537076e+002, 1.516219e+002
6.541897e+002, 1.533930e+002
6.546718e+002, 1.538908e+002
6.551539e+002, 1.523260e+002
6.556360e+002, 1.513987e+002
6.561182e+002, 1.519261e+002
6.566003e+002, 1.528128e+002
6.570824e+002, 1.536217e+002
6.575645e+002, 1.543087e+002
6.580466e+002, 1.548626e+002
6.585287e+002, 1.553384e+002
6.590109e+002, 1.555876e+002
6.594930e+002, 1.552816e+002
6.599751e+002, 1.546408e+002
6.604572e+002, 1.541997e+002
6.609393e+002, 1.540661e+002
6.614214e+002, 1.544682e+002
6.619036e+002, 1.558322e+002
6.623857e+002, 1.579679e+002
6.628678e+002, 1.587921e+002
6.633499e+002, 1.569835e+002
6.638320e+002, 1.555969e+002
6.643141e+002, 1.549887e+002
6.647963e+002, 1.548194e+002
6.652784e+002, 1.550206e+002
6.657605e+002, 1.554272e+002
6.662426e+002, 1.556533e+002
6.667247e+002, 1.554547e+002
6.672068e+002, 1.549521e+002
6.676890e+002, 1.542586e+002
6.681711e+002, 1.533857e+002
6.686532e+002, 1.526518e+002
6.691353e+002, 1.519888e+002
6.696174e+002, 1.518464e+002
6.700995e+002, 1.530695e+002
6.705817e+002, 1.554212e+002
6.710638e+002, 1.565174e+002
6.715459e+002, 1.552088e+002
6.720280e+002, 1.540108e+002
6.725101e+002, 1.540038e+002
6.729922e+002, 1.543386e+002
6.734744e+002, 1.537320e+002
6.739565e+002, 1.523160e+002
6.744386e+002, 1.517216e+002
6.749207e+002, 1.534656e+002
6.754028e+002, 1.564914e+002
6.758849e+002, 1.570966e+002
6.763671e+002, 1.546290e+002
6.768492e+002, 1.526278e+002
6.773313e+002, 1.518586e+002
6.778134e+002, 1.516699e+002
6.782955e+002, 1.514492e+002
6.787776e+002, 1.513223e+002
6.792598e+002, 1.518001e+002
6.797419e+002, 1.537318e+002
6.802240e+002, 1.553554e+002
6.807061e+002, 1.554383e+002
6.811882e+002, 1.546188e+002
6.816703e+002, 1.536069e+002
6.821525e+002, 1.526686e+002
6.826346e+002, 1.524617e+002
6.831167e+002, 1.536964e+002
6.835988e+002, 1.559068e+002
6.840809e+002, 1.567328e+002
6.845630e+002, 1.555087e+002
6.850452e+002, 1.543547e+002
6.855273e+002, 1.533963e+002
6.860094e+002, 1.527253e+002
6.864915e+002, 1.525372e+002
6.869736e+002, 1.526941e+002
6.874557e+002, 1.527615e+002
6.879379e+002, 1.523743e+002
6.884200e+002, 1.522084e+002
6.889021e+002, 1.533751e+002
6.893842e+002, 1.551394e+002
6.898663e+002, 1.555874e+002
6.903484e+002, 1.544019e+002
6.908306e+002, 1.529767e+002
6.913127e+002, 1.523979e+002
6.917948e+002, 1.524884e+002
6.922769e+002, 1.523206e+002
6.927590e+002, 1.513024e+002
6.932411e+002, 1.509982e+002
6.937233e+002, 1.522210e+002
6.942054e+002, 1.534548e+002
6.946875e+002, 1.537730e+002
6.951696e+002, 1.533426e+002
6.956517e+002, 1.526909e+002
6.961339e+002, 1.519161e+002
6.966160e+002, 1.514199e+002
6.970981e+002, 1.519733e+002
6.975802e+002, 1.532013e+002
6.980623e+002, 1.538045e+002
6.985444e+002, 1.535805e+002
6.990266e+002, 1.526882e+002
6.995087e+002, 1.508844e+002
6.999908e+002, 1.487109e+002
7.004729e+002, 1.482850e+002
7.009550e+002, 1.513683e+002
7.014371e+002, 1.535261e+002
7.019193e+002, 1.542641e+002
7.024014e+002, 1.544689e+002
7.028835e+002, 1.545334e+002
7.033656e+002, 1.545168e+002
7.038477e+002, 1.544101e+002
7.043298e+002, 1.542102e+002
7.048120e+002, 1.539231e+002
7.052941e+002, 1.534617e+002
7.057762e+002, 1.529008e+002
7.062583e+002, 1.525805e+002
7.067404e+002, 1.525274e+002
7.072225e+002, 1.528088e+002
7.077046e+002, 1.536499e+002
7.081867e+002, 1.547159e+002
7.086688e+002, 1.550497e+002
7.091509e+002, 1.540334e+002
7.096331e+002, 1.538989e+002
7.101152e+002, 1.558472e+002
7.105973e+002, 1.576882e+002
7.110794e+002, 1.580399e+002
7.115615e+002, 1.573758e+002
7.120436e+002, 1.565502e+002
7.125258e+002, 1.558878e+002
7.130079e+002, 1.555423e+002
7.134900e+002, 1.559444e+002
7.139721e+002, 1.568830e+002
7.144542e+002, 1.571374e+002
7.149363e+002, 1.565967e+002
7.154185e+002, 1.558005e+002
7.159006e+002, 1.547383e+002
7.163827e+002, 1.538211e+002
7.168648e+002, 1.539149e+002
7.173469e+002, 1.552387e+002
7.178290e+002, 1.561364e+002
7.183112e+002, 1.565466e+002
7.187933e+002, 1.564188e+002
7.192754e+002, 1.551687e+002
7.197575e+002, 1.535991e+002
7.202396e+002, 1.528316e+002
7.207217e+002, 1.531424e+002
7.212039e+002, 1.540158e+002
7.216860e+002, 1.552826e+002
7.221681e+002, 1.566330e+002
7.226502e+002, 1.566102e+002
7.231323e+002, 1.550173e+002
7.236144e+002, 1.536349e+002
7.240966e+002, 1.528484e+002
7.245787e+002, 1.527746e+002
7.250608e+002, 1.540399e+002
7.255429e+002, 1.566028e+002
7.260250e+002, 1.577647e+002
7.265071e+002, 1.562775e+002
7.269893e+002, 1.547026e+002
7.274714e+002, 1.537142e+002
7.279535e+002, 1.532696e+002
7.284356e+002, 1.534807e+002
7.289177e+002, 1.542230e+002
7.293998e+002, 1.549923e+002
7.298820e+002, 1.553830e+002
7.303641e+002, 1.556261e+002
7.308462e+002, 1.564646e+002
7.313283e+002, 1.579420e+002
7.318104e+002, 1.585352e+002
7.322925e+002, 1.576094e+002
7.327747e+002, 1.565306e+002
7.332568e+002, 1.563823e+002
7.337389e+002, 1.570423e+002
7.342210e+002, 1.577560e+002
7.347031e+002, 1.589929e+002
7.351852e+002, 1.595521e+002
7.356674e+002, 1.588102e+002
7.361495e+002, 1.576026e+002
7.366316e+002, 1.562239e+002
7.371137e+002, 1.550068e+002
7.375958e+002, 1.546705e+002
7.380779e+002, 1.556342e+002
7.385601e+002, 1.569808e+002
7.390422e+002, 1.572151e+002
7.395243e+002, 1.564862e+002
7.400064e+002, 1.562798e+002
7.404885e+002, 1.567993e+002
7.409706e+002, 1.574918e+002
7.414528e+002, 1.582928e+002
7.419349e+002, 1.588989e+002
7.424170e+002, 1.583846e+002
7.428991e+002, 1.560666e+002
7.433812e+002, 1.550619e+002
7.438633e+002, 1.570857e+002
7.443455e+002, 1.589578e+002
7.448276e+002, 1.587821e+002
7.453097e+002, 1.574340e+002
7.457918e+002, 1.562320e+002
7.462739e+002, 1.556077e+002
7.467560e+002, 1.554778e+002
7.472382e+002, 1.558551e+002
7.477203e+002, 1.566521e+002
7.482024e+002, 1.578032e+002
7.486845e+002, 1.593321e+002
7.491666e+002, 1.602307e+002
7.496487e+002, 1.600625e+002
7.501309e+002, 1.593637e+002
7.506130e+002, 1.585773e+002
7.510951e+002, 1.576677e+002
7.515772e+002, 1.575924e+002
7.520593e+002, 1.595952e+002
7.525414e+002, 1.607450e+002
7.530236e+002, 1.594792e+002
7.535057e+002, 1.577524e+002
7.539878e+002, 1.573133e+002
7.544699e+002, 1.581829e+002
7.549520e+002, 1.594890e+002
7.554341e+002, 1.609765e+002
7.559163e+002, 1.621706e+002
7.563984e+002, 1.621602e+002
7.568805e+002, 1.612299e+002
7.573626e+002, 1.606843e+002
7.578447e+002, 1.607592e+002
7.583268e+002, 1.608013e+002
7.588090e+002, 1.603236e+002
7.592911e+002, 1.594909e+002
7.597732e+002, 1.588092e+002
7.602553e+002, 1.576726e+002
7.607374e+002, 1.578432e+002
7.612195e+002, 1.611063e+002
7.617017e+002, 1.637073e+002
7.621838e+002, 1.633378e+002
7.626659e+002, 1.613304e+002
7.631480e+002, 1.598233e+002
7.636301e+002, 1.594064e+002
7.641122e+002, 1.594242e+002
7.645944e+002, 1.595983e+002
7.650765e+002, 1.597931e+002
7.655586e+002, 1.597467e+002
7.660407e+002, 1.594968e+002
7.665228e+002, 1.592812e+002
7.670049e+002, 1.591847e+002
7.674871e+002, 1.592083e+002
7.679692e+002, 1.593359e+002
7.684513e+002, 1.595609e+002
7.689334e+002, 1.601239e+002
7.694155e+002, 1.617029e+002
7.698976e+002, 1.624968e+002
7.703798e+002, 1.614525e+002
7.708619e+002, 1.600313e+002
7.713440e+002, 1.592339e+002
7.718261e+002, 1.590885e+002
7.723082e+002, 1.593515e+002
7.727903e+002, 1.604376e+002
7.732725e+002, 1.612367e+002
7.737546e+002, 1.603873e+002
7.742367e+002, 1.590058e+002
7.747188e+002, 1.590836e+002
7.752009e+002, 1.606523e+002
7.756830e+002, 1.620836e+002
7.761652e+002, 1.622783e+002
7.766473e+002, 1.618061e+002
7.771294e+002, 1.620807e+002
7.776115e+002, 1.632621e+002
7.780936e+002, 1.641675e+002
7.785757e+002, 1.648735e+002
7.790579e+002, 1.650014e+002
7.795400e+002, 1.635977e+002
7.800221e+002, 1.618061e+002
7.805042e+002, 1.618240e+002
7.809863e+002, 1.642648e+002
7.814684e+002, 1.657414e+002
7.819506e+002, 1.647295e+002
7.824327e+002, 1.632135e+002
7.829148e+002, 1.621055e+002
7.833969e+002, 1.615038e+002
7.838790e+002, 1.615179e+002
7.843611e+002, 1.621232e+002
7.848433e+002, 1.629984e+002
7.853254e+002, 1.639526e+002
7.858075e+002, 1.648867e+002
7.862896e+002, 1.655855e+002
7.867717e+002, 1.660521e+002
7.872538e+002, 1.657237e+002
7.877360e+002, 1.641386e+002
7.882181e+002, 1.627246e+002
7.887002e+002, 1.630024e+002
7.891823e+002, 1.647026e+002
7.896644e+002, 1.655210e+002
7.901465e+002, 1.644492e+002
7.906286e+002, 1.639930e+002
7.911107e+002, 1.647964e+002
7.915928e+002, 1.658444e+002
7.920750e+002, 1.668690e+002
7.925571e+002, 1.675431e+002
7.930392e+002, 1.671802e+002
7.935213e+002, 1.654167e+002
7.940034e+002, 1.636181e+002
7.944855e+002, 1.628699e+002
7.949677e+002, 1.629460e+002
7.954498e+002, 1.635971e+002
7.959319e+002, 1.647321e+002
7.964140e+002, 1.660287e+002
7.968961e+002, 1.673989e+002
7.973782e+002, 1.684256e+002
7.978604e+002, 1.684201e+002
7.983425e+002, 1.673143e+002
7.988246e+002, 1.668617e+002
7.993067e+002, 1.676339e+002
7.997888e+002, 1.680192e+002
8.002709e+002, 1.672663e+002
8.007531e+002, 1.662581e+002
8.012352e+002, 1.656143e+002
8.017173e+002, 1.652974e+002
8.021994e+002, 1.649964e+002
8.026815e+002, 1.643526e+002
8.031636e+002, 1.641132e+002
8.036458e+002, 1.650139e+002
8.041279e+002, 1.663172e+002
8.046100e+002, 1.670494e+002
8.050921e+002, 1.673030e+002
8.055742e+002, 1.679191e+002
8.060563e+002, 1.693777e+002
8.065385e+002, 1.709936e+002
8.070206e+002, 1.715599e+002
8.075027e+002, 1.711657e+002
8.079848e+002, 1.711067e+002
8.084669e+002, 1.715694e+002
8.089490e+002, 1.716339e+002
8.094312e+002, 1.707287e+002
8.099133e+002, 1.694360e+002
8.103954e+002, 1.685493e+002
8.108775e+002, 1.680692e+002
8.113596e+002, 1.680992e+002
8.118417e+002, 1.694295e+002
8.123239e+002, 1.702588e+002
8.128060e+002, 1.697387e+002
8.132881e+002, 1.687573e+002
8.137702e+002, 1.679506e+002
8.142523e+002, 1.674867e+002
8.147344e+002, 1.675227e+002
8.152166e+002, 1.682640e+002
8.156987e+002, 1.692608e+002
8.161808e+002, 1.702606e+002
8.166629e+002, 1.711003e+002
8.171450e+002, 1.712723e+002
8.176271e+002, 1.707985e+002
8.181093e+002, 1.703691e+002
8.185914e+002, 1.703841e+002
8.190735e+002, 1.706274e+002
8.195556e+002, 1.707165e+002
8.200377e+002, 1.706669e+002
8.205198e+002, 1.702941e+002
8.210020e+002, 1.692474e+002
8.214841e+002, 1.685374e+002
8.219662e+002, 1.688533e+002
8.224483e+002, 1.694753e+002
8.229304e+002, 1.694531e+002
8.234125e+002, 1.688194e+002
8.238947e+002, 1.687747e+002
8.243768e+002, 1.702056e+002
8.248589e+002, 1.714924e+002
8.253410e+002, 1.714962e+002
8.258231e+002, 1.712773e+002
8.263052e+002, 1.724291e+002
8.267874e+002, 1.746183e+002
8.272695e+002, 1.759616e+002
8.277516e+002, 1.753166e+002
8.282337e+002, 1.738171e+002
8.287158e+002, 1.728650e+002
8.291979e+002, 1.724255e+002
8.296801e+002, 1.724406e+002
8.301622e+002, 1.729057e+002
8.306443e+002, 1.735216e+002
8.311264e+002, 1.742438e+002
8.316085e+002, 1.747140e+002
8.320906e+002, 1.742612e+002
8.325728e+002, 1.727087e+002
8.330549e+002, 1.715092e+002
8.335370e+002, 1.703465e+002
8.340191e+002, 1.700351e+002
8.345012e+002, 1.716215e+002
8.349833e+002, 1.733858e+002
8.354655e+002, 1.736708e+002
8.359476e+002, 1.727598e+002
8.364297e+002, 1.724495e+002
8.369118e+002, 1.737890e+002
8.373939e+002, 1.750227e+002
8.378760e+002, 1.750937e+002
8.383582e+002, 1.746165e+002
8.388403e+002, 1.741839e+002
8.393224e+002, 1.738871e+002
8.398045e+002, 1.737324e+002
8.402866e+002, 1.737248e+002
8.407687e+002, 1.736982e+002
8.412509e+002, 1.733034e+002
8.417330e+002, 1.726579e+002
8.422151e+002, 1.726577e+002
8.426972e+002, 1.733943e+002
8.431793e+002, 1.733518e+002
8.436614e+002, 1.717201e+002
8.441436e+002, 1.698575e+002
8.446257e+002, 1.693551e+002
8.451078e+002, 1.701806e+002
8.455899e+002, 1.710551e+002
8.460720e+002, 1.726090e+002
8.465541e+002, 1.732515e+002
8.470363e+002, 1.718610e+002
8.475184e+002, 1.704764e+002
8.480005e+002, 1.705877e+002
8.484826e+002, 1.716521e+002
8.489647e+002, 1.723555e+002
8.494468e+002, 1.723794e+002
8.499290e+002, 1.719656e+002
8.504111e+002, 1.708491e+002
8.508932e+002, 1.696748e+002
8.513753e+002, 1.689773e+002
8.518574e+002, 1.687836e+002
8.523395e+002, 1.690955e+002
8.528217e+002, 1.698856e+002
8.533038e+002, 1.710291e+002
8.537859e+002, 1.726234e+002
8.542680e+002, 1.742735e+002
8.547501e+002, 1.744220e+002
8.552322e+002, 1.730720e+002
8.557144e+002, 1.725288e+002
8.561965e+002, 1.735271e+002
8.566786e+002, 1.741060e+002
8.571607e+002, 1.725311e+002
8.576428e+002, 1.696249e+002
8.581249e+002, 1.680367e+002
8.586071e+002, 1.683094e+002
8.590892e+002, 1.687460e+002
8.595713e+002, 1.695434e+002
8.600534e+002, 1.702676e+002
8.605355e+002, 1.706251e+002
8.610176e+002, 1.709080e+002
8.614998e+002, 1.718555e+002
8.619819e+002, 1.734259e+002
8.624640e+002, 1.737231e+002
8.629461e+002, 1.706581e+002
8.634282e+002, 1.674994e+002
8.639103e+002, 1.663139e+002
8.643925e+002, 1.665166e+002
8.648746e+002, 1.679103e+002
8.653567e+002, 1.699498e+002
8.658388e+002, 1.709328e+002
8.663209e+002, 1.697831e+002
8.668030e+002, 1.678229e+002
8.672852e+002, 1.670939e+002
8.677673e+002, 1.673724e+002
8.682494e+002, 1.675644e+002
8.687315e+002, 1.676156e+002
8.692136e+002, 1.671919e+002
8.696957e+002, 1.660284e+002
8.701779e+002, 1.647553e+002
8.706600e+002, 1.642073e+002
8.711421e+002, 1.643863e+002
8.716242e+002, 1.648632e+002
8.721063e+002, 1.660844e+002
8.725884e+002, 1.668157e+002
8.730705e+002, 1.667480e+002
8.735526e+002, 1.662189e+002
8.740347e+002, 1.653304e+002
8.745168e+002, 1.641424e+002
8.749990e+002, 1.625975e+002
8.754811e+002, 1.602238e+002
8.759632e+002, 1.589585e+002
8.764453e+002, 1.606288e+002
8.769274e+002, 1.625480e+002
8.774095e+002, 1.624458e+002
8.778917e+002, 1.612883e+002
8.783738e+002, 1.612430e+002
8.788559e+002, 1.625823e+002
8.793380e+002, 1.630989e+002
8.798201e+002, 1.603135e+002
8.803022e+002, 1.566199e+002
8.807844e+002, 1.565222e+002
8.812665e+002, 1.589478e+002
8.817486e+002, 1.599932e+002
8.822307e+002, 1.590550e+002
8.827128e+002, 1.570618e+002
8.831949e+002, 1.543704e+002
8.836771e+002, 1.519880e+002
8.841592e+002, 1.524373e+002
8.846413e+002, 1.563395e+002
8.851234e+002, 1.583098e+002
8.856055e+002, 1.577369e+002
8.860876e+002, 1.567233e+002
8.865698e+002, 1.559554e+002
8.870519e+002, 1.550951e+002
8.875340e+002, 1.533119e+002
8.880161e+002, 1.507655e+002
8.884982e+002, 1.498465e+002
8.889803e+002, 1.521300e+002
8.894625e+002, 1.539123e+002
8.899446e+002, 1.544948e+002
8.904267e+002, 1.544463e+002
8.909088e+002, 1.538465e+002
8.913909e+002, 1.530038e+002
8.918730e+002, 1.523872e+002
8.923552e+002, 1.521208e+002
8.928373e+002, 1.521026e+002
8.933194e+002, 1.526531e+002
8.938015e+002, 1.530970e+002
8.942836e+002, 1.523862e+002
8.947657e+002, 1.510969e+002
8.952479e+002, 1.506236e+002
8.957300e+002, 1.511287e+002
8.962121e+002, 1.514448e+002
8.966942e+002, 1.506208e+002
8.971763e+002, 1.493711e+002
8.976584e+002, 1.493994e+002
8.981406e+002, 1.505066e+002
8.986227e+002, 1.505443e+002
8.991048e+002, 1.492339e+002
8.995869e+002, 1.478934e+002
9.000690e+002, 1.471112e+002
9.005511e+002, 1.466979e+002
9.010333e+002, 1.464186e+002
9.015154e+002, 1.462880e+002
9.019975e+002, 1.458937e+002
9.024796e+002, 1.446322e+002
9.029617e+002, 1.442495e+002
9.034438e+002, 1.463381e+002
9.039260e+002, 1.481548e+002
9.044081e+002, 1.476563e+002
9.048902e+002, 1.454865e+002
9.053723e+002, 1.431170e+002
9.058544e+002, 1.401470e+002
9.063365e+002, 1.385926e+002
9.068187e+002, 1.400927e+002
9.073008e+002, 1.419367e+002
9.077829e+002, 1.427336e+002
9.082650e+002, 1.427410e+002
9.087471e+002, 1.424454e+002
9.092292e+002, 1.419239e+002
9.097114e+002, 1.408672e+002
9.101935e+002, 1.383949e+002
9.106756e+002, 1.364336e+002
9.111577e+002, 1.376635e+002
9.116398e+002, 1.405080e+002
9.121219e+002, 1.421210e+002
9.126041e+002, 1.423410e+002
9.130862e+002, 1.422418e+002
9.135683e+002, 1.423300e+002
9.140504e+002, 1.424214e+002
9.145325e+002, 1.423144e+002
9.150146e+002, 1.419958e+002
9.154968e+002, 1.411439e+002
9.159789e+002, 1.397122e+002
9.164610e+002, 1.393933e+002
9.169431e+002, 1.409329e+002
9.174252e+002, 1.420837e+002
9.179073e+002, 1.406866e+002
9.183895e+002, 1.376961e+002
9.188716e+002, 1.366799e+002
9.193537e+002, 1.385929e+002
9.198358e+002, 1.400669e+002
9.203179e+002, 1.413861e+002
9.208000e+002, 1.418314e+002
9.212822e+002, 1.400617e+002
9.217643e+002, 1.379535e+002
9.222464e+002, 1.379726e+002
9.227285e+002, 1.400122e+002
9.232106e+002, 1.408635e+002
9.236927e+002, 1.388473e+002
9.241749e+002, 1.372680e+002
9.246570e+002, 1.373387e+002
9.251391e+002, 1.379314e+002
9.256212e+002, 1.384489e+002
9.261033e+002, 1.387036e+002
9.265854e+002, 1.383428e+002
9.270676e+002, 1.372387e+002
9.275497e+002, 1.364784e+002
9.280318e+002, 1.371803e+002
9.285139e+002, 1.382173e+002
9.289960e+002, 1.382392e+002
9.294781e+002, 1.378136e+002
9.299603e+002, 1.383627e+002
9.304424e+002, 1.398633e+002
9.309245e+002, 1.406869e+002
9.314066e+002, 1.396846e+002
9.318887e+002, 1.381364e+002
9.323708e+002, 1.383112e+002
9.328530e+002, 1.396981e+002
9.333351e+002, 1.399886e+002
9.338172e+002, 1.391408e+002
9.342993e+002, 1.388471e+002
9.347814e+002, 1.398156e+002
9.352635e+002, 1.406111e+002
9.357457e+002, 1.394696e+002
9.362278e+002, 1.369054e+002
9.367099e+002, 1.360319e+002
9.371920e+002, 1.371828e+002
9.376741e+002, 1.387408e+002
9.381563e+002, 1.411561e+002
9.386384e+002, 1.424821e+002
9.391205e+002, 1.409371e+002
9.396026e+002, 1.382320e+002
9.400847e+002, 1.375010e+002
9.405668e+002, 1.391434e+002
9.410490e+002, 1.404040e+002
9.415311e+002, 1.412164e+002
9.420132e+002, 1.417612e+002
9.424953e+002, 1.417816e+002
9.429774e+002, 1.418094e+002
9.434595e+002, 1.423073e+002
9.439417e+002, 1.431164e+002
9.444238e+002, 1.438057e+002
9.449059e+002, 1.443186e+002
9.453880e+002, 1.446120e+002
9.458701e+002, 1.449672e+002
9.463522e+002, 1.447890e+002
9.468344e+002, 1.427122e+002
9.473165e+002, 1.404005e+002
9.477986e+002, 1.404184e+002
9.482807e+002, 1.427122e+002
9.487628e+002, 1.449804e+002
9.492449e+002, 1.461140e+002
9.497271e+002, 1.464914e+002
9.502092e+002, 1.460767e+002
9.506913e+002, 1.453759e+002
9.511734e+002, 1.452692e+002
9.516555e+002, 1.456111e+002
9.521376e+002, 1.454972e+002
9.526198e+002, 1.447113e+002
9.531019e+002, 1.444568e+002
9.535840e+002, 1.460464e+002
9.540661e+002, 1.487929e+002
9.545482e+002, 1.511714e+002
9.550303e+002, 1.531972e+002
9.555124e+002, 1.549448e+002
9.559945e+002, 1.564340e+002
9.564766e+002, 1.577193e+002
9.569587e+002, 1.588114e+002
9.574409e+002, 1.598535e+002
9.579230e+002, 1.610311e+002
9.584051e+002, 1.623558e+002
9.588872e+002, 1.641328e+002
9.593693e+002, 1.666232e+002
9.598514e+002, 1.683542e+002
9.603336e+002, 1.685825e+002
9.608157e+002, 1.689679e+002
9.612978e+002, 1.708326e+002
9.617799e+002, 1.737128e+002
9.622620e+002, 1.763419e+002
9.627441e+002, 1.787486e+002
9.632263e+002, 1.807941e+002
9.637084e+002, 1.816726e+002
9.641905e+002, 1.832852e+002
9.646726e+002, 1.874538e+002
9.651547e+002, 1.914665e+002
9.656368e+002, 1.924891e+002
9.661190e+002, 1.911980e+002
9.666011e+002, 1.908521e+002
9.670832e+002, 1.917617e+002
9.675653e+002, 1.938109e+002
9.680474e+002, 1.983765e+002
9.685295e+002, 2.025662e+002
9.690117e+002, 2.041517e+002
9.694938e+002, 2.046714e+002
9.699759e+002, 2.065201e+002
9.704580e+002, 2.097377e+002
9.709401e+002, 2.119930e+002
9.714222e+002, 2.118382e+002
9.719044e+002, 2.111438e+002
9.723865e+002, 2.110946e+002
9.728686e+002, 2.110971e+002
9.733507e+002, 2.102070e+002
9.738328e+002, 2.089069e+002
9.743149e+002, 2.087755e+002
9.747971e+002, 2.100859e+002
9.752792e+002, 2.105280e+002
9.757613e+002, 2.076213e+002
9.762434e+002, 2.035725e+002
9.767255e+002, 2.014073e+002
9.772076e+002, 2.003341e+002
9.776898e+002, 1.986319e+002
9.781719e+002, 1.961860e+002
9.786540e+002, 1.938591e+002
9.791361e+002, 1.920459e+002
9.796182e+002, 1.900762e+002
9.801003e+002, 1.866800e+002
9.805825e+002, 1.825983e+002
9.810646e+002, 1.809873e+002
9.815467e+002, 1.814160e+002
9.820288e+002, 1.801258e+002
9.825109e+002, 1.763858e+002
9.829930e+002, 1.723301e+002
9.834752e+002, 1.693494e+002
9.839573e+002, 1.669134e+002
9.844394e+002, 1.637624e+002
9.849215e+002, 1.598833e+002
9.854036e+002, 1.582034e+002
9.858857e+002, 1.592660e+002
9.863679e+002, 1.592165e+002
9.868500e+002, 1.568006e+002
9.873321e+002, 1.537618e+002
9.878142e+002, 1.512964e+002
9.882963e+002, 1.494939e+002
9.887784e+002, 1.487532e+002
9.892606e+002, 1.495625e+002
9.897427e+002, 1.497011e+002
9.902248e+002, 1.489440e+002
9.907069e+002, 1.479346e+002
9.911890e+002, 1.467563e+002
9.916711e+002, 1.455116e+002
9.921533e+002, 1.439846e+002
9.926354e+002, 1.423958e+002
9.931175e+002, 1.421335e+002
9.935996e+002, 1.445726e+002
9.940817e+002, 1.458581e+002
9.945638e+002, 1.456692e+002
9.950460e+002, 1.446438e+002
9.955281e+002, 1.416953e+002
9.960102e+002, 1.389552e+002
9.964923e+002, 1.393868e+002
9.969744e+002, 1.425245e+002
9.974565e+002, 1.441477e+002
9.979387e+002, 1.420474e+002
9.984208e+002, 1.407475e+002
9.989029e+002, 1.423273e+002
9.993850e+002, 1.440568e+002
9.998671e+002, 1.440537e+002
1.000349e+003, 1.432005e+002
1.000831e+003, 1.427750e+002
1.001313e+003, 1.429749e+002
1.001796e+003, 1.434997e+002
1.002278e+003, 1.446727e+002
1.002760e+003, 1.454602e+002
1.003242e+003, 1.446142e+002
1.003724e+003, 1.437211e+002
1.004206e+003, 1.447577e+002
1.004688e+003, 1.467506e+002
1.005170e+003, 1.474422e+002
1.005653e+003, 1.464051e+002
1.006135e+003, 1.454801e+002
1.006617e+003, 1.462498e+002
1.007099e+003, 1.470418e+002
1.007581e+003, 1.456971e+002
1.008063e+003, 1.437587e+002
1.008545e+003, 1.433365e+002
1.009027e+003, 1.443730e+002
1.009509e+003, 1.462259e+002
1.009992e+003, 1.485670e+002
1.010474e+003, 1.506525e+002
1.010956e+003, 1.520490e+002
1.011438e+003, 1.525515e+002
1.011920e+003, 1.511162e+002
1.012402e+003, 1.487510e+002
1.012884e+003, 1.479594e+002
1.013366e+003, 1.487456e+002
1.013849e+003, 1.496694e+002
1.014331e+003, 1.500846e+002
1.014813e+003, 1.499241e+002
1.015295e+003, 1.488004e+002
1.015777e+003, 1.472940e+002
1.016259e+003, 1.468800e+002
1.016741e+003, 1.474115e+002
1.017223e+003, 1.485774e+002
1.017705e+003, 1.501790e+002
1.018188e+003, 1.505999e+002
1.018670e+003, 1.489404e+002
1.019152e+003, 1.469333e+002
1.019634e+003, 1.471905e+002
1.020116e+003, 1.491008e+002
1.020598e+003, 1.495269e+002
1.021080e+003, 1.485325e+002
1.021562e+003, 1.479101e+002
1.022044e+003, 1.479900e+002
1.022527e+003, 1.479921e+002
1.023009e+003, 1.474119e+002
1.023491e+003, 1.468033e+002
1.023973e+003, 1.472475e+002
1.024455e+003, 1.486128e+002
1.024937e+003, 1.484622e+002
1.025419e+003, 1.465503e+002
1.025901e+003, 1.452501e+002
1.026384e+003, 1.450855e+002
1.026866e+003, 1.451092e+002
1.027348e+003, 1.446180e+002
1.027830e+003, 1.442427e+002
1.028312e+003, 1.454243e+002
1.028794e+003, 1.483181e+002
1.029276e+003, 1.488618e+002
1.029758e+003, 1.463008e+002
1.030240e+003, 1.439444e+002
1.030723e+003, 1.421011e+002
1.031205e+003, 1.413779e+002
1.031687e+003, 1.426556e+002
1.032169e+003, 1.447898e+002
1.032651e+003, 1.454165e+002
1.033133e+003, 1.443446e+002
1.033615e+003, 1.433483e+002
1.034097e+003, 1.423808e+002
1.034579e+003, 1.415723e+002
1.035062e+003, 1.408328e+002
1.035544e+003, 1.404494e+002
1.036026e+003, 1.408894e+002
1.036508e+003, 1.416514e+002
1.036990e+003, 1.416124e+002
1.037472e+003, 1.405623e+002
1.037954e+003, 1.399102e+002
1.038436e+003, 1.404373e+002
1.038919e+003, 1.400921e+002
1.039401e+003, 1.375147e+002
1.039883e+003, 1.350745e+002
1.040365e+003, 1.343295e+002
1.040847e+003, 1.347799e+002
1.041329e+003, 1.354378e+002
1.041811e+003, 1.363402e+002
1.042293e+003, 1.372699e+002
1.042776e+003, 1.389623e+002
1.043258e+003, 1.396508e+002
1.043740e+003, 1.383096e+002
1.044222e+003, 1.365714e+002
1.044704e+003, 1.351635e+002
1.045186e+003, 1.342129e+002
1.045668e+003, 1.341366e+002
1.046150e+003, 1.351907e+002
1.046632e+003, 1.354567e+002
1.047115e+003, 1.337183e+002
1.047597e+003, 1.325695e+002
1.048079e+003, 1.329598e+002
1.048561e+003, 1.338356e+002
1.049043e+003, 1.347900e+002
1.049525e+003, 1.355832e+002
1.050007e+003, 1.359706e+002
1.050489e+003, 1.359598e+002
1.050971e+003, 1.350487e+002
1.051454e+003, 1.322536e+002
1.051936e+003, 1.297602e+002
1.052418e+003, 1.279568e+002
1.052900e+003, 1.269289e+002
1.053382e+003, 1.269400e+002
1.053864e+003, 1.276743e+002
1.054346e+003, 1.287863e+002
1.054828e+003, 1.302502e+002
1.055311e+003, 1.311036e+002
1.055793e+003, 1.306584e+002
1.056275e+003, 1.301534e+002
1.056757e+003, 1.300511e+002
1.057239e+003, 1.300046e+002
1.057721e+003, 1.298242e+002
1.058203e+003, 1.294801e+002
1.058685e+003, 1.288363e+002
1.059167e+003, 1.278927e+002
1.059650e+003, 1.273130e+002
1.060132e+003, 1.276997e+002
1.060614e+003, 1.279647e+002
1.061096e+003, 1.276068e+002
1.061578e+003, 1.270585e+002
1.062060e+003, 1.266093e+002
1.062542e+003, 1.262196e+002
1.063024e+003, 1.256931e+002
1.063506e+003, 1.250374e+002
1.063989e+003, 1.247213e+002
1.064471e+003, 1.251100e+002
1.064953e+003, 1.255889e+002
1.065435e+003, 1.260269e+002
1.065917e+003, 1.263387e+002
1.066399e+003, 1.265679e+002
1.066881e+003, 1.265717e+002
1.067363e+003, 1.259001e+002
1.067846e+003, 1.246456e+002
1.068328e+003, 1.239651e+002
1.068810e+003, 1.246499e+002
1.069292e+003, 1.253531e+002
1.069774e+003, 1.255628e+002
1.070256e+003, 1.254758e+002
1.070738e+003, 1.252443e+002
1.071220e+003, 1.248130e+002
1.071703e+003, 1.238150e+002
1.072185e+003, 1.224219e+002
1.072667e+003, 1.217682e+002
1.073149e+003, 1.226809e+002
1.073631e+003, 1.234376e+002
1.074113e+003, 1.231922e+002
1.074595e+003, 1.225479e+002
1.075077e+003, 1.213960e+002
1.075559e+003, 1.204542e+002
1.076042e+003, 1.208815e+002
1.076524e+003, 1.224653e+002
1.077006e+003, 1.237383e+002
1.077488e+003, 1.242676e+002
1.077970e+003, 1.242344e+002
1.078452e+003, 1.232530e+002
1.078934e+003, 1.222545e+002
1.079416e+003, 1.219046e+002
1.079898e+003, 1.218684e+002
1.080380e+003, 1.218129e+002
1.080863e+003, 1.216502e+002
1.081345e+003, 1.212404e+002
1.081827e+003, 1.204361e+002
1.082309e+003, 1.199199e+002
1.082791e+003, 1.202035e+002
1.083273e+003, 1.206264e+002
1.083755e+003, 1.207172e+002
1.084237e+003, 1.207886e+002
1.084720e+003, 1.216369e+002
1.085202e+003, 1.227023e+002
1.085684e+003, 1.222154e+002
1.086166e+003, 1.195042e+002
1.086648e+003, 1.174074e+002
1.087130e+003, 1.173812e+002
1.087612e+003, 1.179502e+002
1.088094e+003, 1.188771e+002
1.088577e+003, 1.195861e+002
1.089059e+003, 1.192049e+002
1.089541e+003, 1.183110e+002
1.090023e+003, 1.182785e+002
1.090505e+003, 1.193933e+002
1.090987e+003, 1.202460e+002
1.091469e+003, 1.201389e+002
1.091951e+003, 1.198967e+002
1.092433e+003, 1.199510e+002
1.092916e+003, 1.199335e+002
1.093398e+003, 1.193419e+002
1.093880e+003, 1.185698e+002
1.094362e+003, 1.184488e+002
1.094844e+003, 1.190178e+002
1.095326e+003, 1.191277e+002
1.095808e+003, 1.176990e+002
1.096290e+003, 1.168247e+002
1.096772e+003, 1.177317e+002
1.097255e+003, 1.188216e+002
1.097737e+003, 1.191573e+002
1.098219e+003, 1.190086e+002
1.098701e+003, 1.186345e+002
1.099183e+003, 1.181659e+002
1.099665e+003, 1.181040e+002
1.100147e+003, 1.188563e+002
1.100629e+003, 1.194055e+002
1.101112e+003, 1.195321e+002
1.101594e+003, 1.193427e+002
1.102076e+003, 1.187750e+002
1.102558e+003, 1.180030e+002
1.103040e+003, 1.169744e+002
1.103522e+003, 1.158943e+002
1.104004e+003, 1.154702e+002
1.104486e+003, 1.159898e+002
1.104969e+003, 1.165643e+002
1.105451e+003, 1.169990e+002
1.105933e+003, 1.175159e+002
1.106415e+003, 1.188891e+002
1.106897e+003, 1.197416e+002
1.107379e+003, 1.184050e+002
1.107861e+003, 1.158098e+002
1.108343e+003, 1.141573e+002
1.108825e+003, 1.135903e+002
1.109307e+003, 1.140549e+002
1.109790e+003, 1.170948e+002
1.110272e+003, 1.189596e+002
1.110754e+003, 1.180798e+002
1.111236e+003, 1.166822e+002
1.111718e+003, 1.158738e+002
1.112200e+003, 1.155143e+002
1.112682e+003, 1.152807e+002
1.113164e+003, 1.151457e+002
1.113647e+003, 1.156991e+002
1.114129e+003, 1.180815e+002
1.114611e+003, 1.192327e+002
1.115093e+003, 1.179765e+002
1.115575e+003, 1.167860e+002
1.116057e+003, 1.167677e+002
1.116539e+003, 1.172859e+002
1.117021e+003, 1.178041e+002
1.117504e+003, 1.182418e+002
1.117986e+003, 1.179659e+002
1.118468e+003, 1.165775e+002
1.118950e+003, 1.153663e+002
1.119432e+003, 1.139022e+002
1.119914e+003, 1.136071e+002
1.120396e+003, 1.156407e+002
1.120878e+003, 1.178110e+002
1.121360e+003, 1.181542e+002
1.121843e+003, 1.172667e+002
1.122325e+003, 1.169450e+002
1.122807e+003, 1.173778e+002
1.123289e+003, 1.171502e+002
1.123771e+003, 1.159615e+002
1.124253e+003, 1.151171e+002
1.124735e+003, 1.148664e+002
1.125217e+003, 1.151898e+002
1.125699e+003, 1.163338e+002
1.126182e+003, 1.174578e+002
1.126664e+003, 1.169080e+002
1.127146e+003, 1.148391e+002
1.127628e+003, 1.142220e+002
1.128110e+003, 1.152376e+002
1.128592e+003, 1.161194e+002
1.129074e+003, 1.166418e+002
1.129556e+003, 1.169714e+002
1.130039e+003, 1.171656e+002
1.130521e+003, 1.173566e+002
1.131003e+003, 1.178678e+002
1.131485e+003, 1.182287e+002
1.131967e+003, 1.161460e+002
1.132449e+003, 1.118720e+002
1.132931e+003, 1.101387e+002
1.133413e+003, 1.111567e+002
1.133896e+003, 1.127633e+002
1.134378e+003, 1.142922e+002
1.134860e+003, 1.150066e+002
1.135342e+003, 1.142193e+002
1.135824e+003, 1.128861e+002
1.136306e+003, 1.129368e+002
1.136788e+003, 1.139034e+002
1.137270e+003, 1.140002e+002
1.137752e+003, 1.133110e+002
1.138234e+003, 1.120577e+002
1.138717e+003, 1.104823e+002
1.139199e+003, 1.098384e+002
1.139681e+003, 1.107675e+002
1.140163e+003, 1.124550e+002
1.140645e+003, 1.147683e+002
1.141127e+003, 1.165094e+002
1.141609e+003, 1.143838e+002
1.142091e+003, 1.104362e+002
1.142574e+003, 1.093150e+002
1.143056e+003, 1.107921e+002
1.143538e+003, 1.123177e+002
1.144020e+003, 1.130676e+002
1.144502e+003, 1.137940e+002
1.144984e+003, 1.152375e+002
1.145466e+003, 1.163832e+002
1.145948e+003, 1.157425e+002
1.146431e+003, 1.145365e+002
1.146913e+003, 1.143666e+002
1.147395e+003, 1.147879e+002
1.147877e+003, 1.147744e+002
1.148359e+003, 1.142728e+002
1.148841e+003, 1.139673e+002
1.149323e+003, 1.141876e+002
1.149805e+003, 1.143699e+002
1.150287e+003, 1.137767e+002
1.150770e+003, 1.134538e+002
1.151252e+003, 1.149834e+002
1.151734e+003, 1.165137e+002
1.152216e+003, 1.154602e+002
1.152698e+003, 1.128846e+002
1.153180e+003, 1.116974e+002
1.153662e+003, 1.125015e+002
1.154144e+003, 1.130652e+002
1.154626e+003, 1.122013e+002
1.155109e+003, 1.116057e+002
1.155591e+003, 1.120833e+002
1.156073e+003, 1.127278e+002
1.156555e+003, 1.130826e+002
1.157037e+003, 1.132022e+002
1.157519e+003, 1.130390e+002
1.158001e+003, 1.126958e+002
1.158483e+003, 1.128147e+002
1.158966e+003, 1.137476e+002
1.159448e+003, 1.145175e+002
1.159930e+003, 1.155436e+002
1.160412e+003, 1.157177e+002
1.160894e+003, 1.137232e+002
1.161376e+003, 1.119474e+002
1.161858e+003, 1.125049e+002
1.162340e+003, 1.143261e+002
1.162822e+003, 1.150989e+002
1.163305e+003, 1.147472e+002
1.163787e+003, 1.141067e+002
1.164269e+003, 1.128377e+002
1.164751e+003, 1.123767e+002
1.165233e+003, 1.132573e+002
1.165715e+003, 1.138873e+002
1.166197e+003, 1.133507e+002
1.166679e+003, 1.127144e+002
1.167161e+003, 1.133961e+002
1.167644e+003, 1.148724e+002
1.168126e+003, 1.146881e+002
1.168608e+003, 1.127449e+002
1.169090e+003, 1.125017e+002
1.169572e+003, 1.141683e+002
1.170054e+003, 1.150219e+002
1.170536e+003, 1.143099e+002
1.171018e+003, 1.130803e+002
1.171500e+003, 1.119795e+002
1.171983e+003, 1.113046e+002
1.172465e+003, 1.119156e+002
1.172947e+003, 1.131965e+002
1.173429e+003, 1.126839e+002
1.173911e+003, 1.110137e+002
1.174393e+003, 1.108664e+002
1.174875e+003, 1.122068e+002
1.175357e+003, 1.128333e+002
1.175840e+003, 1.119872e+002
1.176322e+003, 1.112198e+002
1.176804e+003, 1.119050e+002
1.177286e+003, 1.130857e+002
1.177768e+003, 1.136597e+002
1.178250e+003, 1.139062e+002
1.178732e+003, 1.142781e+002
1.179214e+003, 1.146245e+002
1.179697e+003, 1.145078e+002
1.180179e+003, 1.139805e+002
1.180661e+003, 1.134772e+002
1.181143e+003, 1.131217e+002
1.181625e+003, 1.132558e+002
1.182107e+003, 1.144115e+002
1.182589e+003, 1.157341e+002
1.183071e+003, 1.173401e+002
1.183553e+003, 1.182373e+002
1.184036e+003, 1.168352e+002
1.184518e+003, 1.143099e+002
1.185000e+003, 1.128798e+002
1.185482e+003, 1.128331e+002
1.185964e+003, 1.129920e+002
1.186446e+003, 1.136444e+002
1.186928e+003, 1.135862e+002
1.187410e+003, 1.113464e+002
1.187892e+003, 1.099434e+002
1.188375e+003, 1.114064e+002
1.188857e+003, 1.136200e+002
1.189339e+003, 1.149117e+002
1.189821e+003, 1.153255e+002
1.190303e+003, 1.147942e+002
1.190785e+003, 1.129947e+002
1.191267e+003, 1.122059e+002
1.191749e+003, 1.127725e+002
1.192232e+003, 1.134185e+002
1.192714e+003, 1.140144e+002
1.193196e+003, 1.144731e+002
1.193678e+003, 1.147750e+002
1.194160e+003, 1.148265e+002
1.194642e+003, 1.144458e+002
1.195124e+003, 1.137977e+002
1.195606e+003, 1.138314e+002
1.196089e+003, 1.144694e+002
1.196571e+003, 1.128344e+002
1.197053e+003, 1.090202e+002
1.197535e+003, 1.077756e+002
1.198017e+003, 1.101699e+002
1.198499e+003, 1.130757e+002
1.198981e+003, 1.146011e+002
1.199463e+003, 1.150333e+002
1.199945e+003, 1.143111e+002
1.200427e+003, 1.130999e+002
1.200910e+003, 1.129431e+002
1.201392e+003, 1.132485e+002
1.201874e+003, 1.124086e+002
1.202356e+003, 1.108166e+002
1.202838e+003, 1.101801e+002
1.203320e+003, 1.108559e+002
1.203802e+003, 1.116496e+002
1.204284e+003, 1.118200e+002
1.204767e+003, 1.120460e+002
1.205249e+003, 1.129506e+002
1.205731e+003, 1.140030e+002
1.206213e+003, 1.151473e+002
1.206695e+003, 1.158840e+002
1.207177e+003, 1.150194e+002
1.207659e+003, 1.133998e+002
1.208141e+003, 1.136233e+002
1.208624e+003, 1.163686e+002
1.209106e+003, 1.178279e+002
1.209588e+003, 1.158644e+002
1.210070e+003, 1.143672e+002
1.210552e+003, 1.142709e+002
1.211034e+003, 1.146684e+002
1.211516e+003, 1.159829e+002
1.211998e+003, 1.167815e+002
1.212480e+003, 1.149134e+002
1.212963e+003, 1.114690e+002
1.213445e+003, 1.108332e+002
1.213927e+003, 1.138665e+002
1.214409e+003, 1.152926e+002
1.214891e+003, 1.147117e+002
1.215373e+003, 1.140611e+002
1.215855e+003, 1.136508e+002
1.216337e+003, 1.134041e+002
1.216819e+003, 1.132399e+002
1.217302e+003, 1.135030e+002
1.217784e+003, 1.148080e+002
1.218266e+003, 1.165547e+002
1.218748e+003, 1.167909e+002
1.219230e+003, 1.157671e+002
1.219712e+003, 1.143039e+002
1.220194e+003, 1.127439e+002
1.220676e+003, 1.128369e+002
1.221159e+003, 1.146438e+002
1.221641e+003, 1.157652e+002
1.222123e+003, 1.148793e+002
1.222605e+003, 1.137043e+002
1.223087e+003, 1.143770e+002
1.223569e+003, 1.152613e+002
1.224051e+003, 1.139846e+002
1.224533e+003, 1.121564e+002
1.225016e+003, 1.120660e+002
1.225498e+003, 1.130595e+002
1.225980e+003, 1.135307e+002
1.226462e+003, 1.132575e+002
1.226944e+003, 1.129543e+002
1.227426e+003, 1.126684e+002
1.227908e+003, 1.129595e+002
1.228390e+003, 1.151440e+002
1.228872e+003, 1.164635e+002
1.229354e+003, 1.147443e+002
1.229837e+003, 1.127065e+002
1.230319e+003, 1.128071e+002
1.230801e+003, 1.138901e+002
1.231283e+003, 1.135535e+002
1.231765e+003, 1.118800e+002
1.232247e+003, 1.118913e+002
1.232729e+003, 1.146300e+002
1.233211e+003, 1.156576e+002
1.233694e+003, 1.140805e+002
1.234176e+003, 1.134686e+002
1.234658e+003, 1.151498e+002
1.235140e+003, 1.169026e+002
1.235622e+003, 1.171340e+002
1.236104e+003, 1.164416e+002
1.236586e+003, 1.156962e+002
1.237068e+003, 1.149814e+002
1.237551e+003, 1.146268e+002
1.238033e+003, 1.146134e+002
1.238515e+003, 1.149451e+002
1.238997e+003, 1.155420e+002
1.239479e+003, 1.160844e+002
1.239961e+003, 1.164781e+002
1.240443e+003, 1.168556e+002
1.240925e+003, 1.173423e+002
1.241407e+003, 1.176158e+002
1.241890e+003, 1.175634e+002
1.242372e+003, 1.169452e+002
1.242854e+003, 1.145978e+002
1.243336e+003, 1.122713e+002
1.243818e+003, 1.123039e+002
1.244300e+003, 1.140231e+002
1.244782e+003, 1.160849e+002
1.245264e+003, 1.180833e+002
1.245746e+003, 1.183896e+002
1.246229e+003, 1.151567e+002
1.246711e+003, 1.128458e+002
1.247193e+003, 1.123614e+002
1.247675e+003, 1.127311e+002
1.248157e+003, 1.149131e+002
1.248639e+003, 1.162043e+002
1.249121e+003, 1.138963e+002
1.249603e+003, 1.102690e+002
1.250085e+003, 1.095428e+002
1.250568e+003, 1.115378e+002
1.251050e+003, 1.131716e+002
1.251532e+003, 1.144625e+002
1.252014e+003, 1.150787e+002
1.252496e+003, 1.149732e+002
1.252978e+003, 1.149487e+002
1.253460e+003, 1.152439e+002
1.253942e+003, 1.150811e+002
1.254425e+003, 1.138543e+002
1.254907e+003, 1.126812e+002
1.255389e+003, 1.135094e+002
1.255871e+003, 1.151731e+002
1.256353e+003, 1.155914e+002
1.256835e+003, 1.151470e+002
1.257317e+003, 1.139242e+002
1.257799e+003, 1.126552e+002
1.258281e+003, 1.131920e+002
1.258764e+003, 1.155322e+002
1.259246e+003, 1.173956e+002
1.259728e+003, 1.178517e+002
1.260210e+003, 1.175759e+002
1.260692e+003, 1.162083e+002
1.261174e+003, 1.150713e+002
1.261656e+003, 1.149811e+002
1.262138e+003, 1.151646e+002
1.262620e+003, 1.149357e+002
1.263103e+003, 1.146355e+002
1.263585e+003, 1.149822e+002
1.264067e+003, 1.158488e+002
1.264549e+003, 1.160832e+002
1.265031e+003, 1.153169e+002
1.265513e+003, 1.153164e+002
1.265995e+003, 1.164600e+002
1.266477e+003, 1.164599e+002
1.266960e+003, 1.145472e+002
1.267442e+003, 1.133835e+002
1.267924e+003, 1.145436e+002
1.268406e+003, 1.162821e+002
1.268888e+003, 1.165022e+002
1.269370e+003, 1.158455e+002
1.269852e+003, 1.156123e+002
1.270334e+003, 1.157743e+002
1.270817e+003, 1.164143e+002
1.271299e+003, 1.173469e+002
1.271781e+003, 1.181951e+002
1.272263e+003, 1.188361e+002
1.272745e+003, 1.192445e+002
1.273227e+003, 1.194090e+002
1.273709e+003, 1.189611e+002
1.274191e+003, 1.165413e+002
1.274673e+003, 1.150412e+002
1.275156e+003, 1.169474e+002
1.275638e+003, 1.190650e+002
1.276120e+003, 1.192884e+002
1.276602e+003, 1.185508e+002
1.277084e+003, 1.176396e+002
1.277566e+003, 1.168224e+002
1.278048e+003, 1.168281e+002
1.278530e+003, 1.177923e+002
1.279012e+003, 1.182919e+002
1.279495e+003, 1.181071e+002
1.279977e+003, 1.182531e+002
1.280459e+003, 1.188925e+002
1.280941e+003, 1.197013e+002
1.281423e+003, 1.206374e+002
1.281905e+003, 1.209275e+002
1.282387e+003, 1.198576e+002
1.282869e+003, 1.183795e+002
1.283352e+003, 1.179979e+002
1.283834e+003, 1.184716e+002
1.284316e+003, 1.192789e+002
1.284798e+003, 1.204265e+002
##END=



