##NAMES=Zinc
##RRUFFID=R070497
##IDEAL CHEMISTRY=Zn
##LOCALITY=Round Mountain area, Shasta County, California, USA
##OWNER=RRUFF
##SOURCE=James Shigley
##DESCRIPTION=Grey, metallic crystal with irregular, platy structure 
##STATUS=The identification of this mineral has been confirmed by X-ray diffraction.
##URL=rruff.info/R070497
152.0724, 255.8301
152.5545, 261.0524
153.0366, 265.7174
153.5188, 269.4681
154.0009, 271.5943
154.4830, 269.9605
154.9651, 268.2129
155.4472, 267.9913
155.9293, 270.4437
156.4115, 273.0408
156.8936, 276.1278
157.3757, 279.1935
157.8578, 280.5429
158.3399, 278.5891
158.8221, 275.3904
159.3042, 272.2671
159.7863, 269.0044
160.2684, 266.3810
160.7505, 264.7980
161.2326, 264.1621
161.7148, 263.8780
162.1969, 263.7547
162.6790, 263.8377
163.1611, 264.1697
163.6432, 265.1196
164.1253, 266.0416
164.6075, 266.3525
165.0896, 266.0230
165.5717, 266.1704
166.0538, 268.4522
166.5359, 271.4233
167.0180, 273.0318
167.5002, 269.8900
167.9823, 266.6634
168.4644, 267.1129
168.9465, 271.8120
169.4286, 278.1104
169.9107, 286.4889
170.3929, 295.1172
170.8750, 300.3509
171.3571, 297.8407
171.8392, 291.9991
172.3213, 287.3933
172.8034, 284.7368
173.2856, 282.9974
173.7677, 281.7270
174.2498, 280.7287
174.7319, 279.3554
175.2140, 276.5137
175.6961, 273.2078
176.1783, 270.7908
176.6604, 269.1696
177.1425, 269.1642
177.6246, 274.1424
178.1067, 283.0193
178.5888, 289.0574
179.0710, 283.4528
179.5531, 271.3535
180.0352, 264.6601
180.5173, 268.3965
180.9994, 276.6819
181.4815, 279.4852
181.9637, 276.9917
182.4458, 274.2364
182.9279, 276.3018
183.4100, 281.9156
183.8921, 286.2611
184.3742, 287.4622
184.8564, 286.7410
185.3385, 286.8649
185.8206, 287.8863
186.3027, 289.1296
186.7848, 290.6902
187.2669, 292.2889
187.7491, 291.8046
188.2312, 286.7996
188.7133, 279.0786
189.1954, 275.3470
189.6775, 275.9378
190.1596, 279.1857
190.6418, 284.8044
191.1239, 292.6376
191.6060, 297.6691
192.0881, 296.4712
192.5702, 289.8748
193.0523, 285.0318
193.5345, 282.0121
194.0166, 280.5744
194.4987, 280.7810
194.9808, 282.7184
195.4629, 285.0003
195.9451, 287.6691
196.4272, 290.7122
196.9093, 290.6591
197.3914, 286.2310
197.8735, 280.5463
198.3556, 280.3162
198.8378, 286.4206
199.3199, 292.3632
199.8020, 294.0439
200.2841, 291.0703
200.7662, 289.6897
201.2483, 290.8087
201.7305, 293.2107
202.2126, 293.2998
202.6947, 290.1668
203.1768, 288.1154
203.6589, 290.9851
204.1410, 299.9477
204.6232, 305.1904
205.1053, 305.2296
205.5874, 301.2663
206.0695, 296.6747
206.5516, 290.7405
207.0337, 286.0540
207.5159, 284.9742
207.9980, 288.4734
208.4801, 291.0477
208.9622, 291.9812
209.4443, 291.4794
209.9264, 290.5010
210.4086, 289.0095
210.8907, 287.1051
211.3728, 284.3210
211.8549, 279.5885
212.3370, 277.7874
212.8191, 280.7815
213.3013, 287.7227
213.7834, 291.6007
214.2655, 291.7437
214.7476, 289.8929
215.2297, 286.7392
215.7118, 280.4851
216.1940, 278.1680
216.6761, 282.8131
217.1582, 293.9106
217.6403, 298.7148
218.1224, 293.6692
218.6045, 287.0127
219.0867, 287.6946
219.5688, 300.4268
220.0509, 309.2357
220.5330, 309.7731
221.0151, 301.8488
221.4972, 295.0191
221.9794, 288.4592
222.4615, 283.8387
222.9436, 283.3556
223.4257, 289.2410
223.9078, 294.7212
224.3899, 298.1304
224.8721, 299.3509
225.3542, 301.1450
225.8363, 305.9265
226.3184, 309.0233
226.8005, 303.2591
227.2826, 280.5844
227.7648, 264.6953
228.2469, 263.5429
228.7290, 279.6599
229.2111, 290.5948
229.6932, 294.1713
230.1754, 294.2057
230.6575, 295.7570
231.1396, 300.0256
231.6217, 303.7201
232.1038, 306.4278
232.5859, 308.6384
233.0681, 306.7220
233.5502, 297.7252
234.0323, 286.7404
234.5144, 281.3530
234.9965, 284.5523
235.4786, 288.3843
235.9608, 290.2926
236.4429, 289.4863
236.9250, 290.4862
237.4071, 294.5409
237.8892, 299.6206
238.3713, 302.5287
238.8535, 302.7227
239.3356, 301.6014
239.8177, 298.9638
240.2998, 293.5806
240.7819, 291.4846
241.2640, 293.4209
241.7462, 298.1735
242.2283, 304.3335
242.7104, 314.9653
243.1925, 321.9031
243.6746, 321.3948
244.1567, 310.1638
244.6389, 302.8485
245.1210, 301.3477
245.6031, 302.6313
246.0852, 300.9737
246.5673, 293.6210
247.0494, 288.0340
247.5316, 287.2132
248.0137, 292.7456
248.4958, 297.9798
248.9779, 304.0101
249.4600, 309.0878
249.9421, 309.1134
250.4243, 300.4327
250.9064, 293.2693
251.3885, 292.1328
251.8706, 299.8766
252.3527, 303.9101
252.8348, 302.6535
253.3170, 298.6758
253.7991, 297.0534
254.2812, 299.2923
254.7633, 301.0133
255.2454, 300.0255
255.7275, 294.8122
256.2097, 292.6678
256.6918, 294.4341
257.1739, 298.7100
257.6560, 303.2714
258.1381, 308.8126
258.6202, 313.2283
259.1024, 315.9785
259.5845, 317.2751
260.0666, 315.6467
260.5487, 309.8355
261.0308, 302.0554
261.5129, 295.3304
261.9951, 288.2534
262.4772, 285.7943
262.9593, 291.4954
263.4414, 308.1262
263.9235, 319.9390
264.4056, 326.4507
264.8878, 328.6987
265.3699, 328.1466
265.8520, 323.9290
266.3341, 319.3819
266.8162, 316.2297
267.2983, 315.1505
267.7805, 310.4127
268.2626, 299.5302
268.7447, 287.8126
269.2268, 285.9263
269.7089, 296.9735
270.1910, 306.6952
270.6732, 308.7255
271.1553, 301.9963
271.6374, 297.8945
272.1195, 296.8164
272.6016, 297.7831
273.0837, 299.3695
273.5659, 301.5909
274.0480, 304.3741
274.5301, 307.9961
275.0122, 312.4937
275.4943, 316.6110
275.9764, 320.8381
276.4586, 323.7624
276.9407, 322.2260
277.4228, 315.6136
277.9049, 310.0682
278.3870, 308.5012
278.8691, 310.7090
279.3513, 311.8410
279.8334, 311.5683
280.3155, 311.0657
280.7976, 312.2794
281.2797, 315.2982
281.7619, 317.7447
282.2440, 318.9618
282.7261, 318.9178
283.2082, 316.5498
283.6903, 311.1209
284.1725, 306.0818
284.6546, 307.2845
285.1367, 314.4021
285.6188, 318.9312
286.1009, 315.7173
286.5830, 307.2712
287.0652, 305.3911
287.5473, 310.9463
288.0294, 317.9731
288.5115, 319.5321
288.9936, 316.2368
289.4757, 313.0596
289.9579, 310.9291
290.4400, 310.2720
290.9221, 313.3040
291.4042, 320.3368
291.8863, 327.1696
292.3684, 330.2119
292.8506, 329.6039
293.3327, 325.7472
293.8148, 315.9574
294.2969, 304.5905
294.7790, 300.9798
295.2611, 305.1389
295.7433, 310.9255
296.2254, 312.7614
296.7075, 311.9870
297.1896, 312.4908
297.6717, 316.8323
298.1538, 321.8033
298.6360, 321.6198
299.1181, 316.6894
299.6002, 311.8559
300.0823, 311.1141
300.5644, 313.0408
301.0465, 314.8590
301.5287, 315.3845
302.0108, 316.0786
302.4929, 319.5845
302.9750, 325.2967
303.4571, 329.5471
303.9392, 329.3591
304.4214, 326.4098
304.9035, 322.6550
305.3856, 317.7447
305.8677, 313.5974
306.3498, 312.2845
306.8319, 313.3138
307.3141, 314.9442
307.7962, 316.1359
308.2783, 317.4247
308.7604, 319.7435
309.2425, 324.2828
309.7246, 327.5471
310.2068, 326.3999
310.6889, 322.1163
311.1710, 318.0138
311.6531, 315.5014
312.1352, 313.8940
312.6173, 312.6553
313.0995, 311.5454
313.5816, 311.2907
314.0637, 312.5234
314.5458, 314.8344
315.0279, 317.4542
315.5100, 321.8216
315.9922, 325.1143
316.4743, 325.0073
316.9564, 319.9939
317.4385, 316.7402
317.9206, 318.6375
318.4027, 323.3398
318.8849, 327.5681
319.3670, 332.6492
319.8491, 335.1686
320.3312, 332.5148
320.8133, 323.2305
321.2954, 316.5858
321.7776, 315.9481
322.2597, 318.1692
322.7418, 319.8936
323.2239, 320.4614
323.7060, 320.6679
324.1881, 320.6274
324.6703, 320.3322
325.1524, 319.9593
325.6345, 318.9626
326.1166, 318.1934
326.5987, 318.3381
327.0808, 320.5810
327.5630, 322.3549
328.0451, 323.5592
328.5272, 324.1700
329.0093, 323.5031
329.4914, 319.4753
329.9735, 316.0686
330.4557, 316.0317
330.9378, 321.5113
331.4199, 326.7318
331.9020, 331.8288
332.3841, 336.4404
332.8662, 338.6935
333.3484, 337.8929
333.8305, 335.7540
334.3126, 332.5779
334.7947, 326.9976
335.2768, 325.0722
335.7589, 328.7690
336.2411, 335.3673
336.7232, 337.8752
337.2053, 335.2739
337.6874, 331.4924
338.1695, 328.0518
338.6516, 324.9409
339.1338, 322.3564
339.6159, 320.0290
340.0980, 318.7023
340.5801, 320.6328
341.0622, 326.3615
341.5443, 330.4870
342.0265, 329.5721
342.5086, 324.4169
342.9907, 322.9133
343.4728, 325.6411
343.9549, 329.8007
344.4370, 332.3600
344.9192, 333.3638
345.4013, 333.2471
345.8834, 331.8961
346.3655, 329.5986
346.8476, 326.2086
347.3297, 321.6274
347.8119, 318.9175
348.2940, 323.4933
348.7761, 332.6389
349.2582, 337.9984
349.7403, 336.0696
350.2224, 330.5797
350.7046, 325.8656
351.1867, 321.9707
351.6688, 319.5640
352.1509, 320.4613
352.6331, 322.8009
353.1152, 323.3707
353.5973, 320.0658
354.0794, 317.4558
354.5615, 321.5120
355.0436, 330.0262
355.5258, 336.2788
356.0079, 334.4051
356.4900, 329.8585
356.9721, 327.3751
357.4542, 328.0550
357.9363, 329.5319
358.4185, 330.7816
358.9006, 331.8993
359.3827, 333.0503
359.8648, 335.4500
360.3469, 336.9871
360.8290, 335.7201
361.3112, 330.8625
361.7933, 327.8600
362.2754, 330.3502
362.7575, 334.8458
363.2396, 337.5674
363.7217, 336.4463
364.2039, 334.6510
364.6860, 331.9804
365.1681, 328.4398
365.6502, 327.7704
366.1323, 334.3347
366.6144, 341.5085
367.0966, 344.7155
367.5787, 339.9149
368.0608, 335.8795
368.5429, 333.2550
369.0250, 331.8480
369.5071, 330.7175
369.9893, 329.7966
370.4714, 329.2296
370.9535, 328.9739
371.4356, 328.4843
371.9177, 329.8022
372.3998, 334.3400
372.8820, 340.0025
373.3641, 341.5365
373.8462, 337.0970
374.3283, 333.3466
374.8104, 333.7175
375.2925, 338.8252
375.7747, 340.3598
376.2568, 337.2825
376.7389, 332.7183
377.2210, 331.4130
377.7031, 333.6778
378.1852, 334.5935
378.6674, 331.6823
379.1495, 326.2683
379.6316, 323.9784
380.1137, 324.9767
380.5958, 327.7884
381.0779, 332.1459
381.5601, 337.5525
382.0422, 341.0729
382.5243, 341.4885
383.0064, 340.5479
383.4885, 341.9323
383.9706, 345.1740
384.4528, 346.7366
384.9349, 343.1117
385.4170, 336.5215
385.8991, 329.9553
386.3812, 323.0968
386.8633, 318.6000
387.3455, 320.2981
387.8276, 326.2871
388.3097, 332.2631
388.7918, 337.2988
389.2739, 340.5954
389.7560, 340.5217
390.2382, 336.5888
390.7203, 333.7353
391.2024, 335.7283
391.6845, 339.8865
392.1666, 343.1505
392.6487, 343.6882
393.1309, 343.8960
393.6130, 344.6129
394.0951, 345.8295
394.5772, 347.1719
395.0593, 349.8456
395.5414, 351.7960
396.0236, 351.7035
396.5057, 347.3000
396.9878, 343.3153
397.4699, 339.8105
397.9520, 336.9990
398.4341, 335.6051
398.9163, 337.3512
399.3984, 338.7247
399.8805, 338.2382
400.3626, 334.8208
400.8447, 332.6953
401.3268, 331.9120
401.8090, 332.3889
402.2911, 334.5611
402.7732, 339.8706
403.2553, 342.8887
403.7374, 341.0016
404.2195, 334.6722
404.7017, 333.0399
405.1838, 337.5082
405.6659, 342.8951
406.1480, 344.1547
406.6301, 341.2319
407.1122, 338.5922
407.5944, 336.8387
408.0765, 336.0305
408.5586, 337.2043
409.0407, 340.3071
409.5228, 342.1123
410.0049, 338.2564
410.4871, 331.3969
410.9692, 329.3882
411.4513, 333.6063
411.9334, 340.3585
412.4155, 348.1611
412.8976, 355.5572
413.3798, 358.2001
413.8619, 349.1509
414.3440, 337.3341
414.8261, 332.2003
415.3082, 333.9501
415.7903, 337.6574
416.2725, 340.5012
416.7546, 343.3584
417.2367, 347.4077
417.7188, 356.0526
418.2009, 362.5030
418.6830, 362.3507
419.1652, 357.0542
419.6473, 351.9653
420.1294, 348.3714
420.6115, 345.7961
421.0936, 343.9235
421.5757, 342.6626
422.0579, 342.3154
422.5400, 342.8022
423.0221, 344.2426
423.5042, 346.8878
423.9864, 352.5840
424.4685, 357.3930
424.9506, 360.6062
425.4327, 362.1681
425.9148, 362.2278
426.3969, 360.4723
426.8791, 357.5765
427.3612, 353.4643
427.8433, 346.6246
428.3254, 343.7289
428.8075, 347.3477
429.2896, 354.9303
429.7718, 357.4626
430.2539, 354.2918
430.7360, 349.6815
431.2181, 344.6137
431.7002, 339.4212
432.1823, 340.1241
432.6645, 348.2899
433.1466, 358.1397
433.6287, 361.1154
434.1108, 358.4106
434.5929, 355.9152
435.0750, 356.4997
435.5572, 358.6235
436.0393, 359.9787
436.5214, 360.5491
437.0035, 359.9952
437.4856, 356.9042
437.9677, 352.8660
438.4499, 350.0099
438.9320, 348.6226
439.4141, 348.9757
439.8962, 352.8526
440.3783, 358.7650
440.8604, 362.9897
441.3426, 362.6191
441.8247, 360.9951
442.3068, 360.4501
442.7889, 361.9486
443.2710, 361.0778
443.7531, 353.3223
444.2353, 343.9079
444.7174, 338.4800
445.1995, 339.7307
445.6816, 343.0464
446.1637, 349.5480
446.6458, 358.5650
447.1280, 363.2665
447.6101, 361.0646
448.0922, 357.3912
448.5743, 355.1301
449.0564, 354.5975
449.5385, 354.3940
450.0207, 353.7697
450.5028, 354.0910
450.9849, 359.6612
451.4670, 372.3086
451.9491, 380.5491
452.4312, 378.0007
452.9134, 366.4033
453.3955, 359.2069
453.8776, 356.6441
454.3597, 356.8784
454.8418, 359.9585
455.3239, 364.8380
455.8061, 366.5413
456.2882, 362.3490
456.7703, 357.0224
457.2524, 358.4939
457.7345, 365.1968
458.2166, 370.7776
458.6988, 370.3367
459.1809, 367.3139
459.6630, 365.9360
460.1451, 367.0771
460.6272, 366.4428
461.1093, 358.0486
461.5915, 347.3042
462.0736, 341.1186
462.5557, 344.6214
463.0378, 350.2586
463.5199, 357.0862
464.0020, 364.4666
464.4842, 368.3914
464.9663, 365.0706
465.4484, 360.2027
465.9305, 356.7276
466.4126, 355.1838
466.8947, 354.2528
467.3769, 354.2711
467.8590, 354.7553
468.3411, 354.7013
468.8232, 353.0114
469.3053, 353.1390
469.7874, 357.0230
470.2696, 364.2798
470.7517, 367.4404
471.2338, 365.7226
471.7159, 362.3206
472.1980, 359.8514
472.6801, 358.2768
473.1623, 355.8913
473.6444, 351.5774
474.1265, 348.0243
474.6086, 351.9163
475.0907, 361.9289
475.5728, 369.4952
476.0550, 367.5716
476.5371, 361.1830
477.0192, 358.3519
477.5013, 359.3502
477.9834, 361.8759
478.4655, 366.4769
478.9477, 370.8243
479.4298, 371.5547
479.9119, 363.7818
480.3940, 357.1036
480.8761, 357.3098
481.3582, 362.6783
481.8404, 368.2984
482.3225, 375.9131
482.8046, 380.6557
483.2867, 379.4515
483.7688, 369.8260
484.2509, 361.9625
484.7331, 355.0308
485.2152, 351.1661
485.6973, 353.0564
486.1794, 367.7232
486.6615, 375.8246
487.1436, 372.2639
487.6258, 359.9979
488.1079, 352.8764
488.5900, 351.6318
489.0721, 353.6847
489.5542, 358.9165
490.0363, 367.3985
490.5185, 373.5856
491.0006, 377.5754
491.4827, 378.2913
491.9648, 371.6110
492.4469, 359.2166
492.9290, 350.5456
493.4112, 350.0792
493.8933, 354.1518
494.3754, 357.7279
494.8575, 360.9590
495.3397, 364.5789
495.8218, 371.9098
496.3039, 378.5673
496.7860, 378.4531
497.2681, 368.5861
497.7502, 360.3318
498.2324, 361.2403
498.7145, 366.9349
499.1966, 371.4848
499.6787, 373.3260
500.1608, 373.5519
500.6429, 371.5587
501.1251, 367.5838
501.6072, 365.0827
502.0893, 365.3267
502.5714, 366.1440
503.0535, 366.4615
503.5356, 365.6531
504.0178, 365.8810
504.4999, 367.4637
504.9820, 369.7969
505.4641, 371.8806
505.9462, 373.5164
506.4283, 376.1174
506.9105, 381.2213
507.3926, 387.3241
507.8747, 387.4357
508.3568, 381.2536
508.8389, 374.5307
509.3210, 372.2006
509.8032, 372.5643
510.2853, 370.0420
510.7674, 363.0026
511.2495, 357.0916
511.7316, 359.8547
512.2137, 367.9525
512.6959, 374.5333
513.1780, 375.3249
513.6601, 374.8795
514.1422, 376.3126
514.6243, 379.3194
515.1064, 381.5888
515.5886, 382.4995
516.0707, 382.1937
516.5528, 380.4431
517.0349, 375.5898
517.5170, 372.6826
517.9991, 373.9803
518.4813, 376.8059
518.9634, 377.6747
519.4455, 374.8066
519.9276, 373.0635
520.4097, 373.6949
520.8918, 376.3265
521.3740, 378.8559
521.8561, 381.5714
522.3382, 383.2292
522.8203, 381.7561
523.3024, 377.5306
523.7845, 378.0562
524.2667, 384.9694
524.7488, 391.9626
525.2309, 390.0137
525.7130, 381.4268
526.1951, 374.2401
526.6772, 371.3322
527.1594, 371.0148
527.6415, 372.4345
528.1236, 375.1112
528.6057, 376.9594
529.0878, 376.5851
529.5699, 375.0387
530.0521, 372.6353
530.5342, 368.8778
531.0163, 366.6537
531.4984, 367.9894
531.9805, 370.8312
532.4626, 372.9957
532.9448, 374.8631
533.4269, 375.1449
533.9090, 372.2741
534.3911, 367.5573
534.8732, 366.4127
535.3553, 370.4708
535.8375, 375.0764
536.3196, 378.4663
536.8017, 380.6947
537.2838, 381.3250
537.7659, 380.0848
538.2480, 378.1591
538.7302, 376.1156
539.2123, 374.2003
539.6944, 374.6049
540.1765, 378.7446
540.6586, 383.6751
541.1407, 384.7228
541.6229, 382.9052
542.1050, 381.9014
542.5871, 385.1270
543.0692, 389.1086
543.5513, 390.6248
544.0334, 389.5027
544.5156, 387.7823
544.9977, 385.6771
545.4798, 383.7902
545.9619, 382.6615
546.4440, 383.1398
546.9261, 383.2635
547.4083, 381.5611
547.8904, 379.5913
548.3725, 380.3517
548.8546, 386.1922
549.3367, 390.9019
549.8188, 392.8044
550.3010, 392.1146
550.7831, 391.3242
551.2652, 390.5064
551.7473, 389.3372
552.2294, 386.6993
552.7115, 382.9705
553.1937, 382.9883
553.6758, 387.9834
554.1579, 393.2001
554.6400, 390.8102
555.1221, 383.6490
555.6042, 380.0109
556.0864, 385.4090
556.5685, 392.9675
557.0506, 396.9809
557.5327, 397.7583
558.0148, 396.3256
558.4969, 389.4524
558.9791, 383.3260
559.4612, 382.9813
559.9433, 390.6719
560.4254, 394.9905
560.9075, 390.3661
561.3896, 383.4392
561.8718, 380.1040
562.3539, 383.0543
562.8360, 384.9203
563.3181, 384.2918
563.8002, 382.6552
564.2823, 384.2117
564.7645, 389.9243
565.2466, 394.3960
565.7287, 394.8711
566.2108, 392.2958
566.6929, 391.6978
567.1750, 393.1934
567.6572, 394.1365
568.1393, 390.7825
568.6214, 385.5282
569.1035, 383.6657
569.5856, 386.6242
570.0677, 390.4560
570.5499, 392.5339
571.0320, 393.2094
571.5141, 393.0642
571.9962, 390.3729
572.4783, 388.8286
572.9604, 392.1825
573.4426, 398.8292
573.9247, 400.5385
574.4068, 387.1476
574.8889, 376.7689
575.3710, 378.2905
575.8531, 395.6779
576.3353, 403.4482
576.8174, 397.9661
577.2995, 388.1456
577.7816, 382.1345
578.2637, 380.2789
578.7458, 378.6590
579.2280, 376.1797
579.7101, 374.6670
580.1922, 378.7601
580.6743, 387.4204
581.1564, 394.7828
581.6385, 398.0402
582.1207, 398.5266
582.6028, 396.9228
583.0849, 393.5589
583.5670, 390.8951
584.0491, 390.6053
584.5313, 391.4594
585.0134, 392.9546
585.4955, 395.8245
585.9776, 396.6459
586.4597, 392.2806
586.9418, 386.3541
587.4240, 383.1136
587.9061, 385.3231
588.3882, 385.9388
588.8703, 383.1382
589.3524, 378.5538
589.8345, 377.4830
590.3167, 380.9791
590.7988, 383.9424
591.2809, 383.9637
591.7630, 381.5816
592.2451, 378.6533
592.7272, 375.0715
593.2094, 373.5684
593.6915, 378.1551
594.1736, 386.0861
594.6557, 392.4384
595.1378, 396.4255
595.6199, 398.2459
596.1021, 396.9790
596.5842, 393.8804
597.0663, 390.7273
597.5484, 386.3950
598.0305, 383.9636
598.5126, 386.0336
598.9948, 391.2682
599.4769, 393.8383
599.9590, 391.4803
600.4412, 388.7938
600.9233, 387.2649
601.4054, 386.9699
601.8875, 386.5082
602.3696, 385.8663
602.8517, 385.0964
603.3339, 384.2153
603.8160, 383.2290
604.2981, 382.0457
604.7802, 380.3855
605.2623, 379.5248
605.7444, 382.1852
606.2266, 387.0723
606.7087, 390.6576
607.1908, 392.4013
607.6729, 391.6509
608.1550, 386.0822
608.6371, 377.2874
609.1193, 370.2487
609.6014, 364.8517
610.0835, 363.5774
610.5656, 369.8701
611.0477, 385.5755
611.5298, 395.2792
612.0120, 395.8416
612.4941, 392.9077
612.9762, 389.4869
613.4583, 384.6192
613.9404, 383.3425
614.4225, 387.3164
614.9047, 392.3702
615.3868, 391.6083
615.8689, 385.5454
616.3510, 381.1214
616.8331, 380.7102
617.3152, 382.5101
617.7974, 384.1553
618.2795, 385.6908
618.7616, 387.3724
619.2437, 390.8698
619.7258, 393.4214
620.2079, 392.0607
620.6901, 386.7019
621.1722, 382.4756
621.6543, 381.9946
622.1364, 382.6375
622.6185, 382.8049
623.1006, 382.5053
623.5828, 381.2450
624.0649, 377.2274
624.5470, 373.8981
625.0291, 376.2596
625.5112, 385.7147
625.9933, 393.4486
626.4755, 397.9175
626.9576, 399.6622
627.4397, 398.7357
627.9218, 395.5121
628.4039, 392.8477
628.8860, 392.5362
629.3682, 393.3900
629.8503, 393.4801
630.3324, 393.0275
630.8145, 393.7691
631.2966, 400.0839
631.7787, 405.5995
632.2609, 404.2933
632.7430, 392.4308
633.2251, 385.5793
633.7072, 393.2787
634.1893, 403.2303
634.6714, 404.4693
635.1536, 389.4867
635.6357, 383.1122
636.1178, 390.4611
636.5999, 403.7568
637.0820, 408.0115
637.5641, 402.7966
638.0463, 398.4894
638.5284, 399.0738
639.0105, 402.0619
639.4926, 403.3247
639.9747, 402.7657
640.4568, 399.8780
640.9390, 390.0432
641.4211, 380.5207
641.9032, 379.9656
642.3853, 388.9525
642.8674, 395.2928
643.3495, 390.7064
643.8317, 384.0502
644.3138, 381.4498
644.7959, 385.5768
645.2780, 390.3032
645.7601, 397.2811
646.2422, 403.4023
646.7244, 404.2513
647.2065, 398.4952
647.6886, 394.6627
648.1707, 395.1823
648.6528, 397.0716
649.1349, 392.9878
649.6171, 383.9556
650.0992, 377.0919
650.5813, 376.2406
651.0634, 379.0439
651.5455, 384.2660
652.0276, 391.2470
652.5098, 396.1826
652.9919, 395.6210
653.4740, 393.5003
653.9561, 392.2000
654.4382, 392.1249
654.9203, 391.8450
655.4025, 391.8299
655.8846, 391.0335
656.3667, 388.1779
656.8488, 381.2144
657.3309, 378.5240
657.8130, 380.9432
658.2952, 386.6359
658.7773, 395.2514
659.2594, 406.2159
659.7415, 411.0852
660.2236, 405.3351
660.7057, 396.3765
661.1879, 395.9205
661.6700, 401.1194
662.1521, 404.0392
662.6342, 398.3495
663.1163, 391.2990
663.5984, 386.7341
664.0806, 384.6958
664.5627, 384.3750
665.0448, 385.8215
665.5269, 388.8198
666.0090, 393.9179
666.4911, 401.7232
666.9733, 406.8419
667.4554, 409.1466
667.9375, 409.0153
668.4196, 405.3015
668.9017, 398.2179
669.3839, 395.3756
669.8660, 398.0789
670.3481, 402.0993
670.8302, 402.7420
671.3123, 400.9748
671.7944, 398.7823
672.2766, 396.3457
672.7587, 394.3787
673.2408, 394.0441
673.7229, 394.4258
674.2050, 393.7242
674.6871, 388.4247
675.1693, 385.2826
675.6514, 387.5929
676.1335, 393.9860
676.6156, 397.2366
677.0977, 396.3138
677.5798, 394.5236
678.0620, 392.5581
678.5441, 390.6972
679.0262, 392.3321
679.5083, 397.6403
679.9904, 403.7734
680.4725, 410.8671
680.9547, 416.5259
681.4368, 414.6728
681.9189, 403.6507
682.4010, 394.4921
682.8831, 397.3408
683.3652, 404.5503
683.8474, 408.3787
684.3295, 405.0107
684.8116, 401.5254
685.2937, 399.1747
685.7758, 397.1432
686.2579, 394.1893
686.7401, 389.4248
687.2222, 386.1786
687.7043, 385.0848
688.1864, 385.8466
688.6685, 387.7700
689.1506, 390.8685
689.6328, 395.4320
690.1149, 403.8215
690.5970, 412.3472
691.0791, 414.0596
691.5612, 410.3097
692.0433, 407.9354
692.5255, 413.4444
693.0076, 419.2121
693.4897, 419.8400
693.9718, 414.4353
694.4539, 410.0266
694.9360, 408.1840
695.4182, 407.0121
695.9003, 405.3746
696.3824, 402.8711
696.8645, 402.0226
697.3466, 403.4289
697.8287, 404.9158
698.3109, 403.1634
698.7930, 399.0858
699.2751, 398.0052
699.7572, 401.5135
700.2393, 405.7364
700.7214, 406.4215
701.2036, 405.0901
701.6857, 404.2616
702.1678, 404.3943
702.6499, 405.6939
703.1320, 410.2049
703.6141, 415.9003
704.0963, 417.4844
704.5784, 411.2551
705.0605, 406.3542
705.5426, 405.1304
706.0247, 406.6881
706.5068, 407.4150
706.9890, 407.4078
707.4711, 405.8162
707.9532, 401.0612
708.4353, 394.6490
708.9174, 389.8002
709.3995, 386.6246
709.8817, 386.5579
710.3638, 393.7476
710.8459, 402.4445
711.3280, 407.8437
711.8101, 409.4005
712.2922, 408.2870
712.7744, 400.4174
713.2565, 393.2840
713.7386, 392.0102
714.2207, 399.2814
714.7028, 405.5831
715.1849, 410.8620
715.6671, 415.3669
716.1492, 420.1667
716.6313, 424.9817
717.1134, 426.9887
717.5955, 425.7490
718.0776, 421.3620
718.5598, 409.7031
719.0419, 395.5562
719.5240, 388.3608
720.0061, 396.3206
720.4882, 405.9649
720.9703, 412.4479
721.4525, 416.0605
721.9346, 417.5230
722.4167, 417.2374
722.8988, 414.1229
723.3809, 405.6374
723.8630, 394.3921
724.3452, 392.5093
724.8273, 401.5192
725.3094, 408.7862
725.7915, 405.6920
726.2736, 397.5372
726.7557, 399.9140
727.2379, 411.4240
727.7200, 421.0568
728.2021, 420.5685
728.6842, 415.9740
729.1663, 411.5722
729.6484, 407.7439
730.1306, 404.4942
730.6127, 401.1549
731.0948, 399.0211
731.5769, 399.1173
732.0590, 402.4695
732.5411, 403.6406
733.0233, 402.1762
733.5054, 399.5507
733.9875, 395.1995
734.4696, 390.0603
734.9517, 392.4605
735.4338, 404.3463
735.9160, 417.5648
736.3981, 425.2527
736.8802, 428.4788
737.3623, 428.3502
737.8444, 422.8226
738.3265, 418.5420
738.8087, 420.8682
739.2908, 424.9721
739.7729, 423.5261
740.2551, 412.1133
740.7372, 402.7496
741.2193, 396.7681
741.7014, 393.5768
742.1835, 392.0917
742.6656, 392.3295
743.1478, 394.2087
743.6299, 398.4806
744.1120, 403.4121
744.5941, 405.5115
745.0762, 405.8323
745.5583, 407.7202
746.0405, 417.0823
746.5226, 424.4753
747.0047, 422.9427
747.4868, 414.0621
747.9689, 407.4353
748.4510, 406.3111
748.9332, 404.7685
749.4153, 399.3638
749.8974, 391.0736
750.3795, 393.3881
750.8616, 407.9686
751.3438, 420.1939
751.8259, 417.5641
752.3080, 406.4395
752.7901, 402.0826
753.2722, 404.6107
753.7543, 408.4735
754.2365, 410.1322
754.7186, 411.4821
755.2007, 414.3999
755.6828, 419.6337
756.1649, 423.3023
756.6470, 425.2099
757.1292, 425.0024
757.6113, 421.7689
758.0934, 414.2115
758.5755, 409.8487
759.0576, 409.3169
759.5397, 409.7331
760.0219, 408.7746
760.5040, 406.3098
760.9861, 400.2910
761.4682, 389.0488
761.9503, 382.0858
762.4324, 390.9052
762.9146, 406.5626
763.3967, 418.8096
763.8788, 426.7523
764.3609, 428.4952
764.8430, 416.5828
765.3251, 402.3201
765.8073, 399.7763
766.2894, 413.2459
766.7715, 421.3487
767.2536, 420.3959
767.7357, 414.2221
768.2178, 406.4288
768.7000, 398.3415
769.1821, 395.9957
769.6642, 403.7860
770.1463, 413.9357
770.6284, 422.5471
771.1105, 428.3206
771.5927, 428.7444
772.0748, 415.4018
772.5569, 405.5092
773.0390, 404.8577
773.5211, 410.0724
774.0032, 412.7025
774.4854, 411.8755
774.9675, 411.9214
775.4496, 414.9317
775.9317, 418.9440
776.4138, 418.9758
776.8959, 415.4317
777.3781, 410.5108
777.8602, 400.3718
778.3423, 393.3800
778.8244, 400.5273
779.3065, 418.0097
779.7886, 429.6009
780.2708, 426.7671
780.7529, 420.8015
781.2350, 414.6784
781.7171, 408.5553
782.1992, 403.6489
782.6813, 399.7058
783.1635, 398.1642
783.6456, 400.4270
784.1277, 405.5668
784.6098, 411.5250
785.0919, 418.0521
785.5740, 422.9611
786.0562, 424.2799
786.5383, 423.8445
787.0204, 422.9680
787.5025, 421.7482
787.9846, 420.1893
788.4667, 418.6752
788.9489, 416.3993
789.4310, 412.4851
789.9131, 406.7542
790.3952, 403.3766
790.8773, 402.5451
791.3594, 403.2958
791.8416, 405.8535
792.3237, 409.3326
792.8058, 410.8440
793.2879, 410.3079
793.7700, 410.5913
794.2521, 414.8457
794.7343, 419.9856
795.2164, 423.2364
795.6985, 423.7381
796.1806, 425.1125
796.6627, 430.4654
797.1448, 433.8712
797.6270, 430.0361
798.1091, 417.3013
798.5912, 411.6016
799.0733, 413.9574
799.5554, 418.1611
800.0375, 417.6703
800.5197, 414.8394
801.0018, 414.9257
801.4839, 419.1592
801.9660, 421.7549
802.4481, 419.0469
802.9302, 413.2643
803.4124, 405.5010
803.8945, 391.5165
804.3766, 386.2733
804.8587, 393.5341
805.3408, 404.5800
805.8229, 412.5328
806.3051, 417.3869
806.7872, 417.0921
807.2693, 410.6012
807.7514, 404.2938
808.2335, 406.1511
808.7156, 411.9580
809.1978, 415.0352
809.6799, 413.0056
810.1620, 411.5562
810.6441, 414.5334
811.1262, 418.3622
811.6083, 419.2653
812.0905, 414.5573
812.5726, 413.1342
813.0547, 415.9279
813.5368, 420.5656
814.0189, 425.4873
814.5010, 430.1795
814.9832, 431.1245
815.4653, 427.2159
815.9474, 422.1192
816.4295, 417.3342
816.9116, 414.1202
817.3937, 414.4289
817.8759, 421.4098
818.3580, 426.6527
818.8401, 427.0767
819.3222, 425.8756
819.8043, 426.1761
820.2864, 428.6401
820.7686, 429.4356
821.2507, 427.9988
821.7328, 425.5032
822.2149, 422.7067
822.6970, 420.1185
823.1791, 419.4489
823.6613, 421.9400
824.1434, 423.5332
824.6255, 419.9619
825.1076, 414.7271
825.5897, 411.7741
826.0718, 412.5183
826.5540, 414.5981
827.0361, 417.7578
827.5182, 422.5341
828.0003, 431.5286
828.4824, 444.5575
828.9645, 451.2291
829.4467, 449.4592
829.9288, 443.1582
830.4109, 433.0822
830.8930, 422.6273
831.3751, 417.3043
831.8572, 420.5165
832.3394, 424.5515
832.8215, 428.4324
833.3036, 430.8481
833.7857, 430.2544
834.2678, 425.1252
834.7499, 421.1455
835.2321, 418.1607
835.7142, 417.5960
836.1963, 423.7667
836.6784, 434.2151
837.1605, 439.2174
837.6426, 436.0897
838.1248, 431.0162
838.6069, 426.7727
839.0890, 424.1652
839.5711, 424.4260
840.0532, 431.0117
840.5353, 434.5642
841.0175, 434.2977
841.4996, 431.1518
841.9817, 424.5625
842.4638, 414.1573
842.9459, 409.5148
843.4280, 412.1555
843.9102, 417.3753
844.3923, 420.4742
844.8744, 422.5498
845.3565, 425.6823
845.8386, 431.0282
846.3207, 434.7021
846.8029, 434.8598
847.2850, 432.7692
847.7671, 429.1887
848.2492, 422.1160
848.7313, 419.4820
849.2134, 422.3584
849.6956, 426.9971
850.1777, 429.7151
850.6598, 431.0921
851.1419, 433.4004
851.6240, 437.0526
852.1061, 440.2180
852.5883, 442.0813
853.0704, 442.4919
853.5525, 440.9041
854.0346, 435.9974
854.5167, 433.1707
854.9988, 433.8012
855.4810, 435.1177
855.9631, 434.7701
856.4452, 432.7059
856.9273, 433.6175
857.4094, 437.9241
857.8915, 440.9576
858.3737, 436.7387
858.8558, 429.7505
859.3379, 425.4402
859.8200, 424.5450
860.3021, 425.4172
860.7842, 431.4475
861.2664, 435.4387
861.7485, 431.7252
862.2306, 418.6377
862.7127, 416.4049
863.1948, 427.6042
863.6769, 438.2308
864.1591, 435.6608
864.6412, 425.7718
865.1233, 423.3044
865.6054, 428.1631
866.0875, 432.7869
866.5696, 432.5956
867.0518, 430.8003
867.5339, 429.4106
868.0160, 428.5721
868.4981, 426.5209
868.9802, 421.8242
869.4623, 419.0156
869.9445, 421.6487
870.4266, 427.8505
870.9087, 428.0958
871.3908, 422.9161
871.8729, 417.9648
872.3550, 414.3379
872.8372, 414.2444
873.3193, 423.3328
873.8014, 439.1298
874.2835, 447.5361
874.7656, 437.8105
875.2477, 429.1941
875.7299, 426.3775
876.2120, 428.2984
876.6941, 430.9776
877.1762, 434.3998
877.6583, 439.0296
878.1404, 447.6460
878.6226, 454.8181
879.1047, 450.7385
879.5868, 439.3735
880.0689, 430.8397
880.5510, 429.9138
881.0331, 431.3252
881.5153, 435.2334
881.9974, 439.9270
882.4796, 441.6566
882.9617, 439.7477
883.4438, 438.9572
883.9259, 441.0587
884.4080, 443.4519
884.8901, 440.9243
885.3723, 435.5220
885.8544, 432.0598
886.3365, 432.9749
886.8186, 434.9192
887.3007, 438.7767
887.7828, 441.7716
888.2650, 439.2609
888.7471, 426.4768
889.2292, 421.8104
889.7113, 428.8005
890.1934, 439.6487
890.6755, 445.0833
891.1577, 446.0437
891.6398, 445.2821
892.1219, 443.0351
892.6040, 440.5491
893.0861, 437.6846
893.5682, 435.6060
894.0504, 435.5132
894.5325, 438.1576
895.0146, 441.9214
895.4967, 448.6056
895.9788, 453.0842
896.4609, 449.2710
896.9431, 438.8022
897.4252, 431.1594
897.9073, 426.8464
898.3894, 426.4551
898.8715, 434.7275
899.3536, 443.9677
899.8358, 447.0925
900.3179, 442.8800
900.8000, 439.5516
901.2821, 438.9134
901.7642, 437.8672
902.2463, 433.9056
902.7285, 428.0387
903.2106, 428.7225
903.6927, 435.7089
904.1748, 442.3409
904.6569, 443.9896
905.1390, 443.7717
905.6212, 445.2725
906.1033, 447.8304
906.5854, 448.3880
907.0675, 442.6297
907.5496, 439.0024
908.0317, 440.1080
908.5139, 444.4418
908.9960, 447.8465
909.4781, 450.3039
909.9602, 451.8286
910.4423, 453.2209
910.9244, 452.3777
911.4066, 443.3466
911.8887, 430.8745
912.3708, 423.6001
912.8529, 429.0927
913.3350, 434.3087
913.8171, 437.1727
914.2993, 438.4078
914.7814, 438.3944
915.2635, 436.9290
915.7456, 437.1832
916.2277, 439.9092
916.7098, 443.1147
917.1920, 445.1200
917.6741, 445.8456
918.1562, 443.9323
918.6383, 436.7676
919.1204, 435.6473
919.6025, 453.2819
920.0847, 470.5004
920.5668, 473.2519
921.0489, 458.7245
921.5310, 449.1909
922.0131, 444.7273
922.4952, 444.6805
922.9774, 453.7781
923.4595, 464.4268
923.9416, 462.7338
924.4237, 448.9415
924.9058, 438.7008
925.3879, 441.6179
925.8701, 446.0289
926.3522, 447.4708
926.8343, 446.0952
927.3164, 442.3850
927.7985, 435.8590
928.2806, 431.2948
928.7628, 431.6871
929.2449, 434.5913
929.7270, 436.3387
930.2091, 437.4288
930.6912, 439.2675
931.1733, 444.5167
931.6555, 448.0930
932.1376, 446.2807
932.6197, 442.7838
933.1018, 444.7057
933.5839, 453.2411
934.0660, 457.9730
934.5482, 456.3935
935.0303, 452.5311
935.5124, 452.5547
935.9945, 453.6731
936.4766, 449.9577
936.9587, 436.2818
937.4409, 428.0834
937.9230, 434.5965
938.4051, 445.3234
938.8872, 453.6446
939.3693, 460.7475
939.8514, 455.2787
940.3336, 435.0508
940.8157, 418.8875
941.2978, 429.2618
941.7799, 450.1172
942.2620, 456.8352
942.7441, 448.6754
943.2263, 441.9001
943.7084, 443.4390
944.1905, 447.2598
944.6726, 452.5502
945.1547, 458.2351
945.6368, 455.4125
946.1190, 443.3185
946.6011, 435.5621
947.0832, 440.9568
947.5653, 450.9421
948.0474, 455.0642
948.5295, 454.7198
949.0117, 453.1583
949.4938, 449.0484
949.9759, 447.1130
950.4580, 449.7548
950.9401, 453.7725
951.4222, 454.0508
951.9044, 450.5287
952.3865, 446.9781
952.8686, 443.7038
953.3507, 441.9374
953.8328, 443.6605
954.3149, 447.3558
954.7971, 451.5417
955.2792, 456.5191
955.7613, 459.3704
956.2434, 458.9047
956.7255, 457.1899
957.2076, 455.1801
957.6898, 452.8865
958.1719, 451.0196
958.6540, 449.5614
959.1361, 448.3052
959.6182, 446.8851
960.1003, 445.7563
960.5825, 445.4062
961.0646, 445.7546
961.5467, 446.2312
962.0288, 446.0427
962.5109, 447.3347
962.9930, 452.0084
963.4752, 457.2612
963.9573, 454.0622
964.4394, 444.0762
964.9215, 437.4897
965.4036, 438.3024
965.8857, 442.2990
966.3679, 448.8582
966.8500, 455.3747
967.3321, 458.3290
967.8142, 454.5298
968.2963, 452.3164
968.7784, 452.7059
969.2606, 452.7292
969.7427, 447.6738
970.2248, 439.6911
970.7069, 437.3716
971.1890, 441.3032
971.6711, 445.5970
972.1533, 445.9658
972.6354, 445.7299
973.1175, 447.5462
973.5996, 451.4045
974.0817, 453.0938
974.5638, 451.9726
975.0460, 451.0852
975.5281, 452.5659
976.0102, 454.2636
976.4923, 450.1041
976.9744, 442.1852
977.4565, 436.6700
977.9387, 437.1728
978.4208, 439.4521
978.9029, 442.9283
979.3850, 446.9321
979.8671, 451.5497
980.3492, 457.8705
980.8314, 456.4391
981.3135, 444.3335
981.7956, 432.9195
982.2777, 437.2830
982.7598, 449.0259
983.2419, 456.2018
983.7241, 456.6376
984.2062, 455.9756
984.6883, 455.5109
985.1704, 454.6355
985.6525, 453.0529
986.1346, 450.7936
986.6168, 447.3733
987.0989, 442.8983
987.5810, 440.6913
988.0631, 443.2647
988.5452, 448.4908
989.0273, 457.6388
989.5095, 467.7243
989.9916, 470.8064
990.4737, 458.9415
990.9558, 449.7080
991.4379, 444.4618
991.9200, 443.7384
992.4022, 452.5834
992.8843, 467.4695
993.3664, 471.7202
993.8485, 460.5610
994.3306, 449.2953
994.8127, 448.7839
995.2949, 452.6097
995.7770, 456.2482
996.2591, 459.9565
996.7412, 457.7911
997.2233, 447.4475
997.7054, 439.7144
998.1876, 443.5540
998.6697, 453.6396
999.1518, 458.9796
999.6339, 460.1216
1000.116, 459.4063
1000.598, 456.4760
1001.080, 453.4293
1001.562, 448.7690
1002.044, 445.4243
1002.527, 451.1199
1003.009, 466.9410
1003.491, 474.6960
1003.973, 469.8537
1004.455, 460.9981
1004.937, 455.3633
1005.419, 452.4542
1005.901, 452.1815
1006.384, 455.2733
1006.866, 457.6988
1007.348, 457.8728
1007.830, 458.9822
1008.312, 463.7791
1008.794, 471.1756
1009.276, 475.0943
1009.758, 475.6051
1010.240, 473.5464
1010.723, 465.8011
1011.205, 459.1976
1011.687, 459.9323
1012.169, 464.9832
1012.651, 465.6851
1013.133, 459.5910
1013.615, 455.6561
1014.097, 455.0337
1014.580, 457.4537
1015.062, 466.2809
1015.544, 476.8031
1016.026, 478.8242
1016.508, 468.9453
1016.990, 459.5370
1017.472, 453.4645
1017.954, 451.4899
1018.436, 454.4464
1018.919, 462.1231
1019.401, 472.2855
1019.883, 484.9527
1020.365, 492.6935
1020.847, 486.5678
1021.329, 477.3409
1021.811, 476.2996
1022.293, 480.5580
1022.776, 482.9149
1023.258, 480.1694
1023.740, 478.5817
1024.222, 479.2194
1024.704, 480.4333
1025.186, 480.4576
1025.668, 479.1609
1026.150, 475.1998
1026.632, 468.0530
1027.115, 462.7940
1027.597, 464.2520
1028.079, 467.1734
1028.561, 467.4845
1029.043, 465.3290
1029.525, 467.0555
1030.007, 473.3905
1030.489, 477.1407
1030.972, 472.5554
1031.454, 466.3115
1031.936, 470.2688
1032.418, 479.4191
1032.900, 482.9911
1033.382, 468.6173
1033.864, 461.8293
1034.346, 469.3708
1034.828, 479.5139
1035.311, 476.2015
1035.793, 462.4618
1036.275, 461.5267
1036.757, 475.3335
1037.239, 484.9183
1037.721, 468.0938
1038.203, 449.7587
1038.685, 450.5522
1039.167, 468.4766
1039.650, 476.3908
1040.132, 471.9255
1040.614, 467.2429
1041.096, 465.7985
1041.578, 467.4014
1042.060, 475.2956
1042.542, 485.2370
1043.024, 488.9532
1043.507, 479.9958
1043.989, 472.4321
1044.471, 467.6686
1044.953, 466.2502
1045.435, 471.1071
1045.917, 481.2091
1046.399, 481.1144
1046.881, 471.0119
1047.364, 460.9214
1047.846, 454.2986
1048.328, 453.0701
1048.810, 462.6796
1049.292, 479.4811
1049.774, 488.0352
1050.256, 486.7756
1050.738, 481.4371
1051.220, 471.3743
1051.703, 462.5171
1052.185, 465.3777
1052.667, 474.8834
1053.149, 483.0492
1053.631, 488.6091
1054.113, 491.2652
1054.595, 489.4716
1055.077, 486.3195
1055.559, 482.5087
1056.042, 478.5419
1056.524, 479.7217
1057.006, 485.0178
1057.488, 486.0053
1057.970, 471.8201
1058.452, 458.3642
1058.934, 456.9726
1059.416, 462.7565
1059.899, 465.6380
1060.381, 463.0570
1060.863, 467.3098
1061.345, 481.4175
1061.827, 493.8122
1062.309, 489.6923
1062.791, 477.7113
1063.273, 469.7721
1063.755, 466.9361
1064.238, 467.6608
1064.720, 477.1780
1065.202, 482.4964
1065.684, 477.9185
1066.166, 467.8933
1066.648, 465.9126
1067.130, 470.1484
1067.612, 471.3626
1068.094, 464.1695
1068.577, 459.2404
1069.059, 466.2585
1069.541, 476.4492
1070.023, 481.3504
1070.505, 480.1493
1070.987, 476.5413
1071.469, 469.8876
1071.951, 466.5438
1072.434, 473.7469
1072.916, 484.5621
1073.398, 492.4648
1073.880, 497.1215
1074.362, 497.9124
1074.844, 493.5960
1075.326, 486.3322
1075.808, 473.2367
1076.291, 462.7418
1076.773, 472.2144
1077.255, 493.3862
1077.737, 500.5602
1078.219, 489.3539
1078.701, 478.9374
1079.183, 477.8737
1079.665, 481.7231
1080.147, 490.2816
1080.630, 501.6230
1081.112, 503.2800
1081.594, 495.5630
1082.076, 487.8577
1082.558, 483.2138
1083.040, 480.8307
1083.522, 482.3930
1084.004, 484.7112
1084.486, 483.0801
1084.969, 474.6888
1085.451, 469.2539
1085.933, 467.3537
1086.415, 466.4011
1086.897, 463.2207
1087.379, 460.2854
1087.861, 462.5747
1088.343, 469.2318
1088.826, 476.2793
1089.308, 484.4266
1089.790, 489.8896
1090.272, 492.5708
1090.754, 491.7143
1091.236, 483.2569
1091.718, 469.6872
1092.200, 463.7567
1092.682, 467.9621
1093.165, 471.5385
1093.647, 465.5766
1094.129, 458.8134
1094.611, 456.5751
1095.093, 458.4456
1095.575, 462.5341
1096.057, 469.0452
1096.539, 472.3194
1097.022, 468.6658
1097.504, 464.0128
1097.986, 464.7793
1098.468, 468.2178
1098.950, 470.7426
1099.432, 472.4414
1099.914, 470.7426
1100.396, 464.2464
1100.879, 458.9841
1101.361, 460.4190
1101.843, 465.6000
1102.325, 469.0368
1102.807, 471.1288
1103.289, 473.5187
1103.771, 476.5683
1104.253, 480.8971
1104.735, 489.5156
1105.218, 495.8501
1105.700, 486.3026
1106.182, 465.5131
1106.664, 457.2627
1107.146, 464.2310
1107.628, 473.4947
1108.110, 481.5083
1108.592, 485.0752
1109.074, 479.2040
1109.557, 467.6023
1110.039, 466.6422
1110.521, 476.4948
1111.003, 482.7212
1111.485, 480.3599
1111.967, 475.2397
1112.449, 470.3350
1112.931, 467.1790
1113.414, 468.4014
1113.896, 475.7779
1114.378, 478.2388
1114.860, 474.3847
1115.342, 471.8056
1115.824, 476.5460
1116.306, 483.6451
1116.788, 484.3548
1117.271, 481.3147
1117.753, 480.4292
1118.235, 489.5993
1118.717, 490.7475
1119.199, 478.6403
1119.681, 466.2794
1120.163, 468.9568
1120.645, 481.3709
1121.127, 488.3387
1121.609, 489.4675
1122.092, 488.3980
1122.574, 483.8261
1123.056, 481.2798
1123.538, 483.8794
1124.020, 488.4174
1124.502, 487.7664
1124.984, 482.6815
1125.466, 479.7318
1125.949, 480.3053
1126.431, 481.5784
1126.913, 482.2610
1127.395, 482.3276
1127.877, 480.8185
1128.359, 478.2929
1128.841, 480.3187
1129.323, 487.2431
1129.806, 492.7696
1130.288, 494.8528
1130.770, 494.1201
1131.252, 489.1481
1131.734, 482.6881
1132.216, 478.4094
1132.698, 477.0175
1133.180, 476.6719
1133.662, 477.4598
1134.145, 478.9527
1134.627, 481.5442
1135.109, 484.2469
1135.591, 485.8492
1136.073, 486.2652
1136.555, 485.2368
1137.037, 480.4398
1137.519, 477.6817
1138.001, 477.7938
1138.484, 478.9562
1138.966, 478.5427
1139.448, 477.9174
1139.930, 482.5603
1140.412, 491.6607
1140.894, 495.4116
1141.376, 485.1721
1141.858, 474.5201
1142.341, 465.2179
1142.823, 459.3515
1143.305, 463.4809
1143.787, 474.8184
1144.269, 479.1791
1144.751, 473.2314
1145.233, 471.2549
1145.715, 488.5667
1146.198, 504.7979
1146.680, 508.0562
1147.162, 501.2279
1147.644, 497.5790
1148.126, 496.8351
1148.608, 495.6028
1149.090, 493.0359
1149.572, 488.9647
1150.054, 480.5377
1150.536, 472.5144
1151.019, 470.0765
1151.501, 473.8148
1151.983, 474.8276
1152.465, 473.0400
1152.947, 470.5273
1153.429, 466.6788
1153.911, 464.5542
1154.393, 468.5634
1154.876, 475.8937
1155.358, 481.6747
1155.840, 485.1184
1156.322, 488.3815
1156.804, 491.6401
1157.286, 493.9628
1157.768, 495.3771
1158.250, 494.8787
1158.733, 489.3282
1159.215, 480.5258
1159.697, 475.2383
1160.179, 475.4412
1160.661, 477.1664
1161.143, 480.5324
1161.625, 483.7162
1162.107, 484.3229
1162.589, 483.4841
1163.072, 482.6778
1163.554, 482.1150
1164.036, 482.8651
1164.518, 487.3870
1165.000, 489.3599
1165.482, 486.5881
1165.964, 481.6243
1166.446, 478.4303
1166.928, 476.8206
1167.411, 476.5959
1167.893, 477.9054
1168.375, 479.2156
1168.857, 480.1494
1169.339, 480.7206
1169.821, 480.1784
1170.303, 479.8097
1170.785, 485.9254
1171.268, 495.6013
1171.750, 498.7900
1172.232, 489.6072
1172.714, 480.6490
1173.196, 475.9502
1173.678, 474.2179
1174.160, 475.9871
1174.642, 480.3458
1175.125, 479.7737
1175.607, 475.4879
1176.089, 474.3148
1176.571, 484.8881
1177.053, 492.0845
1177.535, 485.4896
1178.017, 475.1740
1178.499, 469.8300
1178.981, 469.3920
1179.464, 473.1887
1179.946, 480.6784
1180.428, 484.2022
1180.910, 473.5256
1181.392, 463.5302
1181.874, 461.5101
1182.356, 465.6143
1182.838, 475.2603
1183.320, 491.0055
1183.803, 495.6627
1184.285, 487.5960
1184.767, 478.9561
1185.249, 477.7801
1185.731, 480.1796
1186.213, 487.0157
1186.695, 494.7858
1187.177, 492.8254
1187.660, 480.2365
1188.142, 471.2982
1188.624, 468.2479
1189.106, 470.1806
1189.588, 482.4508
1190.070, 494.3252
1190.552, 494.7961
1191.034, 485.6735
1191.516, 482.7281
1191.999, 486.6363
1192.481, 490.2943
1192.963, 491.8648
1193.445, 492.8704
1193.927, 494.4717
1194.409, 496.5213
1194.891, 499.5968
1195.373, 503.7580
1195.855, 503.8091
1196.338, 499.2312
1196.820, 494.9698
1197.302, 492.7516
1197.784, 492.1127
1198.266, 494.4177
1198.748, 497.0345
1199.230, 495.8751
1199.712, 489.4804
1200.195, 487.6803
1200.677, 491.4965
1201.159, 492.3921
1201.641, 481.7809
1202.123, 471.0127
1202.605, 474.4584
1203.087, 486.2442
1203.569, 497.3332
1204.052, 508.3950
1204.534, 513.1076
1205.016, 510.7661
1205.498, 506.5054
1205.980, 504.7553
1206.462, 502.2573
1206.944, 493.5030
1207.426, 481.3358
1207.908, 472.3045
1208.391, 465.4812
1208.873, 466.5272
1209.355, 477.0135
1209.837, 488.2700
1210.319, 492.7756
1210.801, 494.0975
1211.283, 495.5344
1211.765, 497.1860
1212.247, 498.9005
1212.730, 500.8634
1213.212, 502.3091
1213.694, 503.1900
1214.176, 503.3521
1214.658, 501.9499
1215.140, 500.2600
1215.622, 500.6961
1216.104, 502.5063
1216.587, 500.5634
1217.069, 492.9501
1217.551, 487.3666
1218.033, 484.9955
1218.515, 485.2011
1218.997, 489.7445
1219.479, 494.8001
1219.961, 494.9713
1220.443, 490.4010
1220.926, 489.5952
1221.408, 494.2897
1221.890, 496.4857
1222.372, 493.4265
1222.854, 490.4442
1223.336, 495.7280
1223.818, 503.5197
1224.300, 507.2537
1224.782, 505.9165
1225.265, 503.4272
1225.747, 499.0201
1226.229, 497.7318
1226.711, 502.1255
1227.193, 507.4348
1227.675, 507.9435
1228.157, 506.0313
1228.639, 504.6333
1229.122, 504.2154
1229.604, 501.9928
1230.086, 497.9114
1230.568, 491.6422
1231.050, 480.4803
1231.532, 472.5234
1232.014, 483.1785
1232.496, 499.0942
1232.979, 502.0750
1233.461, 488.8669
1233.943, 482.3179
1234.425, 482.7462
1234.907, 487.4487
1235.389, 497.4486
1235.871, 507.5083
1236.353, 513.7808
1236.835, 516.4798
1237.318, 515.2103
1237.800, 509.6857
1238.282, 504.2737
1238.764, 498.9698
1239.246, 494.7013
1239.728, 492.1274
1240.210, 490.7578
1240.692, 489.9941
1241.175, 490.4173
1241.657, 493.0242
1242.139, 498.3600
1242.621, 502.4186
1243.103, 505.2395
1243.585, 506.3492
1244.067, 504.0586
1244.549, 501.5417
1245.031, 502.3658
1245.514, 503.3827
1245.996, 498.3180
1246.478, 485.5759
1246.960, 491.6984
1247.442, 515.7938
1247.924, 530.3963
1248.406, 503.9343
1248.888, 478.2367
1249.370, 480.6989
1249.853, 495.3672
1250.335, 501.0282
1250.817, 498.0382
1251.299, 500.0299
1251.781, 507.2446
1252.263, 514.3610
1252.745, 520.6791
1253.227, 523.0066
1253.710, 517.5364
1254.192, 509.2394
1254.674, 504.1181
1255.156, 501.7312
1255.638, 498.5007
1256.120, 494.4237
1256.602, 492.0767
1257.084, 494.3662
1257.567, 496.7886
1258.049, 497.8568
1258.531, 498.3361
1259.013, 498.7414
1259.495, 499.4725
1259.977, 503.1032
1260.459, 509.3390
1260.941, 513.0276
1261.423, 509.5021
1261.906, 506.1077
1262.388, 504.4030
1262.870, 503.7076
1263.352, 502.6485
1263.834, 501.9674
1264.316, 505.1886
1264.798, 511.8725
1265.280, 513.1566
1265.762, 499.9648
1266.245, 491.7691
1266.727, 492.6877
1267.209, 498.1795
1267.691, 503.5948
1268.173, 508.5861
1268.655, 513.8373
1269.137, 519.0583
1269.619, 517.7347
1270.102, 507.2574
1270.584, 495.5164
1271.066, 482.3814
1271.548, 474.6963
1272.030, 487.2343
1272.512, 506.2271
1272.994, 514.3689
1273.476, 510.9524
1273.958, 512.6848
1274.441, 521.7358
1274.923, 527.8010
1275.405, 528.8894
1275.887, 525.0042
1276.369, 509.8616
1276.851, 494.6375
1277.333, 492.0340
1277.815, 500.2179
1278.297, 504.2778
1278.780, 503.9319
1279.262, 505.0871
1279.744, 509.3132
1280.226, 513.5891
1280.708, 515.3765
1281.190, 516.3934
1281.672, 517.7816
1282.154, 519.4860
1282.637, 521.4143
1283.119, 523.4612
1283.601, 524.3131
1284.083, 523.4879
1284.565, 523.1130
1285.047, 526.3828
1285.529, 528.1523
1286.011, 525.5656
1286.494, 520.1445
1286.976, 515.2216
1287.458, 511.2528
1287.940, 510.4245
1288.422, 513.6245
1288.904, 516.1895
1289.386, 516.1601
1289.868, 515.1990
1290.350, 512.7916
1290.833, 511.2244
1291.315, 519.2289
1291.797, 530.1976
1292.279, 528.5306
1292.761, 508.9955
1293.243, 499.7108
1293.725, 507.2378
1294.207, 515.1266
1294.689, 518.0290
1295.172, 518.7771
1295.654, 520.6425
1296.136, 523.3762
1296.618, 527.5564
1297.100, 533.5022
1297.582, 534.0628
1298.064, 528.2698
1298.546, 523.7498
1299.029, 523.6734
1299.511, 523.0849
1299.993, 514.2938
1300.475, 504.3256
1300.957, 500.0239
1301.439, 501.0579
1301.921, 506.8048
1302.403, 516.9713
1302.885, 521.6229
1303.368, 516.5717
1303.850, 512.0532
1304.332, 517.2627
1304.814, 523.2579
1305.296, 524.0632
1305.778, 521.4668
1306.260, 522.6495
1306.742, 526.2410
1307.224, 526.0671
1307.707, 519.6396
1308.189, 515.0864
1308.671, 518.5135
1309.153, 520.4034
1309.635, 515.9410
1310.117, 509.8002
1310.599, 515.0502
1311.081, 525.2101
1311.564, 525.9049
1312.046, 512.7947
1312.528, 504.0090
1313.010, 502.2618
1313.492, 501.7845
1313.974, 500.2905
1314.456, 500.1517
1314.938, 506.8031
1315.421, 515.3601
1315.903, 520.3904
##END=



