##NAMES=Zinkenite
##RRUFFID=R070577
##IDEAL CHEMISTRY=Pb^2+^_9_Sb^3+^_22_S^2-^_42_
##LOCALITY=Jetty mine, near Anaconda, Deer Lodge County, Montana, USA
##OWNER=RRUFF
##SOURCE=James Shigley
##DESCRIPTION=Gray metallic massive
##STATUS=The identification of this mineral has been confirmed by single-crystal X-ray diffraction.
##URL=rruff.info/R070577
134.5997, 808.8269
135.0819, 832.3409
135.5640, 873.6850
136.0461, 919.6662
136.5282, 935.4293
137.0103, 917.0610
137.4924, 894.7194
137.9746, 894.9724
138.4567, 918.8506
138.9388, 942.3007
139.4209, 958.8424
139.9030, 969.1844
140.3851, 982.8926
140.8673, 1002.032
141.3494, 1020.950
141.8315, 1029.992
142.3136, 1025.498
142.7957, 1022.407
143.2778, 1027.918
143.7600, 1045.308
144.2421, 1059.176
144.7242, 1068.019
145.2063, 1073.067
145.6884, 1077.296
146.1705, 1076.097
146.6527, 1073.424
147.1348, 1064.332
147.6169, 1041.241
148.0990, 1025.740
148.5811, 1022.483
149.0633, 1032.517
149.5454, 1039.084
150.0275, 1041.166
150.5096, 1040.624
150.9917, 1039.743
151.4738, 1040.962
151.9560, 1039.360
152.4381, 1033.255
152.9202, 1019.056
153.4023, 1007.207
153.8844, 996.9832
154.3665, 988.9380
154.8487, 984.5101
155.3308, 987.8073
155.8129, 991.8624
156.2950, 993.3669
156.7771, 989.1318
157.2592, 985.5818
157.7414, 983.1349
158.2235, 981.7870
158.7056, 982.5468
159.1877, 990.3504
159.6698, 998.3804
160.1519, 1000.316
160.6341, 986.7017
161.1162, 973.7622
161.5983, 969.9709
162.0804, 980.5669
162.5625, 982.9104
163.0446, 957.5242
163.5268, 919.8369
164.0089, 898.9882
164.4910, 925.6147
164.9731, 959.1200
165.4552, 974.2073
165.9373, 952.3644
166.4195, 928.7803
166.9016, 919.7471
167.3837, 922.8728
167.8658, 926.0709
168.3479, 920.0975
168.8300, 912.2827
169.3122, 910.2056
169.7943, 923.1948
170.2764, 937.9516
170.7585, 947.6132
171.2406, 952.1091
171.7227, 949.8326
172.2049, 935.2422
172.6870, 913.2855
173.1691, 893.0361
173.6512, 871.3751
174.1333, 857.0932
174.6154, 861.8699
175.0976, 893.4579
175.5797, 927.2556
176.0618, 941.2418
176.5439, 938.7139
177.0260, 932.5633
177.5081, 932.3037
177.9903, 933.3649
178.4724, 927.9304
178.9545, 908.7104
179.4366, 887.0227
179.9187, 878.0528
180.4008, 881.2907
180.8830, 887.5573
181.3651, 889.3964
181.8472, 888.1227
182.3293, 887.0423
182.8114, 887.1454
183.2935, 888.3126
183.7757, 890.7839
184.2578, 894.7805
184.7399, 898.7851
185.2220, 901.6115
185.7041, 903.1513
186.1862, 902.6054
186.6684, 895.8825
187.1505, 886.4419
187.6326, 885.5274
188.1147, 897.0019
188.5968, 912.9414
189.0790, 919.7407
189.5611, 917.6080
190.0432, 912.4217
190.5253, 905.4109
191.0074, 897.8459
191.4895, 897.7962
191.9717, 910.9153
192.4538, 930.9960
192.9359, 940.6862
193.4180, 939.2210
193.9001, 931.9810
194.3822, 920.2894
194.8644, 904.7423
195.3465, 897.2706
195.8286, 906.1833
196.3107, 928.8889
196.7928, 944.9835
197.2749, 954.2084
197.7571, 957.5558
198.2392, 953.0836
198.7213, 939.8788
199.2034, 930.7405
199.6855, 934.4465
200.1676, 951.0867
200.6498, 963.6383
201.1319, 969.7673
201.6140, 972.4126
202.0961, 981.3514
202.5782, 999.2150
203.0603, 1011.631
203.5425, 1003.937
204.0246, 972.8854
204.5067, 952.7497
204.9888, 951.1136
205.4709, 964.8035
205.9530, 977.3047
206.4352, 989.2721
206.9173, 998.5184
207.3994, 1002.402
207.8815, 1000.076
208.3636, 996.5402
208.8457, 992.1757
209.3279, 986.9476
209.8100, 985.6348
210.2921, 989.3539
210.7742, 995.5089
211.2563, 1000.085
211.7384, 1002.346
212.2206, 1005.654
212.7027, 1012.785
213.1848, 1025.992
213.6669, 1031.308
214.1490, 1024.883
214.6311, 1013.015
215.1133, 1011.365
215.5954, 1023.061
216.0775, 1037.718
216.5596, 1051.488
217.0417, 1066.535
217.5238, 1072.022
218.0060, 1062.624
218.4881, 1042.456
218.9702, 1033.955
219.4523, 1039.724
219.9344, 1052.435
220.4165, 1068.137
220.8987, 1090.711
221.3808, 1106.220
221.8629, 1111.428
222.3450, 1106.476
222.8271, 1097.605
223.3092, 1079.446
223.7914, 1063.546
224.2735, 1065.107
224.7556, 1094.854
225.2377, 1119.308
225.7198, 1128.631
226.2020, 1119.666
226.6841, 1115.261
227.1662, 1117.328
227.6483, 1122.673
228.1304, 1125.970
228.6125, 1125.739
229.0947, 1126.116
229.5768, 1128.878
230.0589, 1135.380
230.5410, 1140.266
231.0231, 1142.362
231.5052, 1143.083
231.9874, 1146.601
232.4695, 1155.241
232.9516, 1163.197
233.4337, 1167.366
233.9158, 1166.234
234.3979, 1164.438
234.8801, 1161.202
235.3622, 1157.287
235.8443, 1156.370
236.3264, 1157.938
236.8085, 1163.137
237.2906, 1173.820
237.7728, 1195.360
238.2549, 1211.566
238.7370, 1219.278
239.2191, 1218.668
239.7012, 1217.284
240.1833, 1214.006
240.6655, 1211.043
241.1476, 1210.461
241.6297, 1212.377
242.1118, 1216.562
242.5939, 1223.961
243.0760, 1235.367
243.5582, 1242.909
244.0403, 1242.509
244.5224, 1241.526
245.0045, 1251.061
245.4866, 1280.915
245.9688, 1304.598
246.4509, 1313.081
246.9330, 1301.914
247.4151, 1291.690
247.8972, 1280.584
248.3793, 1271.373
248.8615, 1269.110
249.3436, 1274.028
249.8257, 1285.496
250.3078, 1305.925
250.7899, 1346.058
251.2720, 1368.368
251.7542, 1365.932
252.2363, 1347.115
252.7184, 1335.302
253.2005, 1334.481
253.6826, 1334.827
254.1647, 1330.449
254.6469, 1316.415
255.1290, 1309.058
255.6111, 1310.432
256.0932, 1319.305
256.5753, 1330.846
257.0574, 1347.432
257.5396, 1363.341
258.0217, 1374.725
258.5038, 1379.924
258.9859, 1384.770
259.4680, 1391.191
259.9501, 1398.517
260.4323, 1397.366
260.9144, 1380.668
261.3965, 1365.236
261.8786, 1368.364
262.3607, 1400.978
262.8428, 1424.599
263.3250, 1429.540
263.8071, 1416.173
264.2892, 1407.066
264.7713, 1403.459
265.2534, 1402.349
265.7355, 1401.530
266.2177, 1402.957
266.6998, 1398.922
267.1819, 1383.486
267.6640, 1355.266
268.1461, 1343.850
268.6282, 1355.746
269.1104, 1376.490
269.5925, 1385.963
270.0746, 1379.732
270.5567, 1375.073
271.0388, 1379.349
271.5209, 1394.425
272.0031, 1402.795
272.4852, 1403.775
272.9673, 1398.973
273.4494, 1388.955
273.9315, 1371.172
274.4136, 1357.197
274.8958, 1356.049
275.3779, 1372.152
275.8600, 1368.564
276.3421, 1336.978
276.8242, 1294.523
277.3063, 1279.038
277.7885, 1297.092
278.2706, 1314.782
278.7527, 1312.239
279.2348, 1286.819
279.7169, 1268.589
280.1990, 1260.546
280.6812, 1259.217
281.1633, 1258.493
281.6454, 1259.131
282.1275, 1256.203
282.6096, 1244.249
283.0917, 1222.831
283.5739, 1206.305
284.0560, 1196.683
284.5381, 1192.527
285.0202, 1192.490
285.5023, 1197.525
285.9844, 1199.884
286.4666, 1191.721
286.9487, 1173.594
287.4308, 1159.290
287.9129, 1151.641
288.3950, 1148.703
288.8771, 1147.728
289.3593, 1149.281
289.8414, 1146.819
290.3235, 1131.472
290.8056, 1105.225
291.2877, 1084.028
291.7699, 1071.800
292.2520, 1066.080
292.7341, 1061.683
293.2162, 1058.682
293.6983, 1055.291
294.1805, 1050.002
294.6626, 1042.979
295.1447, 1034.976
295.6268, 1025.179
296.1089, 1015.144
296.5910, 1009.260
297.0732, 1007.649
297.5553, 1004.388
298.0374, 992.2349
298.5195, 973.6024
299.0016, 956.5695
299.4837, 943.7361
299.9659, 934.1542
300.4480, 925.8875
300.9301, 918.9963
301.4122, 914.3920
301.8943, 915.8555
302.3764, 920.5425
302.8586, 921.3981
303.3407, 913.5514
303.8228, 901.5627
304.3049, 890.4640
304.7870, 880.1456
305.2691, 873.2574
305.7513, 874.0182
306.2334, 879.6843
306.7155, 884.8809
307.1976, 889.0344
307.6797, 890.7961
308.1618, 887.5634
308.6440, 879.1879
309.1261, 870.1380
309.6082, 863.1857
310.0903, 857.8750
310.5724, 853.6145
311.0545, 849.9182
311.5367, 847.2142
312.0188, 846.4958
312.5009, 847.8645
312.9830, 848.7038
313.4651, 849.3530
313.9472, 848.0666
314.4294, 842.2800
314.9115, 824.9828
315.3936, 807.2592
315.8757, 795.9722
316.3578, 791.7631
316.8399, 791.3473
317.3221, 796.6595
317.8042, 803.9095
318.2863, 808.2727
318.7684, 807.4306
319.2505, 803.6899
319.7326, 795.6149
320.2148, 781.8287
320.6969, 774.6176
321.1790, 787.2672
321.6611, 806.3783
322.1432, 815.0397
322.6253, 795.4918
323.1075, 775.8423
323.5896, 768.2099
324.0717, 776.1421
324.5538, 781.3217
325.0359, 776.3591
325.5180, 767.6653
326.0002, 763.0303
326.4823, 768.0892
326.9644, 773.3792
327.4465, 776.0357
327.9286, 775.2081
328.4107, 774.9144
328.8929, 777.2324
329.3750, 779.7443
329.8571, 779.4998
330.3392, 774.5036
330.8213, 768.6648
331.3034, 763.0571
331.7856, 758.2780
332.2677, 750.9424
332.7498, 736.6212
333.2319, 721.9572
333.7140, 715.4948
334.1961, 722.8522
334.6783, 730.7116
335.1604, 736.5176
335.6425, 740.5526
336.1246, 740.3889
336.6067, 732.4542
337.0888, 723.3583
337.5710, 722.6432
338.0531, 735.9045
338.5352, 745.3440
339.0173, 744.6013
339.4994, 732.4750
339.9815, 726.3375
340.4637, 727.2592
340.9458, 732.5672
341.4279, 740.7332
341.9100, 753.5788
342.3921, 761.5743
342.8742, 761.0132
343.3564, 752.3411
343.8385, 743.0613
344.3206, 732.6476
344.8027, 723.5449
345.2848, 719.5966
345.7669, 720.9594
346.2491, 722.5082
346.7312, 722.4446
347.2133, 721.2200
347.6954, 721.7076
348.1775, 724.3915
348.6596, 726.1790
349.1418, 723.0211
349.6239, 715.5384
350.1060, 707.9703
350.5881, 700.1256
351.0702, 693.5742
351.5523, 693.3948
352.0345, 699.8934
352.5166, 707.0013
352.9987, 707.9465
353.4808, 704.9139
353.9629, 703.9531
354.4450, 710.1038
354.9272, 717.6389
355.4093, 718.0116
355.8914, 711.3640
356.3735, 703.5573
356.8556, 700.4617
357.3377, 698.9265
357.8199, 693.9106
358.3020, 680.8903
358.7841, 666.1031
359.2662, 652.9270
359.7483, 641.6383
360.2304, 635.4359
360.7126, 643.4235
361.1947, 654.4998
361.6768, 657.1539
362.1589, 639.3223
362.6410, 620.3864
363.1231, 609.6034
363.6053, 606.1743
364.0874, 604.9299
364.5695, 604.6002
365.0516, 605.1000
365.5337, 606.3831
366.0158, 611.0791
366.4980, 613.6525
366.9801, 610.2585
367.4622, 602.5558
367.9443, 598.7736
368.4264, 608.3312
368.9085, 616.9602
369.3907, 616.9830
369.8728, 596.2999
370.3549, 580.3871
370.8370, 571.1360
371.3191, 567.9619
371.8012, 569.1295
372.2834, 581.9434
372.7655, 592.3152
373.2476, 593.4783
373.7297, 576.7242
374.2119, 566.2136
374.6940, 562.7814
375.1761, 565.5078
375.6582, 573.0829
376.1403, 590.2541
376.6224, 604.2598
377.1046, 608.5767
377.5867, 599.6574
378.0688, 594.3268
378.5509, 593.6479
379.0330, 595.6099
379.5151, 596.6279
379.9973, 596.7437
380.4794, 595.6085
380.9615, 592.2150
381.4436, 586.5000
381.9257, 566.0053
382.4078, 585.1097
382.8900, 595.0425
383.3721, 596.3023
383.8542, 562.6318
384.3363, 574.2797
384.8184, 567.8965
385.3005, 560.8632
385.7827, 579.1553
386.2648, 551.0443
386.7469, 569.1229
387.2290, 568.8936
387.7111, 577.1790
388.1932, 567.3212
388.6754, 563.1890
389.1575, 577.3922
389.6396, 581.5876
390.1217, 570.0029
390.6038, 579.3822
391.0859, 551.5650
391.5681, 556.5629
392.0502, 575.7721
392.5323, 565.5698
393.0144, 575.7479
393.4965, 578.2925
393.9786, 545.8165
394.4608, 574.4999
394.9429, 576.8672
395.4250, 552.2111
395.9071, 579.0815
396.3892, 558.3498
396.8713, 554.7355
397.3535, 564.9308
397.8356, 566.3632
398.3177, 566.6647
398.7998, 564.5580
399.2819, 562.0815
399.7640, 560.3773
400.2462, 559.8149
400.7283, 559.7150
401.2104, 559.6127
401.6925, 559.8685
402.1746, 561.6658
402.6567, 566.5545
403.1389, 571.4897
403.6210, 575.5327
404.1031, 579.5383
404.5852, 580.7098
405.0673, 578.0817
405.5494, 573.1425
406.0316, 568.6120
406.5137, 564.1151
406.9958, 560.8410
407.4779, 559.2853
407.9600, 559.5333
408.4421, 560.7756
408.9243, 563.1296
409.4064, 566.2645
409.8885, 571.3636
410.3706, 578.9390
410.8527, 581.0506
411.3348, 572.2444
411.8170, 555.4783
412.2991, 543.4844
412.7812, 536.3460
413.2633, 534.0562
413.7454, 539.5270
414.2275, 550.6891
414.7097, 559.4214
415.1918, 562.6011
415.6739, 562.4929
416.1560, 562.7524
416.6381, 563.2405
417.1202, 562.3828
417.6024, 559.1639
418.0845, 553.8335
418.5666, 545.8679
419.0487, 530.9666
419.5308, 519.5713
420.0129, 523.3574
420.4951, 538.2211
420.9772, 550.2582
421.4593, 549.6528
421.9414, 545.3204
422.4235, 543.6028
422.9056, 546.4709
423.3878, 550.0438
423.8699, 554.2684
424.3520, 558.2256
424.8341, 560.2150
425.3162, 559.9474
425.7983, 557.6254
426.2805, 552.5878
426.7626, 543.0863
427.2447, 536.2628
427.7268, 533.2843
428.2089, 532.6570
428.6910, 532.6202
429.1732, 533.3608
429.6553, 534.4756
430.1374, 536.2830
430.6195, 538.8774
431.1016, 539.4882
431.5837, 537.1808
432.0659, 534.3082
432.5480, 532.7012
433.0301, 532.1990
433.5122, 534.0970
433.9943, 539.7154
434.4764, 547.4525
434.9586, 551.8268
435.4407, 552.6380
435.9228, 551.3029
436.4049, 548.0364
436.8870, 543.2302
437.3691, 539.0429
437.8513, 535.7584
438.3334, 533.2266
438.8155, 530.2082
439.2976, 527.2490
439.7797, 527.3946
440.2618, 537.3231
440.7440, 549.5993
441.2261, 552.6722
441.7082, 544.2130
442.1903, 533.5204
442.6724, 525.7579
443.1545, 521.0893
443.6367, 519.8692
444.1188, 527.3987
444.6009, 534.2493
445.0830, 532.6529
445.5651, 521.9818
446.0472, 515.9990
446.5294, 526.6283
447.0115, 540.9632
447.4936, 547.3579
447.9757, 531.6163
448.4578, 520.7327
448.9399, 521.3401
449.4221, 532.3957
449.9042, 542.9410
450.3863, 557.0351
450.8684, 566.7912
451.3505, 567.5886
451.8326, 553.4790
452.3148, 541.9830
452.7969, 532.6022
453.2790, 526.3419
453.7611, 526.9395
454.2432, 537.2184
454.7253, 546.1458
455.2075, 548.6332
455.6896, 544.4774
456.1717, 539.0032
456.6538, 531.2687
457.1360, 524.7438
457.6181, 524.4789
458.1002, 530.0986
458.5823, 537.5944
459.0644, 548.2692
459.5465, 558.7983
460.0287, 560.8259
460.5108, 554.4407
460.9929, 546.2773
461.4750, 541.3019
461.9571, 538.3376
462.4392, 535.4587
462.9214, 531.6953
463.4035, 528.4779
463.8856, 525.5505
464.3677, 523.7861
464.8498, 526.2371
465.3319, 543.0671
465.8141, 558.8627
466.2962, 561.3550
466.7783, 542.5768
467.2604, 527.5650
467.7425, 528.0986
468.2246, 535.9794
468.7068, 538.9669
469.1889, 529.7964
469.6710, 520.9035
470.1531, 514.7543
470.6352, 511.2939
471.1173, 511.7390
471.5995, 519.2392
472.0816, 527.7506
472.5637, 532.0082
473.0458, 530.2630
473.5279, 528.7262
474.0100, 527.9622
474.4922, 528.1275
474.9743, 530.8066
475.4564, 536.9575
475.9385, 541.2257
476.4206, 538.5346
476.9027, 529.7086
477.3849, 524.0425
477.8670, 522.8857
478.3491, 523.4946
478.8312, 520.8740
479.3133, 516.0616
479.7954, 514.0903
480.2776, 519.4227
480.7597, 528.0943
481.2418, 536.0653
481.7239, 543.2808
482.2060, 546.3373
482.6881, 539.9047
483.1703, 528.7083
483.6524, 518.7485
484.1345, 511.1005
484.6166, 505.8631
485.0987, 503.0435
485.5808, 502.6575
486.0630, 504.7921
486.5451, 512.4128
487.0272, 520.3867
487.5093, 526.0098
487.9914, 528.0327
488.4735, 529.2427
488.9557, 530.3388
489.4378, 530.5250
489.9199, 528.0883
490.4020, 520.5662
490.8841, 514.7665
491.3662, 513.9415
491.8484, 518.3615
492.3305, 515.4271
492.8126, 501.0692
493.2947, 488.6440
493.7768, 494.9586
494.2589, 520.5170
494.7411, 537.8899
495.2232, 539.7676
495.7053, 532.5090
496.1874, 528.6815
496.6695, 528.1124
497.1516, 528.3538
497.6338, 526.4272
498.1159, 524.5824
498.5980, 528.8421
499.0801, 542.2173
499.5622, 551.6271
500.0443, 539.1196
500.5265, 516.2034
501.0086, 502.8477
501.4907, 518.9322
501.9728, 537.3145
502.4549, 542.4449
502.9370, 533.8704
503.4192, 525.6290
503.9013, 520.8386
504.3834, 518.4932
504.8655, 517.8435
505.3476, 520.0682
505.8297, 522.5490
506.3119, 526.8901
506.7940, 531.3675
507.2761, 530.7107
507.7582, 522.2133
508.2403, 513.2088
508.7224, 505.8739
509.2046, 499.9489
509.6867, 498.7321
510.1688, 503.4490
510.6509, 510.1885
511.1330, 513.9744
511.6151, 514.8998
512.0973, 516.4822
512.5794, 520.5248
513.0615, 525.1989
513.5436, 526.5411
514.0258, 524.6734
514.5079, 521.5939
514.9900, 518.0386
515.4721, 514.3865
515.9542, 511.2141
516.4363, 508.7702
516.9185, 506.3098
517.4006, 501.3459
517.8827, 496.2089
518.3648, 495.1113
518.8469, 504.0192
519.3290, 513.4347
519.8112, 519.5511
520.2933, 522.0856
520.7754, 522.9077
521.2575, 521.0150
521.7396, 518.3626
522.2217, 516.3782
522.7039, 515.7086
523.1860, 514.7508
523.6681, 513.7250
524.1502, 512.2524
524.6323, 508.7181
525.1144, 501.9407
525.5966, 496.5233
526.0787, 494.4063
526.5608, 495.5716
527.0429, 500.0890
527.5250, 508.8904
528.0071, 516.8337
528.4893, 514.6756
528.9714, 505.5746
529.4535, 503.1556
529.9356, 516.8208
530.4177, 533.7783
530.8998, 536.8233
531.3820, 527.7710
531.8641, 515.2126
532.3462, 498.8712
532.8283, 484.6378
533.3104, 478.4795
533.7925, 483.4239
534.2747, 489.5902
534.7568, 491.5909
535.2389, 492.9387
535.7210, 498.4129
536.2031, 521.0349
536.6852, 534.9283
537.1674, 529.5432
537.6495, 506.2932
538.1316, 493.0999
538.6137, 494.5497
539.0958, 500.2632
539.5779, 504.7593
540.0601, 508.5343
540.5422, 507.8857
541.0243, 500.6562
541.5064, 491.7997
541.9885, 491.5875
542.4706, 499.9329
542.9528, 505.9659
543.4349, 504.0460
543.9170, 497.0419
544.3991, 491.9755
544.8812, 488.7595
545.3633, 484.3908
545.8455, 471.4909
546.3276, 457.5732
546.8097, 453.8437
547.2918, 467.5655
547.7739, 483.3081
548.2560, 493.7474
548.7382, 499.6849
549.2203, 502.8575
549.7024, 499.7079
550.1845, 497.5689
550.6666, 500.4234
551.1487, 509.8101
551.6309, 515.6658
552.1130, 516.7062
552.5951, 515.0182
553.0772, 511.7599
553.5593, 505.6838
554.0414, 501.5918
554.5236, 500.9727
555.0057, 501.9258
555.4878, 499.1849
555.9699, 492.4113
556.4520, 485.7375
556.9341, 480.7310
557.4163, 477.4706
557.8984, 476.5382
558.3805, 478.0470
558.8626, 480.6877
559.3447, 483.8880
559.8268, 487.3054
560.3090, 490.2729
560.7911, 492.5211
561.2732, 494.4448
561.7553, 496.4456
562.2374, 498.3666
562.7195, 499.7177
563.2017, 500.2470
563.6838, 500.2332
564.1659, 499.3676
564.6480, 496.9893
565.1301, 496.6030
565.6122, 501.1311
566.0944, 505.7772
566.5765, 505.7206
567.0586, 497.8356
567.5407, 493.1623
568.0228, 494.5103
568.5049, 499.2325
568.9871, 498.2039
569.4692, 490.4226
569.9513, 485.1279
570.4334, 489.6352
570.9155, 500.9745
571.3976, 508.4944
571.8798, 511.8130
572.3619, 511.9029
572.8440, 507.6191
573.3261, 501.0454
573.8082, 495.9969
574.2903, 494.6064
574.7725, 493.7469
575.2546, 490.4222
575.7367, 485.9281
576.2188, 483.8237
576.7009, 489.8819
577.1830, 494.7719
577.6652, 493.5864
578.1473, 484.0710
578.6294, 476.8557
579.1115, 471.2603
579.5936, 468.7121
580.0757, 471.2636
580.5579, 481.6840
581.0400, 488.9736
581.5221, 491.0191
582.0042, 489.8689
582.4863, 490.6860
582.9684, 493.5471
583.4506, 496.0639
583.9327, 498.1789
584.4148, 498.9483
584.8969, 493.7117
585.3790, 482.1472
585.8611, 473.2953
586.3433, 479.1042
586.8254, 490.5204
587.3075, 494.4207
587.7896, 481.9673
588.2717, 470.7064
588.7538, 471.8602
589.2360, 480.4995
589.7181, 486.0717
590.2002, 481.0355
590.6823, 477.2236
591.1644, 479.5023
591.6465, 488.3333
592.1287, 494.8015
592.6108, 500.0576
593.0929, 501.4909
593.5750, 494.5672
594.0571, 476.6661
594.5392, 469.7440
595.0214, 479.0059
595.5035, 493.5204
595.9856, 493.4960
596.4677, 480.6214
596.9498, 468.6833
597.4319, 464.9966
597.9141, 465.0724
598.3962, 461.4222
598.8783, 454.6610
599.3604, 450.0897
599.8425, 452.1547
600.3246, 457.3078
600.8068, 462.0871
601.2889, 464.6905
601.7710, 470.1457
602.2531, 485.6350
602.7352, 503.0399
603.2173, 511.0457
603.6995, 501.9121
604.1816, 492.9925
604.6637, 486.3147
605.1458, 481.9123
605.6279, 481.4105
606.1100, 486.7648
606.5922, 489.8593
607.0743, 483.6226
607.5564, 469.3138
608.0385, 462.1050
608.5206, 463.1572
609.0027, 467.1003
609.4849, 469.4307
609.9670, 470.1634
610.4491, 469.0766
610.9312, 465.1397
611.4133, 460.7559
611.8954, 455.7496
612.3776, 451.5921
612.8597, 452.1797
613.3418, 466.2914
613.8239, 479.2172
614.3060, 482.5789
614.7881, 473.6891
615.2703, 470.3261
615.7524, 478.3294
616.2345, 487.2409
616.7166, 488.7572
617.1987, 479.2594
617.6808, 474.7981
618.1630, 477.5624
618.6451, 484.3396
619.1272, 491.1547
619.6093, 497.8762
620.0914, 499.3472
620.5735, 489.1673
621.0557, 475.1367
621.5378, 473.2505
622.0199, 481.9412
622.5020, 488.0317
622.9841, 477.5995
623.4662, 463.5904
623.9484, 459.3854
624.4305, 470.5737
624.9126, 477.9235
625.3947, 471.2831
625.8768, 458.7903
626.3589, 449.7513
626.8411, 441.9157
627.3232, 442.2441
627.8053, 456.2112
628.2874, 478.1914
628.7695, 488.5268
629.2516, 484.6079
629.7338, 478.4379
630.2159, 475.1049
630.6980, 474.1392
631.1801, 472.4535
631.6622, 470.0123
632.1443, 467.5234
632.6265, 465.4838
633.1086, 463.8842
633.5907, 462.6987
634.0728, 461.8571
634.5549, 461.5885
635.0370, 463.2561
635.5192, 465.3669
636.0013, 465.4248
636.4834, 459.7540
636.9655, 454.8845
637.4476, 451.3603
637.9297, 449.6563
638.4119, 454.7187
638.8940, 473.7943
639.3761, 488.9370
639.8582, 489.0827
640.3403, 471.4074
640.8224, 465.0147
641.3046, 471.8293
641.7867, 482.9232
642.2688, 490.2612
642.7509, 493.8005
643.2330, 493.2445
643.7151, 487.4037
644.1973, 479.6292
644.6794, 471.2350
645.1615, 463.6122
645.6436, 459.8687
646.1257, 467.6020
646.6078, 474.1190
647.0900, 469.8177
647.5721, 454.8358
648.0542, 448.0557
648.5363, 464.0160
649.0184, 478.4956
649.5005, 478.6352
649.9827, 456.8427
650.4648, 447.8264
650.9469, 456.2646
651.4290, 469.4301
651.9111, 469.7193
652.3932, 458.0291
652.8754, 450.0667
653.3575, 450.2970
653.8396, 454.8504
654.3217, 457.8826
654.8038, 460.2457
655.2859, 464.9621
655.7681, 480.3499
656.2502, 493.5414
656.7323, 491.9408
657.2144, 475.7188
657.6965, 464.2659
658.1786, 468.6957
658.6608, 476.0598
659.1429, 478.3349
659.6250, 472.9737
660.1071, 468.2861
660.5892, 464.8482
661.0714, 461.4105
661.5535, 455.3461
662.0356, 446.1367
662.5178, 441.2709
662.9999, 443.5367
663.4820, 449.2919
663.9641, 451.6833
664.4462, 451.2495
664.9283, 450.6388
665.4105, 449.6096
665.8926, 450.1667
666.3747, 456.8568
666.8568, 469.1594
667.3389, 475.9845
667.8210, 465.2506
668.3032, 452.4924
668.7853, 447.8301
669.2674, 456.7580
669.7495, 464.9500
670.2316, 473.8369
670.7137, 480.7441
671.1959, 480.8828
671.6780, 472.0659
672.1601, 469.4318
672.6422, 477.6482
673.1243, 490.7440
673.6064, 497.4451
674.0886, 498.1289
674.5707, 494.7458
675.0528, 484.4624
675.5349, 473.0396
676.0170, 466.7177
676.4991, 465.1982
676.9813, 465.0837
677.4634, 465.4457
677.9455, 466.1300
678.4276, 467.4741
678.9097, 470.7875
679.3918, 470.8259
679.8740, 465.3159
680.3561, 458.3773
680.8382, 453.7267
681.3203, 451.7253
681.8024, 450.4309
682.2845, 449.2274
682.7667, 449.2486
683.2488, 454.3925
683.7309, 463.5036
684.2130, 469.7713
684.6951, 468.4297
685.1772, 464.0627
685.6594, 461.7069
686.1415, 461.0431
686.6236, 460.6347
687.1057, 459.6305
687.5878, 458.7502
688.0699, 458.7642
688.5521, 460.2083
689.0342, 459.8239
689.5163, 455.2346
689.9984, 450.8656
690.4805, 450.1856
690.9626, 454.2270
691.4448, 457.7303
691.9269, 460.5637
692.4090, 462.3772
692.8911, 462.6752
693.3732, 461.4768
693.8553, 458.5966
694.3375, 452.3113
694.8196, 446.4551
695.3017, 446.1033
695.7838, 449.6977
696.2659, 452.8101
696.7480, 451.0343
697.2302, 450.4337
697.7123, 455.4708
698.1944, 466.5771
698.6765, 473.0347
699.1586, 471.4843
699.6407, 468.9106
700.1229, 469.9883
700.6050, 476.4007
701.0871, 474.6866
701.5692, 462.7545
702.0513, 449.6555
702.5334, 445.5936
703.0156, 448.8232
703.4977, 453.5967
703.9798, 459.7190
704.4619, 464.4036
704.9440, 464.7055
705.4261, 461.7806
705.9083, 457.6879
706.3904, 446.8100
706.8725, 441.6569
707.3546, 452.1795
707.8367, 473.8038
708.3188, 482.6091
708.8010, 470.3767
709.2831, 458.4520
709.7652, 455.2904
710.2473, 460.2707
710.7294, 461.1591
711.2115, 457.5305
711.6937, 453.5002
712.1758, 450.8446
712.6579, 450.4420
713.1400, 456.3643
713.6221, 470.3393
714.1042, 480.9664
714.5864, 477.2864
715.0685, 467.0351
715.5506, 458.7894
716.0327, 454.6231
716.5148, 452.5087
716.9969, 455.9049
717.4791, 459.9228
717.9612, 455.3895
718.4433, 436.1248
718.9254, 425.2578
719.4075, 430.8678
719.8896, 446.3462
720.3718, 451.1811
720.8539, 445.9706
721.3360, 441.2797
721.8181, 444.0915
722.3002, 450.1290
722.7823, 453.4095
723.2645, 454.1317
723.7466, 455.5736
724.2287, 461.2295
724.7108, 466.9562
725.1929, 470.2510
725.6750, 470.9023
726.1572, 468.2569
726.6393, 458.9271
727.1214, 449.8501
727.6035, 447.4617
728.0856, 453.3005
728.5677, 456.6503
729.0499, 456.4272
729.5320, 453.9197
730.0141, 449.5996
730.4962, 444.3989
730.9783, 441.5884
731.4604, 443.5483
731.9426, 446.4632
732.4247, 447.2062
732.9068, 446.4034
733.3889, 445.5377
733.8710, 443.8642
734.3531, 443.4854
734.8353, 446.3212
735.3174, 451.5919
735.7995, 453.7271
736.2816, 450.9459
736.7637, 448.9847
737.2458, 451.3704
737.7280, 457.4526
738.2101, 462.1066
738.6922, 465.4470
739.1743, 465.0377
739.6564, 451.9789
740.1385, 436.4886
740.6207, 436.7437
741.1028, 459.0182
741.5849, 476.5641
742.0670, 471.3741
742.5491, 456.9735
743.0313, 446.6138
743.5134, 439.9681
743.9955, 441.2296
744.4776, 455.5508
744.9597, 473.6505
745.4418, 480.5239
745.9240, 474.9960
746.4061, 470.2530
746.8882, 469.4480
747.3703, 471.1548
747.8524, 474.8112
748.3345, 479.2925
748.8167, 480.3244
749.2988, 472.9911
749.7809, 464.0170
750.2630, 456.9146
750.7451, 451.9409
751.2272, 449.5466
751.7094, 450.6163
752.1915, 453.7449
752.6736, 459.6472
753.1557, 468.6520
753.6378, 471.6377
754.1199, 467.4234
754.6021, 461.3889
755.0842, 456.5225
755.5663, 452.9345
756.0484, 451.2948
756.5305, 451.6940
757.0126, 453.3738
757.4948, 457.8533
757.9769, 462.2787
758.4590, 462.8253
758.9411, 455.9031
759.4232, 451.2981
759.9053, 455.6701
760.3875, 461.9022
760.8696, 461.2075
761.3517, 449.4487
761.8338, 440.8573
762.3159, 437.1241
762.7980, 437.4097
763.2802, 442.7064
763.7623, 452.0620
764.2444, 456.2058
764.7265, 448.1791
765.2086, 437.5372
765.6907, 435.2520
766.1729, 439.5965
766.6550, 445.6609
767.1371, 455.3823
767.6192, 462.4637
768.1013, 461.9521
768.5834, 454.6803
769.0656, 453.0155
769.5477, 459.5052
770.0298, 466.9636
770.5119, 473.6703
770.9940, 479.1965
771.4761, 476.8904
771.9583, 466.4376
772.4404, 455.9905
772.9225, 453.5639
773.4046, 454.4402
773.8867, 448.8547
774.3688, 434.4178
774.8510, 429.6216
775.3331, 458.3203
775.8152, 491.4158
776.2973, 504.4540
776.7794, 482.4144
777.2615, 467.2270
777.7437, 460.8389
778.2258, 458.8583
778.7079, 456.5994
779.1900, 454.0538
779.6721, 452.9940
780.1542, 454.1730
780.6364, 455.4483
781.1185, 451.5298
781.6006, 445.9398
782.0827, 446.1674
782.5648, 463.9545
783.0469, 476.8991
783.5291, 468.4900
784.0112, 448.3642
784.4933, 439.2031
784.9754, 451.4596
785.4575, 459.2172
785.9396, 455.4403
786.4218, 444.4541
786.9039, 441.3631
787.3860, 446.3809
787.8681, 449.4752
788.3502, 442.9763
788.8323, 433.5359
789.3145, 432.6072
789.7966, 438.7998
790.2787, 445.1886
790.7608, 447.9103
791.2429, 450.1392
791.7250, 455.2833
792.2072, 463.9192
792.6893, 464.2559
793.1714, 449.3656
793.6535, 436.6727
794.1356, 437.3146
794.6177, 451.0330
795.0999, 456.2995
795.5820, 452.5866
796.0641, 446.8776
796.5462, 444.1645
797.0283, 443.7142
797.5104, 445.3775
797.9926, 449.6528
798.4747, 451.7393
798.9568, 445.3398
799.4389, 438.1987
799.9210, 437.3849
800.4031, 449.1808
800.8853, 454.5012
801.3674, 451.6468
801.8495, 444.9010
802.3316, 436.7321
802.8137, 427.6480
803.2958, 426.7976
803.7780, 437.1263
804.2601, 450.4481
804.7422, 460.4774
805.2243, 466.5345
805.7064, 466.9566
806.1885, 455.5499
806.6707, 446.3628
807.1528, 445.6931
807.6349, 449.7773
808.1170, 451.8992
808.5991, 452.0243
809.0812, 449.4433
809.5634, 441.7526
810.0455, 433.7224
810.5276, 438.9507
811.0097, 455.3316
811.4918, 467.6463
811.9739, 469.3148
812.4561, 464.6110
812.9382, 452.6573
813.4203, 437.4394
813.9024, 430.4158
814.3845, 445.2756
814.8666, 458.5064
815.3488, 462.1633
815.8309, 457.8542
816.3130, 452.0513
816.7951, 443.9058
817.2772, 437.1697
817.7593, 433.4031
818.2415, 432.2629
818.7236, 433.2845
819.2057, 436.2900
819.6878, 440.0482
820.1699, 445.7280
820.6520, 450.3782
821.1342, 450.8635
821.6163, 447.1938
822.0984, 444.3833
822.5805, 443.7547
823.0626, 443.9431
823.5447, 445.1072
824.0269, 447.3031
824.5090, 445.2713
824.9911, 438.1209
825.4732, 432.3394
825.9553, 434.7186
826.4375, 441.3460
826.9196, 444.1937
827.4017, 442.8026
827.8839, 440.3323
828.3660, 435.8179
828.8481, 433.0060
829.3302, 435.5099
829.8123, 446.2163
830.2944, 453.7642
830.7766, 457.5678
831.2587, 459.0960
831.7408, 459.3369
832.2229, 458.2936
832.7050, 455.6072
833.1871, 451.0773
833.6693, 446.7186
834.1514, 444.8581
834.6335, 444.1272
835.1156, 442.8361
835.5977, 440.8580
836.0798, 437.5580
836.5620, 427.5779
837.0441, 419.5998
837.5262, 422.2370
838.0083, 442.4977
838.4904, 452.3338
838.9725, 448.4092
839.4547, 439.6344
839.9368, 436.4484
840.4189, 437.5217
840.9010, 437.7764
841.3831, 435.9623
841.8652, 434.3972
842.3474, 433.8331
842.8295, 435.0468
843.3116, 439.0565
843.7937, 450.3653
844.2758, 458.3799
844.7579, 463.3271
845.2401, 464.1661
845.7222, 458.4456
846.2043, 445.6640
846.6864, 432.4774
847.1685, 418.5457
847.6506, 408.6985
848.1328, 412.7329
848.6149, 425.0634
849.0970, 435.1669
849.5791, 441.3824
850.0612, 442.0899
850.5433, 431.3539
851.0255, 416.3272
851.5076, 408.1626
851.9897, 407.5139
852.4718, 413.4642
852.9539, 427.9248
853.4360, 445.7764
853.9182, 459.4646
854.4003, 468.8806
854.8824, 473.3837
855.3645, 472.2487
855.8466, 467.0442
856.3287, 453.8474
856.8109, 438.6289
857.2930, 431.7114
857.7751, 446.5622
858.2572, 456.4422
858.7393, 455.7490
859.2214, 449.1636
859.7036, 445.6809
860.1857, 445.5209
860.6678, 445.0704
861.1499, 442.7257
861.6320, 440.9425
862.1141, 447.8506
862.5963, 458.0897
863.0784, 459.0708
863.5605, 430.2233
864.0426, 408.3045
864.5247, 412.5147
865.0068, 432.9532
865.4890, 446.4824
865.9711, 452.7779
866.4532, 452.0313
866.9353, 440.4691
867.4174, 426.7304
867.8995, 432.6348
868.3817, 453.3739
868.8638, 467.1023
869.3459, 462.2319
869.8280, 451.5755
870.3101, 440.8578
870.7922, 432.0194
871.2744, 429.1640
871.7565, 440.4192
872.2386, 448.4342
872.7207, 450.0132
873.2028, 447.4966
873.6849, 446.7497
874.1671, 447.7749
874.6492, 444.9333
875.1313, 433.3737
875.6134, 422.0482
876.0955, 424.5132
876.5776, 435.8322
877.0598, 445.3643
877.5419, 451.1516
878.0240, 452.4896
878.5061, 446.6679
878.9882, 436.9878
879.4703, 428.1982
879.9525, 419.1286
880.4346, 417.2627
880.9167, 427.0926
881.3988, 440.3236
881.8809, 441.4539
882.3630, 433.8016
882.8452, 426.6569
883.3273, 422.4977
883.8094, 421.2572
884.2915, 424.0208
884.7736, 429.5267
885.2557, 435.5377
885.7379, 444.6445
886.2200, 447.9187
886.7021, 441.7009
887.1842, 432.0448
887.6663, 432.2680
888.1484, 440.2944
888.6306, 444.3923
889.1127, 438.6080
889.5948, 431.4378
890.0769, 430.8195
890.5590, 433.4051
891.0411, 433.6575
891.5233, 424.2791
892.0054, 421.0719
892.4875, 429.1128
892.9696, 440.8723
893.4517, 441.4466
893.9338, 431.1309
894.4160, 428.8886
894.8981, 441.9221
895.3802, 456.6786
895.8623, 458.2820
896.3444, 450.6734
896.8265, 440.1028
897.3087, 420.1928
897.7908, 409.4248
898.2729, 419.0801
898.7550, 435.4731
899.2371, 442.2061
899.7192, 437.7222
900.2014, 433.3213
900.6835, 429.9314
901.1656, 428.5975
901.6477, 433.0321
902.1298, 439.9735
902.6119, 443.0646
903.0941, 439.3993
903.5762, 434.6674
904.0583, 427.9321
904.5404, 423.2899
905.0225, 425.8750
905.5046, 439.5734
905.9868, 448.4563
906.4689, 451.5476
906.9510, 450.2077
907.4331, 442.4559
907.9152, 431.7574
908.3973, 428.9316
908.8795, 437.6250
909.3616, 444.1960
909.8437, 433.3981
910.3258, 420.7853
910.8079, 421.8931
911.2900, 446.3623
911.7722, 460.8459
912.2543, 463.7757
912.7364, 459.9733
913.2185, 450.3096
913.7006, 437.1102
914.1827, 431.5461
914.6649, 434.7604
915.1470, 438.7758
915.6291, 438.0113
916.1112, 435.2495
916.5933, 432.5789
917.0754, 430.2340
917.5576, 428.1373
918.0397, 425.8825
918.5218, 424.5336
919.0039, 425.7416
919.4860, 428.9846
919.9681, 427.5335
920.4503, 421.5198
920.9324, 417.6063
921.4145, 424.5750
921.8966, 432.9828
922.3787, 433.9137
922.8608, 426.7992
923.3430, 420.6637
923.8251, 413.4609
924.3072, 412.3997
924.7893, 423.4518
925.2714, 443.5691
925.7535, 452.7201
926.2357, 451.2497
926.7178, 447.1935
927.1999, 442.3495
927.6820, 439.5468
928.1641, 444.4660
928.6462, 454.6696
929.1284, 459.0170
929.6105, 444.9541
930.0926, 436.6744
930.5747, 444.3255
931.0568, 460.3463
931.5389, 454.9637
932.0211, 428.8509
932.5032, 409.8206
932.9853, 412.0746
933.4674, 422.4324
933.9495, 427.3516
934.4316, 428.9062
934.9138, 431.6866
935.3959, 441.4811
935.8780, 446.8594
936.3601, 444.7524
936.8422, 438.2897
937.3243, 431.8270
937.8065, 425.3600
938.2886, 423.8292
938.7707, 429.5617
939.2528, 437.3964
939.7349, 441.9438
940.2170, 444.3783
940.6992, 446.3617
941.1813, 446.2869
941.6634, 449.5963
942.1455, 464.0452
942.6276, 476.1464
943.1097, 468.3850
943.5919, 439.1865
944.0740, 424.3208
944.5561, 428.2100
945.0382, 438.0945
945.5203, 443.0545
946.0024, 445.2328
946.4846, 447.4047
946.9667, 450.3378
947.4488, 451.9387
947.9309, 452.8988
948.4130, 451.1145
948.8951, 443.8146
949.3773, 430.5819
949.8594, 423.4279
950.3415, 422.6525
950.8236, 424.7694
951.3057, 430.8279
951.7878, 436.0589
952.2700, 432.7361
952.7521, 421.1774
953.2342, 413.4339
953.7163, 417.1399
954.1984, 420.8210
954.6805, 419.8391
955.1627, 415.4785
955.6448, 415.8105
956.1269, 420.8159
956.6090, 427.1094
957.0911, 434.1676
957.5732, 440.6139
958.0554, 445.5649
958.5375, 448.7680
959.0196, 449.4532
959.5017, 443.4357
959.9838, 440.0818
960.4659, 442.1896
960.9481, 447.0972
961.4302, 449.4983
961.9123, 449.4207
962.3944, 447.7063
962.8765, 444.1623
963.3586, 440.1033
963.8408, 434.0478
964.3229, 429.3930
964.8050, 431.2769
965.2871, 451.6082
965.7692, 461.1248
966.2513, 453.4225
966.7335, 441.1148
967.2156, 437.8320
967.6977, 442.6903
968.1798, 445.8131
968.6619, 446.2737
969.1440, 444.9253
969.6262, 442.0673
970.1083, 437.9837
970.5904, 430.8893
971.0725, 418.0761
971.5546, 418.5087
972.0367, 442.2908
972.5189, 463.1331
973.0010, 463.5765
973.4831, 447.9063
973.9652, 439.7506
974.4473, 438.6318
974.9294, 440.2531
975.4116, 447.0957
975.8937, 451.1212
976.3758, 443.1667
976.8579, 425.8874
977.3400, 416.7500
977.8221, 418.0997
978.3043, 423.8425
978.7864, 433.9691
979.2685, 445.5410
979.7506, 452.5818
980.2327, 455.4835
980.7148, 456.0072
981.1970, 454.5094
981.6791, 451.2589
982.1612, 444.1865
982.6433, 436.3451
983.1254, 432.1758
983.6075, 431.9975
984.0897, 435.6163
984.5718, 444.5476
985.0539, 452.7570
985.5360, 450.3363
986.0181, 442.3969
986.5002, 440.8900
986.9824, 449.0643
987.4645, 454.4832
987.9466, 445.0828
988.4287, 436.4984
988.9108, 440.6358
989.3929, 459.1721
989.8751, 467.6049
990.3572, 464.9595
990.8393, 459.5860
991.3215, 457.5913
991.8036, 456.2050
992.2857, 448.6804
992.7678, 436.9697
993.2499, 432.2542
993.7321, 446.5784
994.2142, 459.5051
994.6963, 465.6266
995.1784, 465.8195
995.6605, 460.4552
996.1426, 449.7643
996.6248, 443.8947
997.1069, 448.4059
997.5890, 455.0406
998.0711, 455.6253
998.5532, 452.4006
999.0353, 448.9632
999.5175, 446.6580
999.9996, 442.9762
1000.482, 435.6295
1000.964, 430.0564
1001.446, 434.3335
1001.928, 446.4322
1002.410, 453.7318
1002.892, 454.7907
1003.374, 453.2560
1003.857, 448.7228
1004.339, 444.9395
1004.821, 445.8863
1005.303, 452.6503
1005.785, 456.1715
1006.267, 456.0680
1006.749, 453.6872
1007.231, 447.7148
1007.713, 440.8850
1008.196, 442.0796
1008.678, 449.1583
1009.160, 453.0937
1009.642, 445.2629
1010.124, 438.1202
1010.606, 438.5500
1011.088, 442.5581
1011.570, 441.1721
1012.052, 432.8272
1012.535, 431.6039
1013.017, 442.2629
1013.499, 454.8288
1013.981, 455.6142
1014.463, 450.5420
1014.945, 448.6355
1015.427, 453.6420
1015.909, 457.3045
1016.392, 457.5247
1016.874, 456.7960
1017.356, 457.7039
1017.838, 460.0017
1018.320, 456.0701
1018.802, 445.9816
1019.284, 437.6639
1019.766, 438.7424
1020.248, 442.2362
1020.731, 441.6523
1021.213, 437.5078
1021.695, 438.1336
1022.177, 447.1943
1022.659, 452.8146
1023.141, 450.0899
1023.623, 443.7200
1024.105, 444.5951
1024.588, 450.4367
1025.070, 454.1791
1025.552, 452.2488
1026.034, 449.5546
1026.516, 448.9606
1026.998, 448.2095
1027.480, 444.1175
1027.962, 435.2823
1028.444, 430.2079
1028.927, 429.2986
1029.409, 432.1548
1029.891, 442.5477
1030.373, 454.2387
1030.855, 457.2417
1031.337, 450.4985
1031.819, 448.5014
1032.301, 461.9060
1032.783, 471.4158
1033.266, 468.9849
1033.748, 457.7601
1034.230, 449.4522
1034.712, 444.0052
1035.194, 441.2049
1035.676, 441.7916
1036.158, 443.9290
1036.640, 445.8708
1037.123, 448.6495
1037.605, 454.9208
1038.087, 468.4605
1038.569, 474.3692
1039.051, 469.7447
1039.533, 462.0150
1040.015, 461.8705
1040.497, 464.5876
1040.979, 458.6380
1041.462, 441.3086
1041.944, 430.7192
1042.426, 442.1337
1042.908, 454.1542
1043.390, 454.6894
1043.872, 445.5045
1044.354, 446.2575
1044.836, 456.7305
1045.318, 463.3212
1045.801, 451.9110
1046.283, 439.9034
1046.765, 448.2186
1047.247, 467.7378
1047.729, 475.9295
1048.211, 461.7223
1048.693, 451.5843
1049.175, 448.6548
1049.658, 449.5446
1050.140, 450.0972
1050.622, 450.7616
1051.104, 453.6566
1051.586, 459.6675
1052.068, 463.0219
1052.550, 456.0135
1053.032, 449.8167
1053.515, 453.0312
1053.997, 465.3173
1054.479, 469.2092
1054.961, 464.4215
1055.443, 457.0983
1055.925, 447.6400
1056.407, 439.7596
1056.889, 437.1572
1057.371, 439.4149
1057.854, 445.6613
1058.336, 463.3275
1058.818, 472.6656
1059.300, 469.7573
1059.782, 461.2367
1060.264, 454.4029
1060.746, 449.7894
1061.228, 450.6425
1061.710, 458.3133
1062.193, 463.5849
1062.675, 457.7476
1063.157, 450.9487
1063.639, 451.4505
1064.121, 459.0184
1064.603, 455.0934
1065.085, 438.2527
1065.567, 428.1635
1066.050, 441.4038
1066.532, 460.9126
1067.014, 467.3850
1067.496, 464.5484
1067.978, 461.3278
1068.460, 458.8463
1068.942, 457.6246
1069.424, 457.9231
1069.906, 459.1165
1070.389, 459.6900
1070.871, 460.5031
1071.353, 466.0845
1071.835, 477.5995
1072.317, 484.7844
1072.799, 477.3776
1073.281, 468.0135
1073.763, 463.6297
1074.246, 464.0995
1074.728, 468.3310
1075.210, 476.4688
1075.692, 484.2711
1076.174, 491.5012
1076.656, 495.3958
1077.138, 491.5709
1077.620, 482.5273
1078.103, 472.7856
1078.585, 459.8680
1079.067, 452.3781
1079.549, 452.1545
1080.031, 454.2108
1080.513, 451.2870
1080.995, 446.5822
1081.477, 449.9508
1081.959, 462.0705
1082.442, 473.1490
1082.924, 480.1758
1083.406, 482.6548
1083.888, 479.3918
1084.370, 471.9820
1084.852, 466.4503
1085.334, 462.8601
1085.816, 462.9850
1086.298, 470.1219
1086.781, 476.3082
1087.263, 474.4816
1087.745, 467.0998
1088.227, 456.8362
1088.709, 438.0126
1089.191, 431.5313
1089.673, 439.8683
1090.155, 452.5060
1090.638, 462.7767
1091.120, 470.0746
1091.602, 473.5603
1092.084, 473.0778
1092.566, 467.7170
1093.048, 444.7144
1093.530, 433.1951
1094.012, 445.9768
1094.495, 470.6422
1094.977, 478.0746
1095.459, 470.6007
1095.941, 462.0117
1096.423, 454.5508
1096.905, 450.9463
1097.387, 458.3156
1097.869, 466.7181
1098.351, 465.5821
1098.833, 452.6123
1099.316, 450.2072
1099.798, 459.8223
1100.280, 467.0823
1100.762, 458.3725
1101.244, 445.6845
1101.726, 444.1122
1102.208, 450.6406
1102.690, 455.8336
1103.173, 454.5446
1103.655, 458.1883
1104.137, 470.9628
1104.619, 483.2012
1105.101, 478.2261
1105.583, 462.9440
1106.065, 455.4283
1106.547, 458.7261
1107.030, 462.3105
1107.512, 462.6047
1107.994, 460.6003
1108.476, 455.4865
1108.958, 448.6141
1109.440, 447.4240
1109.922, 451.6585
1110.404, 458.3025
1110.886, 468.8416
1111.369, 477.0437
1111.851, 477.4436
1112.333, 472.9372
1112.815, 466.8971
1113.297, 457.3514
1113.779, 454.9922
1114.261, 461.4272
1114.743, 466.7627
1115.225, 459.5422
1115.708, 448.0449
1116.190, 443.6621
1116.672, 445.7633
1117.154, 445.9465
1117.636, 439.6233
1118.118, 436.2794
1118.600, 437.6746
1119.082, 443.2311
1119.565, 454.4893
1120.047, 468.7838
1120.529, 479.9955
1121.011, 487.7399
1121.493, 488.0923
1121.975, 471.0175
1122.457, 454.0418
1122.939, 446.1837
1123.422, 447.0823
1123.904, 457.1658
1124.386, 475.0842
1124.868, 486.4700
1125.350, 478.9618
1125.832, 467.8032
1126.314, 460.8469
1126.796, 457.0439
1127.278, 453.8793
1127.760, 450.5907
1128.243, 453.0965
1128.725, 463.1525
1129.207, 470.3334
1129.689, 461.6400
1130.171, 447.6211
1130.653, 438.7661
1131.135, 435.7526
1131.617, 435.6583
1132.100, 438.5793
1132.582, 443.1202
1133.064, 449.5824
1133.546, 456.3297
1134.028, 459.1543
1134.510, 460.5962
1134.992, 467.3434
1135.474, 485.9748
1135.957, 493.2311
1136.439, 477.3347
1136.921, 458.5770
1137.403, 447.5003
1137.885, 443.5402
1138.367, 447.0655
1138.849, 456.3456
1139.331, 462.5480
1139.813, 458.1704
1140.296, 453.1447
1140.778, 450.3037
1141.260, 449.8236
1141.742, 453.2952
1142.224, 460.8668
1142.706, 463.7634
1143.188, 461.0940
1143.670, 457.8814
1144.152, 458.7690
1144.635, 460.0157
1145.117, 457.9663
1145.599, 453.3298
1146.081, 451.8482
1146.563, 454.2396
1147.045, 455.6088
1147.527, 454.6272
1148.009, 451.9854
1148.492, 445.3428
1148.974, 439.0733
1149.456, 439.4537
1149.938, 450.3843
1150.420, 458.2957
1150.902, 462.5578
1151.384, 464.9139
1151.866, 466.1532
1152.349, 466.2756
1152.831, 464.7617
1153.313, 462.1415
1153.795, 459.8329
1154.277, 457.7428
1154.759, 457.4077
1155.241, 461.0263
1155.723, 463.1293
1156.205, 453.5266
1156.688, 437.8828
1157.170, 438.2581
1157.652, 454.4325
1158.134, 466.5838
1158.616, 461.2878
1159.098, 454.0530
1159.580, 450.0406
1160.062, 448.2467
1160.544, 445.4826
1161.027, 442.4209
1161.509, 445.3897
1161.991, 457.4147
1162.473, 465.9984
1162.955, 454.3871
1163.437, 443.9506
1163.919, 453.6145
1164.401, 481.1821
1164.884, 490.1180
1165.366, 480.7948
1165.848, 470.4840
1166.330, 467.5569
1166.812, 465.2011
1167.294, 455.3222
1167.776, 443.8144
1168.258, 439.4514
1168.740, 444.8613
1169.223, 447.3315
1169.705, 446.2860
1170.187, 446.8385
1170.669, 456.2061
1171.151, 466.4749
1171.633, 468.2281
1172.115, 463.5149
1172.597, 461.1799
1173.079, 464.1954
1173.562, 462.4185
1174.044, 452.8459
1174.526, 444.0102
1175.008, 449.2983
1175.490, 459.6812
1175.972, 460.4947
1176.454, 450.2085
1176.936, 446.2067
1177.419, 454.0555
1177.901, 460.4685
1178.383, 461.5797
1178.865, 459.0717
1179.347, 455.3029
1179.829, 450.4890
1180.311, 444.1539
1180.793, 434.3252
1181.276, 429.9431
1181.758, 434.2961
1182.240, 441.2566
1182.722, 448.4926
1183.204, 455.4964
1183.686, 461.8843
1184.168, 466.7028
1184.650, 466.4654
1185.132, 455.5824
1185.615, 444.6292
1186.097, 431.7617
1186.579, 424.4148
1187.061, 433.0165
1187.543, 454.2031
1188.025, 470.5945
1188.507, 481.3266
1188.989, 485.2480
1189.471, 473.5630
1189.954, 464.7070
1190.436, 468.4897
1190.918, 477.4404
1191.400, 479.5186
1191.882, 475.1957
1192.364, 465.5231
1192.846, 449.9724
1193.328, 440.7522
1193.811, 451.3479
1194.293, 465.6763
1194.775, 476.1490
1195.257, 482.0671
1195.739, 478.2058
1196.221, 465.4148
1196.703, 456.0963
1197.185, 454.0981
1197.667, 455.4529
1198.150, 460.7059
1198.632, 465.2613
1199.114, 464.2345
1199.596, 457.6926
1200.078, 456.6546
1200.560, 461.0866
1201.042, 463.3741
1201.524, 458.2616
1202.006, 451.8089
1202.489, 446.2430
1202.971, 443.4882
1203.453, 446.9830
1203.935, 459.1292
1204.417, 463.5234
1204.899, 459.5064
1205.381, 456.0323
1205.863, 462.0603
1206.346, 468.9415
1206.828, 468.4784
1207.310, 463.1683
1207.792, 459.9358
1208.274, 458.7928
1208.756, 461.5002
1209.238, 469.1093
1209.720, 474.1429
1210.203, 466.6104
1210.685, 455.5490
1211.167, 447.9301
1211.649, 444.7745
1212.131, 448.9411
1212.613, 463.9466
1213.095, 467.5922
1213.577, 452.0515
1214.059, 435.6063
1214.542, 444.6182
1215.024, 460.1805
1215.506, 458.4471
1215.988, 434.4114
1216.470, 427.5588
1216.952, 441.6930
1217.434, 454.4015
1217.916, 457.0551
1218.398, 455.1663
1218.881, 454.7304
1219.363, 454.6071
1219.845, 453.0620
1220.327, 449.3419
1220.809, 445.2612
1221.291, 439.7679
1221.773, 439.2624
1222.255, 452.2991
1222.738, 467.4835
1223.220, 466.4899
1223.702, 457.2755
1224.184, 456.6125
1224.666, 476.0864
1225.148, 478.9337
1225.630, 460.4023
1226.112, 444.0352
1226.594, 456.9109
1227.077, 477.0550
1227.559, 471.7363
1228.041, 449.1729
1228.523, 440.1605
1229.005, 453.5283
1229.487, 464.2826
1229.969, 470.4632
1230.451, 471.6010
1230.933, 461.4433
1231.416, 449.8409
1231.898, 451.7344
1232.380, 465.4518
1232.862, 469.6012
1233.344, 458.0730
1233.826, 453.6607
1234.308, 462.6578
1234.790, 473.7725
1235.273, 471.6626
1235.755, 464.2774
1236.237, 460.5113
1236.719, 461.5833
1237.201, 465.6257
1237.683, 473.7782
1238.165, 480.1020
1238.647, 483.2862
1239.130, 482.4604
1239.612, 471.7551
1240.094, 458.8171
1240.576, 455.0158
1241.058, 465.0902
1241.540, 464.9006
1242.022, 451.4797
1242.504, 442.0532
1242.986, 446.5018
1243.469, 455.3170
1243.951, 456.9741
1244.433, 454.8016
1244.915, 453.8800
1245.397, 455.4757
1245.879, 456.4331
1246.361, 457.0019
1246.843, 455.1807
1247.326, 444.2940
1247.808, 435.4806
1248.290, 446.9035
1248.772, 467.9302
1249.254, 476.3868
1249.736, 466.7267
1250.218, 460.4824
1250.700, 458.2265
1251.182, 459.0759
1251.665, 465.2788
1252.147, 471.7180
1252.629, 473.1684
1253.111, 470.9864
1253.593, 469.7757
1254.075, 470.9575
1254.557, 464.2434
1255.039, 447.5756
1255.521, 435.1591
1256.004, 444.6887
1256.486, 458.7462
1256.968, 462.9086
1257.450, 459.2969
1257.932, 457.5824
1258.414, 458.0739
1258.896, 457.2366
1259.378, 454.4105
1259.861, 451.5495
1260.343, 448.1492
1260.825, 447.3469
1261.307, 454.6417
1261.789, 466.5692
1262.271, 470.4792
1262.753, 466.4198
1263.235, 462.6040
1263.718, 460.8352
1264.200, 459.7592
1264.682, 457.7371
1265.164, 456.6705
1265.646, 458.4747
1266.128, 462.3382
1266.610, 464.5411
1267.092, 465.1721
1267.574, 464.8094
1268.057, 463.3982
1268.539, 461.8215
1269.021, 460.2501
1269.503, 459.0674
1269.985, 458.4528
1270.467, 458.3798
1270.949, 459.5823
1271.431, 461.4427
1271.913, 460.3698
1272.396, 452.2474
1272.878, 447.6367
1273.360, 454.5713
1273.842, 463.4621
1274.324, 469.2032
1274.806, 472.0934
1275.288, 474.6813
1275.770, 475.8466
1276.253, 471.1626
1276.735, 452.7035
1277.217, 438.8722
1277.699, 433.1591
1278.181, 433.3228
1278.663, 440.1902
1279.145, 451.1642
1279.627, 458.2455
1280.109, 462.0135
1280.592, 464.5663
1281.074, 467.3657
1281.556, 467.5979
1282.038, 464.4286
1282.520, 460.1918
1283.002, 455.9565
1283.484, 452.5121
1283.966, 451.6505
1284.448, 452.9693
1284.931, 455.0897
1285.413, 460.1469
1285.895, 459.3537
1286.377, 448.9923
1286.859, 443.7677
1287.341, 467.4115
1287.823, 497.9931
1288.305, 505.7481
1288.788, 493.7958
1289.270, 479.9344
1289.752, 463.7213
1290.234, 454.2868
1290.716, 453.3927
1291.198, 455.3540
1291.680, 453.9508
1292.162, 453.4870
##END=



