##NAMES=Zircon
##RRUFFID=R150083
##IDEAL CHEMISTRY=Zr^4+^SiO_4_
##LOCALITY=unknown
##OWNER=RRUFF
##SOURCE=Michael Scott
##DESCRIPTION=Green tetragonal prismatic crystal
##STATUS=The identification of this mineral has been determined only by Raman spectroscopy
##URL=rruff.info/R150083
8.930109e+001, 0.000000e+000
8.978320e+001, 4.396529e+003
9.026532e+001, 4.379401e+003
9.074744e+001, 4.382068e+003
9.122955e+001, 4.414021e+003
9.171167e+001, 4.457399e+003
9.219379e+001, 4.489826e+003
9.267590e+001, 4.514100e+003
9.315802e+001, 4.528203e+003
9.364014e+001, 4.525680e+003
9.412225e+001, 4.512137e+003
9.460437e+001, 4.501587e+003
9.508649e+001, 4.500627e+003
9.556860e+001, 4.501975e+003
9.605072e+001, 4.490927e+003
9.653284e+001, 4.470702e+003
9.701495e+001, 4.449515e+003
9.749707e+001, 4.433104e+003
9.797919e+001, 4.421018e+003
9.846130e+001, 4.413099e+003
9.894342e+001, 4.409756e+003
9.942554e+001, 4.410651e+003
9.990765e+001, 4.412692e+003
1.003898e+002, 4.416354e+003
1.008719e+002, 4.420238e+003
1.013540e+002, 4.422205e+003
1.018361e+002, 4.421916e+003
1.023182e+002, 4.421161e+003
1.028004e+002, 4.419761e+003
1.032825e+002, 4.416237e+003
1.037646e+002, 4.419105e+003
1.042467e+002, 4.429884e+003
1.047288e+002, 4.446248e+003
1.052109e+002, 4.462181e+003
1.056931e+002, 4.474734e+003
1.061752e+002, 4.491618e+003
1.066573e+002, 4.517146e+003
1.071394e+002, 4.559402e+003
1.076215e+002, 4.596766e+003
1.081036e+002, 4.629817e+003
1.085858e+002, 4.658461e+003
1.090679e+002, 4.680314e+003
1.095500e+002, 4.689207e+003
1.100321e+002, 4.696417e+003
1.105142e+002, 4.707890e+003
1.109963e+002, 4.726815e+003
1.114785e+002, 4.746511e+003
1.119606e+002, 4.767145e+003
1.124427e+002, 4.788661e+003
1.129248e+002, 4.808120e+003
1.134069e+002, 4.824093e+003
1.138890e+002, 4.838439e+003
1.143712e+002, 4.852839e+003
1.148533e+002, 4.866585e+003
1.153354e+002, 4.881270e+003
1.158175e+002, 4.898702e+003
1.162996e+002, 4.919662e+003
1.167817e+002, 4.937255e+003
1.172639e+002, 4.948313e+003
1.177460e+002, 4.955058e+003
1.182281e+002, 4.960290e+003
1.187102e+002, 4.965229e+003
1.191923e+002, 4.968806e+003
1.196744e+002, 4.969228e+003
1.201566e+002, 4.965207e+003
1.206387e+002, 4.962800e+003
1.211208e+002, 4.965980e+003
1.216029e+002, 4.973337e+003
1.220850e+002, 4.982147e+003
1.225671e+002, 4.990742e+003
1.230493e+002, 5.000002e+003
1.235314e+002, 5.011839e+003
1.240135e+002, 5.028257e+003
1.244956e+002, 5.042623e+003
1.249777e+002, 5.047561e+003
1.254598e+002, 5.044435e+003
1.259420e+002, 5.038544e+003
1.264241e+002, 5.029629e+003
1.269062e+002, 5.020584e+003
1.273883e+002, 5.017278e+003
1.278704e+002, 5.022482e+003
1.283525e+002, 5.031758e+003
1.288347e+002, 5.039705e+003
1.293168e+002, 5.046271e+003
1.297989e+002, 5.050480e+003
1.302810e+002, 5.049547e+003
1.307631e+002, 5.045008e+003
1.312452e+002, 5.043502e+003
1.317274e+002, 5.048511e+003
1.322095e+002, 5.056845e+003
1.326916e+002, 5.059373e+003
1.331737e+002, 5.055593e+003
1.336558e+002, 5.049826e+003
1.341379e+002, 5.046076e+003
1.346201e+002, 5.044352e+003
1.351022e+002, 5.042725e+003
1.355843e+002, 5.040054e+003
1.360664e+002, 5.036799e+003
1.365485e+002, 5.036622e+003
1.370306e+002, 5.039858e+003
1.375128e+002, 5.045431e+003
1.379949e+002, 5.052283e+003
1.384770e+002, 5.060490e+003
1.389591e+002, 5.069773e+003
1.394412e+002, 5.081381e+003
1.399233e+002, 5.095728e+003
1.404055e+002, 5.104214e+003
1.408876e+002, 5.105413e+003
1.413697e+002, 5.101988e+003
1.418518e+002, 5.097804e+003
1.423339e+002, 5.091889e+003
1.428160e+002, 5.087270e+003
1.432982e+002, 5.085323e+003
1.437803e+002, 5.087058e+003
1.442624e+002, 5.088282e+003
1.447445e+002, 5.088964e+003
1.452266e+002, 5.089158e+003
1.457087e+002, 5.088805e+003
1.461909e+002, 5.086674e+003
1.466730e+002, 5.085650e+003
1.471551e+002, 5.087128e+003
1.476372e+002, 5.093876e+003
1.481193e+002, 5.098560e+003
1.486014e+002, 5.100212e+003
1.490836e+002, 5.099743e+003
1.495657e+002, 5.100261e+003
1.500478e+002, 5.102590e+003
1.505299e+002, 5.105257e+003
1.510120e+002, 5.107626e+003
1.514941e+002, 5.108525e+003
1.519763e+002, 5.110378e+003
1.524584e+002, 5.113942e+003
1.529405e+002, 5.118719e+003
1.534226e+002, 5.122433e+003
1.539047e+002, 5.123107e+003
1.543868e+002, 5.123776e+003
1.548690e+002, 5.126083e+003
1.553511e+002, 5.134483e+003
1.558332e+002, 5.139939e+003
1.563153e+002, 5.139607e+003
1.567974e+002, 5.134200e+003
1.572795e+002, 5.129513e+003
1.577617e+002, 5.127190e+003
1.582438e+002, 5.125911e+003
1.587259e+002, 5.124737e+003
1.592080e+002, 5.121544e+003
1.596901e+002, 5.120384e+003
1.601722e+002, 5.123896e+003
1.606544e+002, 5.131830e+003
1.611365e+002, 5.138344e+003
1.616186e+002, 5.139291e+003
1.621007e+002, 5.138700e+003
1.625828e+002, 5.140307e+003
1.630649e+002, 5.148020e+003
1.635471e+002, 5.155826e+003
1.640292e+002, 5.161190e+003
1.645113e+002, 5.163971e+003
1.649934e+002, 5.164904e+003
1.654755e+002, 5.162258e+003
1.659576e+002, 5.158415e+003
1.664398e+002, 5.156364e+003
1.669219e+002, 5.157994e+003
1.674040e+002, 5.161167e+003
1.678861e+002, 5.165013e+003
1.683682e+002, 5.169583e+003
1.688503e+002, 5.173333e+003
1.693325e+002, 5.174353e+003
1.698146e+002, 5.174043e+003
1.702967e+002, 5.174644e+003
1.707788e+002, 5.177979e+003
1.712609e+002, 5.182286e+003
1.717430e+002, 5.186416e+003
1.722252e+002, 5.190485e+003
1.727073e+002, 5.193173e+003
1.731894e+002, 5.192069e+003
1.736715e+002, 5.188688e+003
1.741536e+002, 5.186459e+003
1.746357e+002, 5.186835e+003
1.751179e+002, 5.189293e+003
1.756000e+002, 5.193516e+003
1.760821e+002, 5.199602e+003
1.765642e+002, 5.206509e+003
1.770463e+002, 5.214281e+003
1.775284e+002, 5.222305e+003
1.780106e+002, 5.228588e+003
1.784927e+002, 5.230807e+003
1.789748e+002, 5.230927e+003
1.794569e+002, 5.231813e+003
1.799390e+002, 5.233528e+003
1.804211e+002, 5.237002e+003
1.809033e+002, 5.244356e+003
1.813854e+002, 5.254980e+003
1.818675e+002, 5.265641e+003
1.823496e+002, 5.273620e+003
1.828317e+002, 5.280329e+003
1.833138e+002, 5.289939e+003
1.837960e+002, 5.303339e+003
1.842781e+002, 5.318128e+003
1.847602e+002, 5.329915e+003
1.852423e+002, 5.339237e+003
1.857244e+002, 5.349822e+003
1.862065e+002, 5.365583e+003
1.866887e+002, 5.384826e+003
1.871708e+002, 5.401171e+003
1.876529e+002, 5.413186e+003
1.881350e+002, 5.423435e+003
1.886171e+002, 5.435456e+003
1.890992e+002, 5.449333e+003
1.895814e+002, 5.464938e+003
1.900635e+002, 5.482690e+003
1.905456e+002, 5.502561e+003
1.910277e+002, 5.522911e+003
1.915098e+002, 5.544310e+003
1.919919e+002, 5.565225e+003
1.924741e+002, 5.580537e+003
1.929562e+002, 5.589877e+003
1.934383e+002, 5.600421e+003
1.939204e+002, 5.617539e+003
1.944025e+002, 5.640868e+003
1.948846e+002, 5.664331e+003
1.953668e+002, 5.687292e+003
1.958489e+002, 5.709898e+003
1.963310e+002, 5.731660e+003
1.968131e+002, 5.752155e+003
1.972952e+002, 5.774771e+003
1.977773e+002, 5.804131e+003
1.982595e+002, 5.840409e+003
1.987416e+002, 5.872013e+003
1.992237e+002, 5.896781e+003
1.997058e+002, 5.916400e+003
2.001879e+002, 5.934674e+003
2.006700e+002, 5.951702e+003
2.011522e+002, 5.967953e+003
2.016343e+002, 5.984796e+003
2.021164e+002, 6.002771e+003
2.025985e+002, 6.016204e+003
2.030806e+002, 6.024243e+003
2.035627e+002, 6.027298e+003
2.040449e+002, 6.025780e+003
2.045270e+002, 6.018847e+003
2.050091e+002, 6.009966e+003
2.054912e+002, 6.001062e+003
2.059733e+002, 5.991958e+003
2.064554e+002, 5.983964e+003
2.069376e+002, 5.978059e+003
2.074197e+002, 5.973155e+003
2.079018e+002, 5.964071e+003
2.083839e+002, 5.949101e+003
2.088660e+002, 5.934343e+003
2.093481e+002, 5.924349e+003
2.098303e+002, 5.919956e+003
2.103124e+002, 5.916774e+003
2.107945e+002, 5.914995e+003
2.112766e+002, 5.914085e+003
2.117587e+002, 5.911192e+003
2.122408e+002, 5.905166e+003
2.127230e+002, 5.899639e+003
2.132051e+002, 5.897191e+003
2.136872e+002, 5.898678e+003
2.141693e+002, 5.899980e+003
2.146514e+002, 5.900134e+003
2.151335e+002, 5.899618e+003
2.156157e+002, 5.901296e+003
2.160978e+002, 5.906296e+003
2.165799e+002, 5.911088e+003
2.170620e+002, 5.913297e+003
2.175441e+002, 5.912177e+003
2.180262e+002, 5.910303e+003
2.185084e+002, 5.907615e+003
2.189905e+002, 5.904288e+003
2.194726e+002, 5.901689e+003
2.199547e+002, 5.900828e+003
2.204368e+002, 5.899055e+003
2.209189e+002, 5.894997e+003
2.214011e+002, 5.889077e+003
2.218832e+002, 5.879854e+003
2.223653e+002, 5.866358e+003
2.228474e+002, 5.849584e+003
2.233295e+002, 5.833234e+003
2.238116e+002, 5.818591e+003
2.242938e+002, 5.803034e+003
2.247759e+002, 5.784641e+003
2.252580e+002, 5.761898e+003
2.257401e+002, 5.740390e+003
2.262222e+002, 5.721287e+003
2.267043e+002, 5.703647e+003
2.271865e+002, 5.682387e+003
2.276686e+002, 5.656146e+003
2.281507e+002, 5.628832e+003
2.286328e+002, 5.602680e+003
2.291149e+002, 5.577315e+003
2.295970e+002, 5.554151e+003
2.300792e+002, 5.533888e+003
2.305613e+002, 5.515957e+003
2.310434e+002, 5.498575e+003
2.315255e+002, 5.481011e+003
2.320076e+002, 5.465563e+003
2.324897e+002, 5.454029e+003
2.329719e+002, 5.448398e+003
2.334540e+002, 5.442505e+003
2.339361e+002, 5.436036e+003
2.344182e+002, 5.429194e+003
2.349003e+002, 5.422271e+003
2.353824e+002, 5.414194e+003
2.358646e+002, 5.407577e+003
2.363467e+002, 5.403753e+003
2.368288e+002, 5.403393e+003
2.373109e+002, 5.404175e+003
2.377930e+002, 5.405953e+003
2.382751e+002, 5.408725e+003
2.387573e+002, 5.412811e+003
2.392394e+002, 5.419582e+003
2.397215e+002, 5.425447e+003
2.402036e+002, 5.428497e+003
2.406857e+002, 5.426712e+003
2.411678e+002, 5.426424e+003
2.416500e+002, 5.427821e+003
2.421321e+002, 5.430585e+003
2.426142e+002, 5.434215e+003
2.430963e+002, 5.439647e+003
2.435784e+002, 5.444521e+003
2.440605e+002, 5.447600e+003
2.445427e+002, 5.447798e+003
2.450248e+002, 5.449230e+003
2.455069e+002, 5.452751e+003
2.459890e+002, 5.457256e+003
2.464711e+002, 5.460091e+003
2.469532e+002, 5.460263e+003
2.474354e+002, 5.460625e+003
2.479175e+002, 5.462417e+003
2.483996e+002, 5.466290e+003
2.488817e+002, 5.469735e+003
2.493638e+002, 5.472494e+003
2.498459e+002, 5.475107e+003
2.503281e+002, 5.478620e+003
2.508102e+002, 5.483682e+003
2.512923e+002, 5.488676e+003
2.517744e+002, 5.492834e+003
2.522565e+002, 5.495496e+003
2.527386e+002, 5.500226e+003
2.532208e+002, 5.507868e+003
2.537029e+002, 5.516967e+003
2.541850e+002, 5.525382e+003
2.546671e+002, 5.532794e+003
2.551492e+002, 5.540029e+003
2.556313e+002, 5.547265e+003
2.561135e+002, 5.554456e+003
2.565956e+002, 5.561061e+003
2.570777e+002, 5.566340e+003
2.575598e+002, 5.571452e+003
2.580419e+002, 5.577960e+003
2.585240e+002, 5.585977e+003
2.590062e+002, 5.594826e+003
2.594883e+002, 5.605020e+003
2.599704e+002, 5.616632e+003
2.604525e+002, 5.625011e+003
2.609346e+002, 5.628263e+003
2.614167e+002, 5.630536e+003
2.618989e+002, 5.637265e+003
2.623810e+002, 5.650823e+003
2.628631e+002, 5.662479e+003
2.633452e+002, 5.669347e+003
2.638273e+002, 5.671635e+003
2.643094e+002, 5.677177e+003
2.647916e+002, 5.687499e+003
2.652737e+002, 5.699024e+003
2.657558e+002, 5.707874e+003
2.662379e+002, 5.712484e+003
2.667200e+002, 5.719874e+003
2.672021e+002, 5.732929e+003
2.676843e+002, 5.750638e+003
2.681664e+002, 5.762890e+003
2.686485e+002, 5.767688e+003
2.691306e+002, 5.771027e+003
2.696127e+002, 5.777992e+003
2.700948e+002, 5.789253e+003
2.705770e+002, 5.800550e+003
2.710591e+002, 5.810961e+003
2.715412e+002, 5.820638e+003
2.720233e+002, 5.830896e+003
2.725054e+002, 5.841544e+003
2.729875e+002, 5.852571e+003
2.734697e+002, 5.864288e+003
2.739518e+002, 5.877104e+003
2.744339e+002, 5.888208e+003
2.749160e+002, 5.896734e+003
2.753981e+002, 5.903644e+003
2.758802e+002, 5.912083e+003
2.763624e+002, 5.922198e+003
2.768445e+002, 5.932977e+003
2.773266e+002, 5.944493e+003
2.778087e+002, 5.956992e+003
2.782908e+002, 5.966712e+003
2.787729e+002, 5.972547e+003
2.792551e+002, 5.976483e+003
2.797372e+002, 5.983291e+003
2.802193e+002, 5.993541e+003
2.807014e+002, 6.003308e+003
2.811835e+002, 6.009944e+003
2.816656e+002, 6.013521e+003
2.821478e+002, 6.018298e+003
2.826299e+002, 6.024107e+003
2.831120e+002, 6.031864e+003
2.835941e+002, 6.044134e+003
2.840762e+002, 6.061208e+003
2.845583e+002, 6.077949e+003
2.850405e+002, 6.091620e+003
2.855226e+002, 6.102637e+003
2.860047e+002, 6.115646e+003
2.864868e+002, 6.131519e+003
2.869689e+002, 6.146527e+003
2.874510e+002, 6.154095e+003
2.879332e+002, 6.154612e+003
2.884153e+002, 6.156441e+003
2.888974e+002, 6.162792e+003
2.893795e+002, 6.172971e+003
2.898616e+002, 6.185092e+003
2.903438e+002, 6.199421e+003
2.908259e+002, 6.213702e+003
2.913080e+002, 6.225501e+003
2.917901e+002, 6.234950e+003
2.922722e+002, 6.243481e+003
2.927543e+002, 6.250795e+003
2.932365e+002, 6.257732e+003
2.937186e+002, 6.266206e+003
2.942007e+002, 6.276151e+003
2.946828e+002, 6.287133e+003
2.951649e+002, 6.299982e+003
2.956470e+002, 6.313701e+003
2.961292e+002, 6.325188e+003
2.966113e+002, 6.332524e+003
2.970934e+002, 6.338312e+003
2.975755e+002, 6.346916e+003
2.980576e+002, 6.358197e+003
2.985397e+002, 6.369956e+003
2.990219e+002, 6.381144e+003
2.995040e+002, 6.391791e+003
2.999861e+002, 6.401409e+003
3.004682e+002, 6.409188e+003
3.009503e+002, 6.417534e+003
3.014324e+002, 6.430618e+003
3.019146e+002, 6.447329e+003
3.023967e+002, 6.463412e+003
3.028788e+002, 6.474908e+003
3.033609e+002, 6.484488e+003
3.038430e+002, 6.496087e+003
3.043251e+002, 6.510729e+003
3.048073e+002, 6.525508e+003
3.052894e+002, 6.535616e+003
3.057715e+002, 6.543524e+003
3.062536e+002, 6.555620e+003
3.067357e+002, 6.579616e+003
3.072178e+002, 6.606891e+003
3.077000e+002, 6.627916e+003
3.081821e+002, 6.641422e+003
3.086642e+002, 6.652972e+003
3.091463e+002, 6.666015e+003
3.096284e+002, 6.679724e+003
3.101105e+002, 6.693065e+003
3.105927e+002, 6.703257e+003
3.110748e+002, 6.714352e+003
3.115569e+002, 6.730785e+003
3.120390e+002, 6.752566e+003
3.125211e+002, 6.772789e+003
3.130032e+002, 6.786428e+003
3.134854e+002, 6.797243e+003
3.139675e+002, 6.809042e+003
3.144496e+002, 6.823197e+003
3.149317e+002, 6.838683e+003
3.154138e+002, 6.856565e+003
3.158959e+002, 6.876220e+003
3.163781e+002, 6.894014e+003
3.168602e+002, 6.905892e+003
3.173423e+002, 6.916677e+003
3.178244e+002, 6.929984e+003
3.183065e+002, 6.948693e+003
3.187886e+002, 6.967065e+003
3.192708e+002, 6.981686e+003
3.197529e+002, 6.994202e+003
3.202350e+002, 7.009351e+003
3.207171e+002, 7.029713e+003
3.211992e+002, 7.051870e+003
3.216813e+002, 7.074159e+003
3.221635e+002, 7.096278e+003
3.226456e+002, 7.118450e+003
3.231277e+002, 7.140523e+003
3.236098e+002, 7.162588e+003
3.240919e+002, 7.184936e+003
3.245740e+002, 7.206939e+003
3.250562e+002, 7.229471e+003
3.255383e+002, 7.252902e+003
3.260204e+002, 7.277507e+003
3.265025e+002, 7.302001e+003
3.269846e+002, 7.326306e+003
3.274667e+002, 7.350509e+003
3.279489e+002, 7.375032e+003
3.284310e+002, 7.401554e+003
3.289131e+002, 7.426789e+003
3.293952e+002, 7.449657e+003
3.298773e+002, 7.470112e+003
3.303594e+002, 7.492854e+003
3.308416e+002, 7.517554e+003
3.313237e+002, 7.544617e+003
3.318058e+002, 7.574517e+003
3.322879e+002, 7.609923e+003
3.327700e+002, 7.643556e+003
3.332521e+002, 7.673389e+003
3.337343e+002, 7.700944e+003
3.342164e+002, 7.734364e+003
3.346985e+002, 7.776170e+003
3.351806e+002, 7.819141e+003
3.356627e+002, 7.859505e+003
3.361448e+002, 7.896009e+003
3.366270e+002, 7.932259e+003
3.371091e+002, 7.967406e+003
3.375912e+002, 8.002605e+003
3.380733e+002, 8.041245e+003
3.385554e+002, 8.083883e+003
3.390375e+002, 8.127088e+003
3.395197e+002, 8.170136e+003
3.400018e+002, 8.212797e+003
3.404839e+002, 8.253146e+003
3.409660e+002, 8.289723e+003
3.414481e+002, 8.325535e+003
3.419302e+002, 8.363982e+003
3.424124e+002, 8.405630e+003
3.428945e+002, 8.445866e+003
3.433766e+002, 8.482609e+003
3.438587e+002, 8.516908e+003
3.443408e+002, 8.556698e+003
3.448229e+002, 8.602632e+003
3.453051e+002, 8.648092e+003
3.457872e+002, 8.686949e+003
3.462693e+002, 8.719676e+003
3.467514e+002, 8.750241e+003
3.472335e+002, 8.778168e+003
3.477156e+002, 8.805676e+003
3.481978e+002, 8.838529e+003
3.486799e+002, 8.876153e+003
3.491620e+002, 8.910448e+003
3.496441e+002, 8.935828e+003
3.501262e+002, 8.954000e+003
3.506083e+002, 8.968378e+003
3.510905e+002, 8.979215e+003
3.515726e+002, 8.987657e+003
3.520547e+002, 8.995403e+003
3.525368e+002, 9.001944e+003
3.530189e+002, 9.005759e+003
3.535010e+002, 9.006060e+003
3.539832e+002, 9.003151e+003
3.544653e+002, 8.998325e+003
3.549474e+002, 8.991681e+003
3.554295e+002, 8.979608e+003
3.559116e+002, 8.955377e+003
3.563937e+002, 8.924520e+003
3.568759e+002, 8.895762e+003
3.573580e+002, 8.876831e+003
3.578401e+002, 8.856949e+003
3.583222e+002, 8.828347e+003
3.588043e+002, 8.791732e+003
3.592864e+002, 8.752794e+003
3.597686e+002, 8.712703e+003
3.602507e+002, 8.672347e+003
3.607328e+002, 8.632732e+003
3.612149e+002, 8.592683e+003
3.616970e+002, 8.555094e+003
3.621791e+002, 8.522708e+003
3.626613e+002, 8.493570e+003
3.631434e+002, 8.463290e+003
3.636255e+002, 8.425468e+003
3.641076e+002, 8.390035e+003
3.645897e+002, 8.362526e+003
3.650718e+002, 8.346855e+003
3.655540e+002, 8.329346e+003
3.660361e+002, 8.306552e+003
3.665182e+002, 8.281063e+003
3.670003e+002, 8.255996e+003
3.674824e+002, 8.233583e+003
3.679645e+002, 8.209866e+003
3.684467e+002, 8.181082e+003
3.689288e+002, 8.147207e+003
3.694109e+002, 8.123095e+003
3.698930e+002, 8.115890e+003
3.703751e+002, 8.113201e+003
3.708572e+002, 8.106636e+003
3.713394e+002, 8.092644e+003
3.718215e+002, 8.081181e+003
3.723036e+002, 8.073913e+003
3.727857e+002, 8.069647e+003
3.732678e+002, 8.063720e+003
3.737499e+002, 8.054212e+003
3.742321e+002, 8.046125e+003
3.747142e+002, 8.041961e+003
3.751963e+002, 8.042329e+003
3.756784e+002, 8.043717e+003
3.761605e+002, 8.046383e+003
3.766426e+002, 8.049558e+003
3.771248e+002, 8.051806e+003
3.776069e+002, 8.052863e+003
3.780890e+002, 8.054553e+003
3.785711e+002, 8.057912e+003
3.790532e+002, 8.062570e+003
3.795353e+002, 8.065239e+003
3.800175e+002, 8.065618e+003
3.804996e+002, 8.065788e+003
3.809817e+002, 8.067798e+003
3.814638e+002, 8.071476e+003
3.819459e+002, 8.075308e+003
3.824280e+002, 8.078692e+003
3.829102e+002, 8.082364e+003
3.833923e+002, 8.088642e+003
3.838744e+002, 8.097153e+003
3.843565e+002, 8.104076e+003
3.848386e+002, 8.105348e+003
3.853207e+002, 8.103461e+003
3.858029e+002, 8.103061e+003
3.862850e+002, 8.104411e+003
3.867671e+002, 8.108156e+003
3.872492e+002, 8.117704e+003
3.877313e+002, 8.130293e+003
3.882134e+002, 8.139432e+003
3.886956e+002, 8.140319e+003
3.891777e+002, 8.137683e+003
3.896598e+002, 8.135354e+003
3.901419e+002, 8.133464e+003
3.906240e+002, 8.131662e+003
3.911061e+002, 8.129823e+003
3.915883e+002, 8.128063e+003
3.920704e+002, 8.126330e+003
3.925525e+002, 8.123234e+003
3.930346e+002, 8.122278e+003
3.935167e+002, 8.126330e+003
3.939988e+002, 8.133972e+003
3.944810e+002, 8.141146e+003
3.949631e+002, 8.144523e+003
3.954452e+002, 8.148587e+003
3.959273e+002, 8.155889e+003
3.964094e+002, 8.167732e+003
3.968915e+002, 8.179515e+003
3.973737e+002, 8.190189e+003
3.978558e+002, 8.200302e+003
3.983379e+002, 8.210529e+003
3.988200e+002, 8.220194e+003
3.993021e+002, 8.230497e+003
3.997842e+002, 8.241009e+003
4.002664e+002, 8.251649e+003
4.007485e+002, 8.265043e+003
4.012306e+002, 8.282099e+003
4.017127e+002, 8.300637e+003
4.021948e+002, 8.319571e+003
4.026769e+002, 8.340286e+003
4.031591e+002, 8.357942e+003
4.036412e+002, 8.370870e+003
4.041233e+002, 8.381115e+003
4.046054e+002, 8.394739e+003
4.050875e+002, 8.413150e+003
4.055696e+002, 8.430443e+003
4.060518e+002, 8.443649e+003
4.065339e+002, 8.452683e+003
4.070160e+002, 8.463277e+003
4.074981e+002, 8.475460e+003
4.079802e+002, 8.489282e+003
4.084623e+002, 8.504964e+003
4.089445e+002, 8.522659e+003
4.094266e+002, 8.541443e+003
4.099087e+002, 8.560840e+003
4.103908e+002, 8.581551e+003
4.108729e+002, 8.604970e+003
4.113550e+002, 8.631271e+003
4.118372e+002, 8.659685e+003
4.123193e+002, 8.690675e+003
4.128014e+002, 8.723572e+003
4.132835e+002, 8.757521e+003
4.137656e+002, 8.793104e+003
4.142477e+002, 8.827619e+003
4.147299e+002, 8.855421e+003
4.152120e+002, 8.879439e+003
4.156941e+002, 8.906053e+003
4.161762e+002, 8.941337e+003
4.166583e+002, 8.978592e+003
4.171404e+002, 9.010295e+003
4.176226e+002, 9.036745e+003
4.181047e+002, 9.065634e+003
4.185868e+002, 9.102903e+003
4.190689e+002, 9.144085e+003
4.195510e+002, 9.185677e+003
4.200331e+002, 9.227157e+003
4.205153e+002, 9.267817e+003
4.209974e+002, 9.306085e+003
4.214795e+002, 9.343061e+003
4.219616e+002, 9.379913e+003
4.224437e+002, 9.416190e+003
4.229258e+002, 9.453830e+003
4.234080e+002, 9.494256e+003
4.238901e+002, 9.539365e+003
4.243722e+002, 9.582854e+003
4.248543e+002, 9.620541e+003
4.253364e+002, 9.658533e+003
4.258185e+002, 9.702691e+003
4.263007e+002, 9.757775e+003
4.267828e+002, 9.813106e+003
4.272649e+002, 9.867658e+003
4.277470e+002, 9.921165e+003
4.282291e+002, 9.973831e+003
4.287112e+002, 1.002602e+004
4.291934e+002, 1.007587e+004
4.296755e+002, 1.012333e+004
4.301576e+002, 1.016809e+004
4.306397e+002, 1.021006e+004
4.311218e+002, 1.024890e+004
4.316039e+002, 1.028512e+004
4.320861e+002, 1.032020e+004
4.325682e+002, 1.035417e+004
4.330503e+002, 1.038600e+004
4.335324e+002, 1.041735e+004
4.340145e+002, 1.044625e+004
4.344966e+002, 1.046502e+004
4.349788e+002, 1.047361e+004
4.354609e+002, 1.047650e+004
4.359430e+002, 1.047756e+004
4.364251e+002, 1.047597e+004
4.369072e+002, 1.046950e+004
4.373893e+002, 1.045758e+004
4.378715e+002, 1.044119e+004
4.383536e+002, 1.042083e+004
4.388357e+002, 1.039678e+004
4.393178e+002, 1.036983e+004
4.397999e+002, 1.033803e+004
4.402820e+002, 1.030468e+004
4.407642e+002, 1.027468e+004
4.412463e+002, 1.024792e+004
4.417284e+002, 1.021664e+004
4.422105e+002, 1.017193e+004
4.426926e+002, 1.012226e+004
4.431747e+002, 1.007564e+004
4.436569e+002, 1.003302e+004
4.441390e+002, 9.994853e+003
4.446211e+002, 9.967024e+003
4.451032e+002, 9.944506e+003
4.455853e+002, 9.913654e+003
4.460674e+002, 9.862290e+003
4.465496e+002, 9.810639e+003
4.470317e+002, 9.766665e+003
4.475138e+002, 9.733001e+003
4.479959e+002, 9.699630e+003
4.484780e+002, 9.667065e+003
4.489601e+002, 9.634679e+003
4.494423e+002, 9.601107e+003
4.499244e+002, 9.565531e+003
4.504065e+002, 9.531448e+003
4.508886e+002, 9.498354e+003
4.513707e+002, 9.467396e+003
4.518528e+002, 9.443132e+003
4.523350e+002, 9.427207e+003
4.528171e+002, 9.412271e+003
4.532992e+002, 9.393518e+003
4.537813e+002, 9.370659e+003
4.542634e+002, 9.348856e+003
4.547455e+002, 9.327494e+003
4.552277e+002, 9.308175e+003
4.557098e+002, 9.293642e+003
4.561919e+002, 9.283277e+003
4.566740e+002, 9.272531e+003
4.571561e+002, 9.260488e+003
4.576382e+002, 9.246968e+003
4.581204e+002, 9.231281e+003
4.586025e+002, 9.213670e+003
4.590846e+002, 9.196669e+003
4.595667e+002, 9.181888e+003
4.600488e+002, 9.168728e+003
4.605309e+002, 9.156503e+003
4.610131e+002, 9.145388e+003
4.614952e+002, 9.134512e+003
4.619773e+002, 9.123332e+003
4.624594e+002, 9.112177e+003
4.629415e+002, 9.101353e+003
4.634236e+002, 9.090716e+003
4.639058e+002, 9.080801e+003
4.643879e+002, 9.071855e+003
4.648700e+002, 9.063882e+003
4.653521e+002, 9.056066e+003
4.658342e+002, 9.050963e+003
4.663163e+002, 9.043756e+003
4.667985e+002, 9.030970e+003
4.672806e+002, 9.005192e+003
4.677627e+002, 8.987106e+003
4.682448e+002, 8.980689e+003
4.687269e+002, 8.980669e+003
4.692090e+002, 8.980124e+003
4.696912e+002, 8.981329e+003
4.701733e+002, 8.977518e+003
4.706554e+002, 8.965379e+003
4.711375e+002, 8.946060e+003
4.716196e+002, 8.931243e+003
4.721017e+002, 8.922065e+003
4.725839e+002, 8.914069e+003
4.730660e+002, 8.903943e+003
4.735481e+002, 8.891718e+003
4.740302e+002, 8.879908e+003
4.745123e+002, 8.868651e+003
4.749944e+002, 8.858293e+003
4.754766e+002, 8.849986e+003
4.759587e+002, 8.843460e+003
4.764408e+002, 8.836394e+003
4.769229e+002, 8.827270e+003
4.774050e+002, 8.817704e+003
4.778871e+002, 8.811137e+003
4.783693e+002, 8.807271e+003
4.788514e+002, 8.802746e+003
4.793335e+002, 8.793162e+003
4.798156e+002, 8.782448e+003
4.802977e+002, 8.775593e+003
4.807798e+002, 8.774158e+003
4.812620e+002, 8.774084e+003
4.817441e+002, 8.773337e+003
4.822262e+002, 8.772229e+003
4.827083e+002, 8.771257e+003
4.831904e+002, 8.769191e+003
4.836725e+002, 8.768356e+003
4.841547e+002, 8.770469e+003
4.846368e+002, 8.775139e+003
4.851189e+002, 8.778076e+003
4.856010e+002, 8.778050e+003
4.860831e+002, 8.776476e+003
4.865652e+002, 8.773943e+003
4.870474e+002, 8.769583e+003
4.875295e+002, 8.766003e+003
4.880116e+002, 8.763427e+003
4.884937e+002, 8.761482e+003
4.889758e+002, 8.759913e+003
4.894579e+002, 8.759306e+003
4.899401e+002, 8.757202e+003
4.904222e+002, 8.752573e+003
4.909043e+002, 8.746059e+003
4.913864e+002, 8.740093e+003
4.918685e+002, 8.734554e+003
4.923506e+002, 8.730333e+003
4.928328e+002, 8.729693e+003
4.933149e+002, 8.731345e+003
4.937970e+002, 8.728876e+003
4.942791e+002, 8.721457e+003
4.947612e+002, 8.711932e+003
4.952433e+002, 8.701396e+003
4.957255e+002, 8.691217e+003
4.962076e+002, 8.684892e+003
4.966897e+002, 8.687221e+003
4.971718e+002, 8.690642e+003
4.976539e+002, 8.686308e+003
4.981360e+002, 8.676375e+003
4.986182e+002, 8.668979e+003
4.991003e+002, 8.672031e+003
4.995824e+002, 8.676711e+003
5.000645e+002, 8.676137e+003
5.005466e+002, 8.667991e+003
5.010287e+002, 8.661423e+003
5.015109e+002, 8.661059e+003
5.019930e+002, 8.662540e+003
5.024751e+002, 8.661524e+003
5.029572e+002, 8.654766e+003
5.034393e+002, 8.648522e+003
5.039214e+002, 8.643034e+003
5.044036e+002, 8.638524e+003
5.048857e+002, 8.635800e+003
5.053678e+002, 8.635802e+003
5.058499e+002, 8.636004e+003
5.063320e+002, 8.635947e+003
5.068141e+002, 8.635853e+003
5.072963e+002, 8.631846e+003
5.077784e+002, 8.622284e+003
5.082605e+002, 8.613185e+003
5.087426e+002, 8.612263e+003
5.092247e+002, 8.618812e+003
5.097068e+002, 8.621694e+003
5.101890e+002, 8.617958e+003
5.106711e+002, 8.611256e+003
5.111532e+002, 8.607664e+003
5.116353e+002, 8.606562e+003
5.121174e+002, 8.605238e+003
5.125995e+002, 8.601775e+003
5.130817e+002, 8.597491e+003
5.135638e+002, 8.594219e+003
5.140459e+002, 8.591915e+003
5.145280e+002, 8.589101e+003
5.150101e+002, 8.585874e+003
5.154922e+002, 8.581205e+003
5.159744e+002, 8.573699e+003
5.164565e+002, 8.560515e+003
5.169386e+002, 8.549682e+003
5.174207e+002, 8.545474e+003
5.179028e+002, 8.545054e+003
5.183849e+002, 8.543726e+003
5.188671e+002, 8.540154e+003
5.193492e+002, 8.536245e+003
5.198313e+002, 8.532113e+003
5.203134e+002, 8.527815e+003
5.207955e+002, 8.524103e+003
5.212776e+002, 8.521247e+003
5.217598e+002, 8.518381e+003
5.222419e+002, 8.514824e+003
5.227240e+002, 8.510186e+003
5.232061e+002, 8.506698e+003
5.236882e+002, 8.504790e+003
5.241703e+002, 8.503065e+003
5.246525e+002, 8.499105e+003
5.251346e+002, 8.493138e+003
5.256167e+002, 8.489044e+003
5.260988e+002, 8.489432e+003
5.265809e+002, 8.490708e+003
5.270630e+002, 8.485398e+003
5.275452e+002, 8.474538e+003
5.280273e+002, 8.463671e+003
5.285094e+002, 8.455271e+003
5.289915e+002, 8.449072e+003
5.294736e+002, 8.445270e+003
5.299557e+002, 8.443929e+003
5.304379e+002, 8.442397e+003
5.309200e+002, 8.438790e+003
5.314021e+002, 8.434178e+003
5.318842e+002, 8.429489e+003
5.323663e+002, 8.423573e+003
5.328484e+002, 8.419330e+003
5.333306e+002, 8.419450e+003
5.338127e+002, 8.421496e+003
5.342948e+002, 8.420374e+003
5.347769e+002, 8.412560e+003
5.352590e+002, 8.405146e+003
5.357411e+002, 8.400112e+003
5.362233e+002, 8.397435e+003
5.367054e+002, 8.393316e+003
5.371875e+002, 8.386983e+003
5.376696e+002, 8.381129e+003
5.381517e+002, 8.378384e+003
5.386339e+002, 8.379322e+003
5.391160e+002, 8.376401e+003
5.395981e+002, 8.368233e+003
5.400802e+002, 8.359224e+003
5.405623e+002, 8.355837e+003
5.410444e+002, 8.357052e+003
5.415266e+002, 8.356895e+003
5.420087e+002, 8.352812e+003
5.424908e+002, 8.347112e+003
5.429729e+002, 8.343417e+003
5.434550e+002, 8.341115e+003
5.439371e+002, 8.337799e+003
5.444193e+002, 8.329571e+003
5.449014e+002, 8.321301e+003
5.453835e+002, 8.317902e+003
5.458656e+002, 8.320020e+003
5.463477e+002, 8.321101e+003
5.468298e+002, 8.318238e+003
5.473120e+002, 8.313239e+003
5.477941e+002, 8.307575e+003
5.482762e+002, 8.299682e+003
5.487583e+002, 8.293474e+003
5.492404e+002, 8.290687e+003
5.497225e+002, 8.289248e+003
5.502047e+002, 8.285592e+003
5.506868e+002, 8.278750e+003
5.511689e+002, 8.271589e+003
5.516510e+002, 8.265330e+003
5.521331e+002, 8.259526e+003
5.526152e+002, 8.250281e+003
5.530974e+002, 8.236735e+003
5.535795e+002, 8.224566e+003
5.540616e+002, 8.219287e+003
5.545437e+002, 8.219438e+003
5.550258e+002, 8.215463e+003
5.555079e+002, 8.206489e+003
5.559901e+002, 8.196796e+003
5.564722e+002, 8.190194e+003
5.569543e+002, 8.186221e+003
5.574364e+002, 8.184191e+003
5.579185e+002, 8.185513e+003
5.584006e+002, 8.186017e+003
5.588828e+002, 8.180651e+003
5.593649e+002, 8.171771e+003
5.598470e+002, 8.164822e+003
5.603291e+002, 8.162819e+003
5.608112e+002, 8.162120e+003
5.612933e+002, 8.161650e+003
5.617755e+002, 8.161207e+003
5.622576e+002, 8.158899e+003
5.627397e+002, 8.152323e+003
5.632218e+002, 8.145361e+003
5.637039e+002, 8.140148e+003
5.641860e+002, 8.138472e+003
5.646682e+002, 8.133550e+003
5.651503e+002, 8.123643e+003
5.656324e+002, 8.112844e+003
5.661145e+002, 8.107689e+003
5.665966e+002, 8.109208e+003
5.670787e+002, 8.107396e+003
5.675609e+002, 8.099574e+003
5.680430e+002, 8.088270e+003
5.685251e+002, 8.078173e+003
5.690072e+002, 8.069318e+003
5.694893e+002, 8.062167e+003
5.699714e+002, 8.058372e+003
5.704536e+002, 8.055689e+003
5.709357e+002, 8.049948e+003
5.714178e+002, 8.041357e+003
5.718999e+002, 8.034281e+003
5.723820e+002, 8.032549e+003
5.728641e+002, 8.032982e+003
5.733463e+002, 8.033375e+003
5.738284e+002, 8.034484e+003
5.743105e+002, 8.032039e+003
5.747926e+002, 8.020047e+003
5.752747e+002, 8.005375e+003
5.757568e+002, 7.996827e+003
5.762390e+002, 8.001360e+003
5.767211e+002, 8.003302e+003
5.772032e+002, 7.999291e+003
5.776853e+002, 7.991553e+003
5.781674e+002, 7.988642e+003
5.786495e+002, 7.992858e+003
5.791317e+002, 7.995267e+003
5.796138e+002, 7.991978e+003
5.800959e+002, 7.983550e+003
5.805780e+002, 7.973258e+003
5.810601e+002, 7.960713e+003
5.815422e+002, 7.950124e+003
5.820244e+002, 7.947143e+003
5.825065e+002, 7.948687e+003
5.829886e+002, 7.946829e+003
5.834707e+002, 7.940103e+003
5.839528e+002, 7.932233e+003
5.844349e+002, 7.925280e+003
5.849171e+002, 7.919650e+003
5.853992e+002, 7.916001e+003
5.858813e+002, 7.918930e+003
5.863634e+002, 7.919037e+003
5.868455e+002, 7.908678e+003
5.873276e+002, 7.892094e+003
5.878098e+002, 7.881400e+003
5.882919e+002, 7.886229e+003
5.887740e+002, 7.889633e+003
5.892561e+002, 7.885972e+003
5.897382e+002, 7.875069e+003
5.902203e+002, 7.865688e+003
5.907025e+002, 7.858774e+003
5.911846e+002, 7.851817e+003
5.916667e+002, 7.842398e+003
5.921488e+002, 7.830089e+003
5.926309e+002, 7.822256e+003
5.931130e+002, 7.820101e+003
5.935952e+002, 7.818970e+003
5.940773e+002, 7.812987e+003
5.945594e+002, 7.803180e+003
5.950415e+002, 7.793469e+003
5.955236e+002, 7.784756e+003
5.960057e+002, 7.776747e+003
5.964879e+002, 7.769216e+003
5.969700e+002, 7.762212e+003
5.974521e+002, 7.755876e+003
5.979342e+002, 7.750421e+003
5.984163e+002, 7.745487e+003
5.988984e+002, 7.741123e+003
5.993806e+002, 7.737203e+003
5.998627e+002, 7.732953e+003
6.003448e+002, 7.727063e+003
6.008269e+002, 7.721711e+003
6.013090e+002, 7.718425e+003
6.017911e+002, 7.718610e+003
6.022733e+002, 7.714827e+003
6.027554e+002, 7.705778e+003
6.032375e+002, 7.694557e+003
6.037196e+002, 7.683581e+003
6.042017e+002, 7.672592e+003
6.046838e+002, 7.663739e+003
6.051660e+002, 7.657193e+003
6.056481e+002, 7.652965e+003
6.061302e+002, 7.652790e+003
6.066123e+002, 7.655572e+003
6.070944e+002, 7.656091e+003
6.075765e+002, 7.651595e+003
6.080587e+002, 7.644647e+003
6.085408e+002, 7.636787e+003
6.090229e+002, 7.628653e+003
6.095050e+002, 7.622323e+003
6.099871e+002, 7.619756e+003
6.104692e+002, 7.618610e+003
6.109514e+002, 7.618837e+003
6.114335e+002, 7.620606e+003
6.119156e+002, 7.617837e+003
6.123977e+002, 7.604546e+003
6.128798e+002, 7.589874e+003
6.133619e+002, 7.579366e+003
6.138441e+002, 7.574698e+003
6.143262e+002, 7.570000e+003
6.148083e+002, 7.565056e+003
6.152904e+002, 7.560455e+003
6.157725e+002, 7.557591e+003
6.162546e+002, 7.556727e+003
6.167368e+002, 7.554196e+003
6.172189e+002, 7.549187e+003
6.177010e+002, 7.542440e+003
6.181831e+002, 7.534880e+003
6.186652e+002, 7.526701e+003
6.191473e+002, 7.518557e+003
6.196295e+002, 7.510602e+003
6.201116e+002, 7.503047e+003
6.205937e+002, 7.495687e+003
6.210758e+002, 7.488759e+003
6.215579e+002, 7.483304e+003
6.220400e+002, 7.481492e+003
6.225222e+002, 7.480080e+003
6.230043e+002, 7.477188e+003
6.234864e+002, 7.472405e+003
6.239685e+002, 7.467352e+003
6.244506e+002, 7.460989e+003
6.249327e+002, 7.455362e+003
6.254149e+002, 7.452197e+003
6.258970e+002, 7.453094e+003
6.263791e+002, 7.451342e+003
6.268612e+002, 7.445743e+003
6.273433e+002, 7.439071e+003
6.278254e+002, 7.436231e+003
6.283076e+002, 7.436921e+003
6.287897e+002, 7.434240e+003
6.292718e+002, 7.425067e+003
6.297539e+002, 7.414000e+003
6.302360e+002, 7.408654e+003
6.307181e+002, 7.407731e+003
6.312003e+002, 7.407191e+003
6.316824e+002, 7.406023e+003
6.321645e+002, 7.403695e+003
6.326466e+002, 7.398849e+003
6.331287e+002, 7.392016e+003
6.336108e+002, 7.386734e+003
6.340930e+002, 7.385814e+003
6.345751e+002, 7.385347e+003
6.350572e+002, 7.383344e+003
6.355393e+002, 7.379364e+003
6.360214e+002, 7.375430e+003
6.365035e+002, 7.371453e+003
6.369857e+002, 7.367534e+003
6.374678e+002, 7.363886e+003
6.379499e+002, 7.360626e+003
6.384320e+002, 7.356550e+003
6.389141e+002, 7.351399e+003
6.393962e+002, 7.345980e+003
6.398784e+002, 7.341247e+003
6.403605e+002, 7.337206e+003
6.408426e+002, 7.333795e+003
6.413247e+002, 7.331405e+003
6.418068e+002, 7.329053e+003
6.422889e+002, 7.325462e+003
6.427711e+002, 7.321131e+003
6.432532e+002, 7.317047e+003
6.437353e+002, 7.314192e+003
6.442174e+002, 7.311299e+003
6.446995e+002, 7.308002e+003
6.451816e+002, 7.304243e+003
6.456638e+002, 7.299667e+003
6.461459e+002, 7.290499e+003
6.466280e+002, 7.284444e+003
6.471101e+002, 7.285771e+003
6.475922e+002, 7.295206e+003
6.480743e+002, 7.297467e+003
6.485565e+002, 7.290551e+003
6.490386e+002, 7.281302e+003
6.495207e+002, 7.274029e+003
6.500028e+002, 7.268756e+003
6.504849e+002, 7.267481e+003
6.509670e+002, 7.270939e+003
6.514492e+002, 7.273962e+003
6.519313e+002, 7.269092e+003
6.524134e+002, 7.260162e+003
6.528955e+002, 7.255014e+003
6.533776e+002, 7.257589e+003
6.538597e+002, 7.259720e+003
6.543419e+002, 7.255392e+003
6.548240e+002, 7.247600e+003
6.553061e+002, 7.240975e+003
6.557882e+002, 7.236988e+003
6.562703e+002, 7.234276e+003
6.567524e+002, 7.233778e+003
6.572346e+002, 7.234508e+003
6.577167e+002, 7.232960e+003
6.581988e+002, 7.227376e+003
6.586809e+002, 7.223926e+003
6.591630e+002, 7.226071e+003
6.596451e+002, 7.232182e+003
6.601273e+002, 7.231573e+003
6.606094e+002, 7.223802e+003
6.610915e+002, 7.216222e+003
6.615736e+002, 7.213530e+003
6.620557e+002, 7.214331e+003
6.625378e+002, 7.216839e+003
6.630200e+002, 7.220857e+003
6.635021e+002, 7.223746e+003
6.639842e+002, 7.222364e+003
6.644663e+002, 7.219617e+003
6.649484e+002, 7.218658e+003
6.654305e+002, 7.221368e+003
6.659127e+002, 7.221931e+003
6.663948e+002, 7.215755e+003
6.668769e+002, 7.208604e+003
6.673590e+002, 7.206556e+003
6.678411e+002, 7.213390e+003
6.683232e+002, 7.217893e+003
6.688054e+002, 7.219648e+003
6.692875e+002, 7.218326e+003
6.697696e+002, 7.211484e+003
6.702517e+002, 7.198937e+003
6.707338e+002, 7.189697e+003
6.712159e+002, 7.186787e+003
6.716981e+002, 7.188132e+003
6.721802e+002, 7.192429e+003
6.726623e+002, 7.198412e+003
6.731444e+002, 7.201741e+003
6.736265e+002, 7.199093e+003
6.741086e+002, 7.193789e+003
6.745908e+002, 7.186367e+003
6.750729e+002, 7.177761e+003
6.755550e+002, 7.172767e+003
6.760371e+002, 7.177489e+003
6.765192e+002, 7.182142e+003
6.770013e+002, 7.182025e+003
6.774835e+002, 7.176631e+003
6.779656e+002, 7.172138e+003
6.784477e+002, 7.167735e+003
6.789298e+002, 7.165671e+003
6.794119e+002, 7.168911e+003
6.798940e+002, 7.177523e+003
6.803762e+002, 7.182087e+003
6.808583e+002, 7.182095e+003
6.813404e+002, 7.179322e+003
6.818225e+002, 7.173267e+003
6.823046e+002, 7.166125e+003
6.827867e+002, 7.163205e+003
6.832689e+002, 7.167042e+003
6.837510e+002, 7.170273e+003
6.842331e+002, 7.165002e+003
6.847152e+002, 7.156887e+003
6.851973e+002, 7.153250e+003
6.856794e+002, 7.163606e+003
6.861616e+002, 7.169579e+003
6.866437e+002, 7.163681e+003
6.871258e+002, 7.152536e+003
6.876079e+002, 7.148220e+003
6.880900e+002, 7.153314e+003
6.885721e+002, 7.158694e+003
6.890543e+002, 7.162544e+003
6.895364e+002, 7.164881e+003
6.900185e+002, 7.165506e+003
6.905006e+002, 7.164400e+003
6.909827e+002, 7.162878e+003
6.914648e+002, 7.161367e+003
6.919470e+002, 7.159864e+003
6.924291e+002, 7.158368e+003
6.929112e+002, 7.156866e+003
6.933933e+002, 7.155352e+003
6.938754e+002, 7.154135e+003
6.943575e+002, 7.152714e+003
6.948397e+002, 7.150717e+003
6.953218e+002, 7.148121e+003
6.958039e+002, 7.145690e+003
6.962860e+002, 7.143459e+003
6.967681e+002, 7.141696e+003
6.972502e+002, 7.140788e+003
6.977324e+002, 7.141203e+003
6.982145e+002, 7.140338e+003
6.986966e+002, 7.137794e+003
6.991787e+002, 7.135231e+003
6.996608e+002, 7.134026e+003
7.001429e+002, 7.134143e+003
7.006251e+002, 7.135725e+003
7.011072e+002, 7.138986e+003
7.015893e+002, 7.142213e+003
7.020714e+002, 7.144147e+003
7.025535e+002, 7.144717e+003
7.030356e+002, 7.143584e+003
7.035178e+002, 7.138838e+003
7.039999e+002, 7.135400e+003
7.044820e+002, 7.136002e+003
7.049641e+002, 7.138766e+003
7.054462e+002, 7.140832e+003
7.059283e+002, 7.142259e+003
7.064105e+002, 7.142578e+003
7.068926e+002, 7.141358e+003
7.073747e+002, 7.139266e+003
7.078568e+002, 7.138029e+003
7.083389e+002, 7.137789e+003
7.088210e+002, 7.136958e+003
7.093032e+002, 7.134897e+003
7.097853e+002, 7.132099e+003
7.102674e+002, 7.129032e+003
7.107495e+002, 7.125969e+003
7.112316e+002, 7.124095e+003
7.117137e+002, 7.125472e+003
7.121959e+002, 7.127089e+003
7.126780e+002, 7.126417e+003
7.131601e+002, 7.123726e+003
7.136422e+002, 7.121524e+003
7.141243e+002, 7.121127e+003
7.146064e+002, 7.120717e+003
7.150886e+002, 7.119774e+003
7.155707e+002, 7.118308e+003
7.160528e+002, 7.115497e+003
7.165349e+002, 7.110808e+003
7.170170e+002, 7.106158e+003
7.174991e+002, 7.102200e+003
7.179813e+002, 7.099166e+003
7.184634e+002, 7.098884e+003
7.189455e+002, 7.101496e+003
7.194276e+002, 7.105192e+003
7.199097e+002, 7.110177e+003
7.203918e+002, 7.114549e+003
7.208740e+002, 7.115171e+003
7.213561e+002, 7.111050e+003
7.218382e+002, 7.106537e+003
7.223203e+002, 7.102329e+003
7.228024e+002, 7.099322e+003
7.232845e+002, 7.098376e+003
7.237667e+002, 7.101731e+003
7.242488e+002, 7.102960e+003
7.247309e+002, 7.100765e+003
7.252130e+002, 7.097739e+003
7.256951e+002, 7.097094e+003
7.261772e+002, 7.098999e+003
7.266594e+002, 7.100964e+003
7.271415e+002, 7.102999e+003
7.276236e+002, 7.103892e+003
7.281057e+002, 7.101483e+003
7.285878e+002, 7.096597e+003
7.290699e+002, 7.091210e+003
7.295521e+002, 7.085343e+003
7.300342e+002, 7.080260e+003
7.305163e+002, 7.077131e+003
7.309984e+002, 7.075367e+003
7.314805e+002, 7.073909e+003
7.319626e+002, 7.071459e+003
7.324448e+002, 7.070764e+003
7.329269e+002, 7.074198e+003
7.334090e+002, 7.079281e+003
7.338911e+002, 7.078281e+003
7.343732e+002, 7.069352e+003
7.348553e+002, 7.062000e+003
7.353375e+002, 7.059287e+003
7.358196e+002, 7.060052e+003
7.363017e+002, 7.062302e+003
7.367838e+002, 7.065691e+003
7.372659e+002, 7.068104e+003
7.377480e+002, 7.066798e+003
7.382302e+002, 7.065146e+003
7.387123e+002, 7.067636e+003
7.391944e+002, 7.073078e+003
7.396765e+002, 7.075588e+003
7.401586e+002, 7.070031e+003
7.406407e+002, 7.063837e+003
7.411229e+002, 7.060467e+003
7.416050e+002, 7.059771e+003
7.420871e+002, 7.058174e+003
7.425692e+002, 7.054908e+003
7.430513e+002, 7.052569e+003
7.435334e+002, 7.052610e+003
7.440156e+002, 7.054879e+003
7.444977e+002, 7.059086e+003
7.449798e+002, 7.065265e+003
7.454619e+002, 7.068999e+003
7.459440e+002, 7.063437e+003
7.464261e+002, 7.055186e+003
7.469083e+002, 7.052993e+003
7.473904e+002, 7.057689e+003
7.478725e+002, 7.062981e+003
7.483546e+002, 7.068706e+003
7.488367e+002, 7.071799e+003
7.493188e+002, 7.068778e+003
7.498010e+002, 7.056217e+003
7.502831e+002, 7.050076e+003
7.507652e+002, 7.053771e+003
7.512473e+002, 7.058466e+003
7.517294e+002, 7.056222e+003
7.522115e+002, 7.047183e+003
7.526937e+002, 7.041596e+003
7.531758e+002, 7.040477e+003
7.536579e+002, 7.040163e+003
7.541400e+002, 7.036360e+003
7.546221e+002, 7.031095e+003
7.551042e+002, 7.027893e+003
7.555864e+002, 7.028076e+003
7.560685e+002, 7.028228e+003
7.565506e+002, 7.026805e+003
7.570327e+002, 7.024442e+003
7.575148e+002, 7.021758e+003
7.579969e+002, 7.016379e+003
7.584791e+002, 7.014930e+003
7.589612e+002, 7.019977e+003
7.594433e+002, 7.026046e+003
7.599254e+002, 7.025336e+003
7.604075e+002, 7.017367e+003
7.608896e+002, 7.012166e+003
7.613718e+002, 7.011396e+003
7.618539e+002, 7.013089e+003
7.623360e+002, 7.017028e+003
7.628181e+002, 7.021162e+003
7.633002e+002, 7.020744e+003
7.637823e+002, 7.011390e+003
7.642645e+002, 7.002668e+003
7.647466e+002, 7.000546e+003
7.652287e+002, 7.002239e+003
7.657108e+002, 7.003493e+003
7.661929e+002, 7.005188e+003
7.666750e+002, 7.004233e+003
7.671572e+002, 6.999163e+003
7.676393e+002, 6.992333e+003
7.681214e+002, 6.987671e+003
7.686035e+002, 6.985217e+003
7.690856e+002, 6.985270e+003
7.695677e+002, 6.988578e+003
7.700499e+002, 6.993021e+003
7.705320e+002, 6.995410e+003
7.710141e+002, 6.996220e+003
7.714962e+002, 6.996765e+003
7.719783e+002, 6.998355e+003
7.724604e+002, 6.998919e+003
7.729426e+002, 6.996693e+003
7.734247e+002, 6.992650e+003
7.739068e+002, 6.989084e+003
7.743889e+002, 6.986271e+003
7.748710e+002, 6.983956e+003
7.753531e+002, 6.982187e+003
7.758353e+002, 6.980896e+003
7.763174e+002, 6.980189e+003
7.767995e+002, 6.980200e+003
7.772816e+002, 6.979286e+003
7.777637e+002, 6.976596e+003
7.782458e+002, 6.973056e+003
7.787280e+002, 6.969624e+003
7.792101e+002, 6.966586e+003
7.796922e+002, 6.964808e+003
7.801743e+002, 6.965729e+003
7.806564e+002, 6.967016e+003
7.811385e+002, 6.966953e+003
7.816207e+002, 6.966097e+003
7.821028e+002, 6.967115e+003
7.825849e+002, 6.972175e+003
7.830670e+002, 6.975728e+003
7.835491e+002, 6.975864e+003
7.840313e+002, 6.973399e+003
7.845134e+002, 6.972542e+003
7.849955e+002, 6.973286e+003
7.854776e+002, 6.970807e+003
7.859597e+002, 6.959436e+003
7.864418e+002, 6.945789e+003
7.869240e+002, 6.941055e+003
7.874061e+002, 6.943458e+003
7.878882e+002, 6.946678e+003
7.883703e+002, 6.949671e+003
7.888524e+002, 6.950644e+003
7.893345e+002, 6.947981e+003
7.898167e+002, 6.942104e+003
7.902988e+002, 6.936693e+003
7.907809e+002, 6.932022e+003
7.912630e+002, 6.927604e+003
7.917451e+002, 6.923264e+003
7.922272e+002, 6.919132e+003
7.927094e+002, 6.915001e+003
7.931915e+002, 6.910968e+003
7.936736e+002, 6.907987e+003
7.941557e+002, 6.908220e+003
7.946378e+002, 6.908861e+003
7.951199e+002, 6.906076e+003
7.956021e+002, 6.900414e+003
7.960842e+002, 6.894288e+003
7.965663e+002, 6.887947e+003
7.970484e+002, 6.882150e+003
7.975305e+002, 6.877259e+003
7.980126e+002, 6.873246e+003
7.984948e+002, 6.870107e+003
7.989769e+002, 6.868345e+003
7.994590e+002, 6.866251e+003
7.999411e+002, 6.862832e+003
8.004232e+002, 6.858656e+003
8.009053e+002, 6.856645e+003
8.013875e+002, 6.856538e+003
8.018696e+002, 6.855536e+003
8.023517e+002, 6.850375e+003
8.028338e+002, 6.844617e+003
8.033159e+002, 6.841796e+003
8.037980e+002, 6.841626e+003
8.042802e+002, 6.842064e+003
8.047623e+002, 6.843852e+003
8.052444e+002, 6.844478e+003
8.057265e+002, 6.841937e+003
8.062086e+002, 6.836869e+003
8.066907e+002, 6.836198e+003
8.071729e+002, 6.841160e+003
8.076550e+002, 6.844808e+003
8.081371e+002, 6.844000e+003
8.086192e+002, 6.839402e+003
8.091013e+002, 6.831487e+003
8.095834e+002, 6.820922e+003
8.100656e+002, 6.811428e+003
8.105477e+002, 6.804696e+003
8.110298e+002, 6.800375e+003
8.115119e+002, 6.799435e+003
8.119940e+002, 6.801333e+003
8.124761e+002, 6.801719e+003
8.129583e+002, 6.799392e+003
8.134404e+002, 6.796401e+003
8.139225e+002, 6.793311e+003
8.144046e+002, 6.790149e+003
8.148867e+002, 6.786663e+003
8.153688e+002, 6.782878e+003
8.158510e+002, 6.778997e+003
8.163331e+002, 6.774672e+003
8.168152e+002, 6.770469e+003
8.172973e+002, 6.767345e+003
8.177794e+002, 6.765138e+003
8.182615e+002, 6.763493e+003
8.187437e+002, 6.762123e+003
8.192258e+002, 6.761231e+003
8.197079e+002, 6.761064e+003
8.201900e+002, 6.761451e+003
8.206721e+002, 6.762062e+003
8.211542e+002, 6.765314e+003
8.216364e+002, 6.762847e+003
8.221185e+002, 6.748971e+003
8.226006e+002, 6.728885e+003
8.230827e+002, 6.720394e+003
8.235648e+002, 6.722313e+003
8.240469e+002, 6.724062e+003
8.245291e+002, 6.719311e+003
8.250112e+002, 6.712682e+003
8.254933e+002, 6.710210e+003
8.259754e+002, 6.709820e+003
8.264575e+002, 6.704750e+003
8.269396e+002, 6.684679e+003
8.274218e+002, 6.669351e+003
8.279039e+002, 6.665673e+003
8.283860e+002, 6.670263e+003
8.288681e+002, 6.672364e+003
8.293502e+002, 6.671920e+003
8.298323e+002, 6.669126e+003
8.303145e+002, 6.663298e+003
8.307966e+002, 6.656001e+003
8.312787e+002, 6.649313e+003
8.317608e+002, 6.643537e+003
8.322429e+002, 6.639909e+003
8.327250e+002, 6.641872e+003
8.332072e+002, 6.643105e+003
8.336893e+002, 6.639259e+003
8.341714e+002, 6.632163e+003
8.346535e+002, 6.626669e+003
8.351356e+002, 6.623572e+003
8.356177e+002, 6.621467e+003
8.360999e+002, 6.620774e+003
8.365820e+002, 6.620367e+003
8.370641e+002, 6.616852e+003
8.375462e+002, 6.610626e+003
8.380283e+002, 6.606349e+003
8.385104e+002, 6.606263e+003
8.389926e+002, 6.607289e+003
8.394747e+002, 6.605431e+003
8.399568e+002, 6.602354e+003
8.404389e+002, 6.600958e+003
8.409210e+002, 6.604688e+003
8.414031e+002, 6.607099e+003
8.418853e+002, 6.606006e+003
8.423674e+002, 6.603092e+003
8.428495e+002, 6.600596e+003
8.433316e+002, 6.598589e+003
8.438137e+002, 6.596416e+003
8.442958e+002, 6.594042e+003
8.447780e+002, 6.591200e+003
8.452601e+002, 6.586633e+003
8.457422e+002, 6.581366e+003
8.462243e+002, 6.578142e+003
8.467064e+002, 6.578869e+003
8.471885e+002, 6.578795e+003
8.476707e+002, 6.573720e+003
8.481528e+002, 6.567076e+003
8.486349e+002, 6.563011e+003
8.491170e+002, 6.564660e+003
8.495991e+002, 6.564038e+003
8.500812e+002, 6.560404e+003
8.505634e+002, 6.555712e+003
8.510455e+002, 6.551958e+003
8.515276e+002, 6.549141e+003
8.520097e+002, 6.546789e+003
8.524918e+002, 6.544848e+003
8.529739e+002, 6.543602e+003
8.534561e+002, 6.543848e+003
8.539382e+002, 6.544633e+003
8.544203e+002, 6.544628e+003
8.549024e+002, 6.542914e+003
8.553845e+002, 6.542667e+003
8.558666e+002, 6.546800e+003
8.563488e+002, 6.550314e+003
8.568309e+002, 6.549452e+003
8.573130e+002, 6.543405e+003
8.577951e+002, 6.537828e+003
8.582772e+002, 6.532460e+003
8.587593e+002, 6.529041e+003
8.592415e+002, 6.531685e+003
8.597236e+002, 6.536260e+003
8.602057e+002, 6.534952e+003
8.606878e+002, 6.527146e+003
8.611699e+002, 6.519894e+003
8.616520e+002, 6.516025e+003
8.621342e+002, 6.514290e+003
8.626163e+002, 6.515411e+003
8.630984e+002, 6.519669e+003
8.635805e+002, 6.518475e+003
8.640626e+002, 6.510326e+003
8.645447e+002, 6.501542e+003
8.650269e+002, 6.495881e+003
8.655090e+002, 6.492494e+003
8.659911e+002, 6.488340e+003
8.664732e+002, 6.483661e+003
8.669553e+002, 6.479577e+003
8.674374e+002, 6.476353e+003
8.679196e+002, 6.474390e+003
8.684017e+002, 6.474678e+003
8.688838e+002, 6.476784e+003
8.693659e+002, 6.477878e+003
8.698480e+002, 6.477546e+003
8.703301e+002, 6.476157e+003
8.708123e+002, 6.473086e+003
8.712944e+002, 6.469173e+003
8.717765e+002, 6.467929e+003
8.722586e+002, 6.469017e+003
8.727407e+002, 6.469474e+003
8.732228e+002, 6.468176e+003
8.737050e+002, 6.465359e+003
8.741871e+002, 6.460175e+003
8.746692e+002, 6.453818e+003
8.751513e+002, 6.448795e+003
8.756334e+002, 6.448229e+003
8.761155e+002, 6.446304e+003
8.765977e+002, 6.440970e+003
8.770798e+002, 6.434556e+003
8.775619e+002, 6.431933e+003
8.780440e+002, 6.433555e+003
8.785261e+002, 6.432707e+003
8.790082e+002, 6.427239e+003
8.794904e+002, 6.421044e+003
8.799725e+002, 6.420042e+003
8.804546e+002, 6.421619e+003
8.809367e+002, 6.421019e+003
8.814188e+002, 6.415780e+003
8.819009e+002, 6.410735e+003
8.823831e+002, 6.407990e+003
8.828652e+002, 6.405906e+003
8.833473e+002, 6.402783e+003
8.838294e+002, 6.398050e+003
8.843115e+002, 6.394799e+003
8.847936e+002, 6.393633e+003
8.852758e+002, 6.392361e+003
8.857579e+002, 6.387680e+003
8.862400e+002, 6.381479e+003
8.867221e+002, 6.378280e+003
8.872042e+002, 6.378801e+003
8.876863e+002, 6.379880e+003
8.881685e+002, 6.380376e+003
8.886506e+002, 6.380244e+003
8.891327e+002, 6.378716e+003
8.896148e+002, 6.375162e+003
8.900969e+002, 6.375548e+003
8.905790e+002, 6.381880e+003
8.910612e+002, 6.386564e+003
8.915433e+002, 6.383078e+003
8.920254e+002, 6.374234e+003
8.925075e+002, 6.371521e+003
8.929896e+002, 6.374148e+003
8.934717e+002, 6.376436e+003
8.939539e+002, 6.373788e+003
8.944360e+002, 6.370576e+003
8.949181e+002, 6.370636e+003
8.954002e+002, 6.373255e+003
8.958823e+002, 6.372928e+003
8.963644e+002, 6.367650e+003
8.968466e+002, 6.363100e+003
8.973287e+002, 6.361097e+003
8.978108e+002, 6.360753e+003
8.982929e+002, 6.359502e+003
8.987750e+002, 6.357585e+003
8.992571e+002, 6.356167e+003
8.997393e+002, 6.356574e+003
9.002214e+002, 6.356388e+003
9.007035e+002, 6.352794e+003
9.011856e+002, 6.347358e+003
9.016677e+002, 6.342778e+003
9.021498e+002, 6.339447e+003
9.026320e+002, 6.337086e+003
9.031141e+002, 6.335740e+003
9.035962e+002, 6.335006e+003
9.040783e+002, 6.334963e+003
9.045604e+002, 6.335386e+003
9.050425e+002, 6.333515e+003
9.055247e+002, 6.328663e+003
9.060068e+002, 6.323285e+003
9.064889e+002, 6.318441e+003
9.069710e+002, 6.315108e+003
9.074531e+002, 6.315246e+003
9.079352e+002, 6.321040e+003
9.084174e+002, 6.323193e+003
9.088995e+002, 6.318572e+003
9.093816e+002, 6.312409e+003
9.098637e+002, 6.307721e+003
9.103458e+002, 6.304453e+003
9.108279e+002, 6.301228e+003
9.113101e+002, 6.298013e+003
9.117922e+002, 6.295313e+003
9.122743e+002, 6.293463e+003
9.127564e+002, 6.292260e+003
9.132385e+002, 6.291760e+003
9.137206e+002, 6.291791e+003
9.142028e+002, 6.291423e+003
9.146849e+002, 6.291042e+003
9.151670e+002, 6.289291e+003
9.156491e+002, 6.284993e+003
9.161312e+002, 6.279265e+003
9.166133e+002, 6.276614e+003
9.170955e+002, 6.277133e+003
9.175776e+002, 6.278265e+003
9.180597e+002, 6.279552e+003
9.185418e+002, 6.280388e+003
9.190239e+002, 6.279117e+003
9.195060e+002, 6.276980e+003
9.199882e+002, 6.276359e+003
9.204703e+002, 6.281515e+003
9.209524e+002, 6.283355e+003
9.214345e+002, 6.277317e+003
9.219166e+002, 6.269673e+003
9.223987e+002, 6.269398e+003
9.228809e+002, 6.277138e+003
9.233630e+002, 6.279438e+003
9.238451e+002, 6.273961e+003
9.243272e+002, 6.267438e+003
9.248093e+002, 6.268299e+003
9.252914e+002, 6.271933e+003
9.257736e+002, 6.271763e+003
9.262557e+002, 6.266072e+003
9.267378e+002, 6.261769e+003
9.272199e+002, 6.262618e+003
9.277020e+002, 6.263916e+003
9.281841e+002, 6.263299e+003
9.286663e+002, 6.260821e+003
9.291484e+002, 6.258769e+003
9.296305e+002, 6.257133e+003
9.301126e+002, 6.256390e+003
9.305947e+002, 6.257830e+003
9.310768e+002, 6.259667e+003
9.315590e+002, 6.258481e+003
9.320411e+002, 6.255331e+003
9.325232e+002, 6.254787e+003
9.330053e+002, 6.261896e+003
9.334874e+002, 6.267486e+003
9.339695e+002, 6.269231e+003
9.344517e+002, 6.268028e+003
9.349338e+002, 6.265307e+003
9.354159e+002, 6.261052e+003
9.358980e+002, 6.258969e+003
9.363801e+002, 6.260779e+003
9.368622e+002, 6.263501e+003
9.373444e+002, 6.262235e+003
9.378265e+002, 6.260049e+003
9.383086e+002, 6.261845e+003
9.387907e+002, 6.272396e+003
9.392728e+002, 6.279819e+003
9.397549e+002, 6.278374e+003
9.402371e+002, 6.276848e+003
9.407192e+002, 6.284009e+003
9.412013e+002, 6.300213e+003
9.416834e+002, 6.309588e+003
9.421655e+002, 6.311328e+003
9.426476e+002, 6.310695e+003
9.431298e+002, 6.309583e+003
9.436119e+002, 6.309965e+003
9.440940e+002, 6.315047e+003
9.445761e+002, 6.324781e+003
9.450582e+002, 6.332978e+003
9.455403e+002, 6.336513e+003
9.460225e+002, 6.340424e+003
9.465046e+002, 6.346578e+003
9.469867e+002, 6.354263e+003
9.474688e+002, 6.360259e+003
9.479509e+002, 6.364677e+003
9.484330e+002, 6.370222e+003
9.489152e+002, 6.378723e+003
9.493973e+002, 6.387853e+003
9.498794e+002, 6.395094e+003
9.503615e+002, 6.401428e+003
9.508436e+002, 6.408617e+003
9.513257e+002, 6.416088e+003
9.518079e+002, 6.426191e+003
9.522900e+002, 6.440482e+003
9.527721e+002, 6.455504e+003
9.532542e+002, 6.466140e+003
9.537363e+002, 6.473249e+003
9.542184e+002, 6.483733e+003
9.547006e+002, 6.498679e+003
9.551827e+002, 6.513976e+003
9.556648e+002, 6.526216e+003
9.561469e+002, 6.537667e+003
9.566290e+002, 6.549867e+003
9.571111e+002, 6.563040e+003
9.575933e+002, 6.578059e+003
9.580754e+002, 6.595185e+003
9.585575e+002, 6.613709e+003
9.590396e+002, 6.633330e+003
9.595217e+002, 6.653877e+003
9.600038e+002, 6.674934e+003
9.604860e+002, 6.696636e+003
9.609681e+002, 6.719810e+003
9.614502e+002, 6.746698e+003
9.619323e+002, 6.773048e+003
9.624144e+002, 6.793753e+003
9.628965e+002, 6.812371e+003
9.633787e+002, 6.836769e+003
9.638608e+002, 6.870992e+003
9.643429e+002, 6.901112e+003
9.648250e+002, 6.924975e+003
9.653071e+002, 6.945950e+003
9.657892e+002, 6.967777e+003
9.662714e+002, 6.990167e+003
9.667535e+002, 7.013265e+003
9.672356e+002, 7.037188e+003
9.677177e+002, 7.059454e+003
9.681998e+002, 7.076650e+003
9.686819e+002, 7.093066e+003
9.691641e+002, 7.112696e+003
9.696462e+002, 7.136481e+003
9.701283e+002, 7.152491e+003
9.706104e+002, 7.159985e+003
9.710925e+002, 7.164926e+003
9.715746e+002, 7.168772e+003
9.720568e+002, 7.173548e+003
9.725389e+002, 7.186479e+003
9.730210e+002, 7.204087e+003
9.735031e+002, 7.214556e+003
9.739852e+002, 7.203407e+003
9.744673e+002, 7.195906e+003
9.749495e+002, 7.201226e+003
9.754316e+002, 7.213408e+003
9.759137e+002, 7.222239e+003
9.763958e+002, 7.227431e+003
9.768779e+002, 7.235003e+003
9.773600e+002, 7.246090e+003
9.778422e+002, 7.259613e+003
9.783243e+002, 7.275023e+003
9.788064e+002, 7.292124e+003
9.792885e+002, 7.310127e+003
9.797706e+002, 7.328516e+003
9.802527e+002, 7.350128e+003
9.807349e+002, 7.373986e+003
9.812170e+002, 7.402941e+003
9.816991e+002, 7.438692e+003
9.821812e+002, 7.480655e+003
9.826633e+002, 7.522828e+003
9.831454e+002, 7.565569e+003
9.836276e+002, 7.613710e+003
9.841097e+002, 7.672219e+003
9.845918e+002, 7.735322e+003
9.850739e+002, 7.796717e+003
9.855560e+002, 7.858831e+003
9.860381e+002, 7.928097e+003
9.865203e+002, 8.005345e+003
9.870024e+002, 8.088225e+003
9.874845e+002, 8.176791e+003
9.879666e+002, 8.270337e+003
9.884487e+002, 8.369336e+003
9.889308e+002, 8.472131e+003
9.894130e+002, 8.575582e+003
9.898951e+002, 8.678583e+003
9.903772e+002, 8.787003e+003
9.908593e+002, 8.907333e+003
9.913414e+002, 9.032041e+003
9.918235e+002, 9.155300e+003
9.923057e+002, 9.277538e+003
9.927878e+002, 9.405015e+003
9.932699e+002, 9.539423e+003
9.937520e+002, 9.675608e+003
9.942341e+002, 9.811604e+003
9.947162e+002, 9.947501e+003
9.951984e+002, 1.008294e+004
9.956805e+002, 1.021768e+004
9.961626e+002, 1.034717e+004
9.966447e+002, 1.046918e+004
9.971268e+002, 1.058818e+004
9.976089e+002, 1.070855e+004
9.980911e+002, 1.082574e+004
9.985732e+002, 1.093303e+004
9.990553e+002, 1.103085e+004
9.995374e+002, 1.111805e+004
1.000020e+003, 1.119344e+004
1.000502e+003, 1.125408e+004
1.000984e+003, 1.129609e+004
1.001466e+003, 1.132117e+004
1.001948e+003, 1.133027e+004
1.002430e+003, 1.132295e+004
1.002912e+003, 1.130109e+004
1.003394e+003, 1.126859e+004
1.003876e+003, 1.121650e+004
1.004359e+003, 1.113941e+004
1.004841e+003, 1.104118e+004
1.005323e+003, 1.093495e+004
1.005805e+003, 1.081952e+004
1.006287e+003, 1.069397e+004
1.006769e+003, 1.055383e+004
1.007251e+003, 1.040604e+004
1.007733e+003, 1.025441e+004
1.008216e+003, 1.009773e+004
1.008698e+003, 9.937701e+003
1.009180e+003, 9.771651e+003
1.009662e+003, 9.606917e+003
1.010144e+003, 9.444221e+003
1.010626e+003, 9.282551e+003
1.011108e+003, 9.123670e+003
1.011590e+003, 8.968078e+003
1.012072e+003, 8.817260e+003
1.012555e+003, 8.670251e+003
1.013037e+003, 8.530360e+003
1.013519e+003, 8.404416e+003
1.014001e+003, 8.279408e+003
1.014483e+003, 8.148473e+003
1.014965e+003, 8.014940e+003
1.015447e+003, 7.890854e+003
1.015929e+003, 7.775389e+003
1.016411e+003, 7.665297e+003
1.016894e+003, 7.560491e+003
1.017376e+003, 7.459044e+003
1.017858e+003, 7.360053e+003
1.018340e+003, 7.264106e+003
1.018822e+003, 7.173520e+003
1.019304e+003, 7.089401e+003
1.019786e+003, 7.006474e+003
1.020268e+003, 6.923978e+003
1.020751e+003, 6.844895e+003
1.021233e+003, 6.772163e+003
1.021715e+003, 6.704234e+003
1.022197e+003, 6.638542e+003
1.022679e+003, 6.574752e+003
1.023161e+003, 6.512920e+003
1.023643e+003, 6.450759e+003
1.024125e+003, 6.393178e+003
1.024607e+003, 6.343345e+003
1.025090e+003, 6.298757e+003
1.025572e+003, 6.254654e+003
1.026054e+003, 6.210540e+003
1.026536e+003, 6.169377e+003
1.027018e+003, 6.131696e+003
1.027500e+003, 6.094442e+003
1.027982e+003, 6.052954e+003
1.028464e+003, 6.010817e+003
1.028947e+003, 5.972409e+003
1.029429e+003, 5.939442e+003
1.029911e+003, 5.906311e+003
1.030393e+003, 5.871703e+003
1.030875e+003, 5.838243e+003
1.031357e+003, 5.807778e+003
1.031839e+003, 5.779702e+003
1.032321e+003, 5.751762e+003
1.032803e+003, 5.724635e+003
1.033286e+003, 5.699854e+003
1.033768e+003, 5.680376e+003
1.034250e+003, 5.661394e+003
1.034732e+003, 5.640103e+003
1.035214e+003, 5.618135e+003
1.035696e+003, 5.598047e+003
1.036178e+003, 5.579796e+003
1.036660e+003, 5.562650e+003
1.037143e+003, 5.546447e+003
1.037625e+003, 5.530146e+003
1.038107e+003, 5.511233e+003
1.038589e+003, 5.491933e+003
1.039071e+003, 5.475408e+003
1.039553e+003, 5.461583e+003
1.040035e+003, 5.448232e+003
1.040517e+003, 5.435946e+003
1.041000e+003, 5.422180e+003
1.041482e+003, 5.405761e+003
1.041964e+003, 5.388303e+003
1.042446e+003, 5.374167e+003
1.042928e+003, 5.362835e+003
1.043410e+003, 5.352824e+003
1.043892e+003, 5.344321e+003
1.044374e+003, 5.335388e+003
1.044856e+003, 5.326250e+003
1.045339e+003, 5.315430e+003
1.045821e+003, 5.300911e+003
1.046303e+003, 5.281919e+003
1.046785e+003, 5.265771e+003
1.047267e+003, 5.252523e+003
1.047749e+003, 5.241991e+003
1.048231e+003, 5.236731e+003
1.048713e+003, 5.232530e+003
1.049195e+003, 5.222759e+003
1.049677e+003, 5.209435e+003
1.050160e+003, 5.198721e+003
1.050642e+003, 5.195396e+003
1.051124e+003, 5.190523e+003
1.051606e+003, 5.183095e+003
1.052088e+003, 5.173751e+003
1.052570e+003, 5.162110e+003
1.053052e+003, 5.149186e+003
1.053534e+003, 5.140430e+003
1.054017e+003, 5.136600e+003
1.054499e+003, 5.132113e+003
1.054981e+003, 5.122611e+003
1.055463e+003, 5.112131e+003
1.055945e+003, 5.103719e+003
1.056427e+003, 5.096810e+003
1.056909e+003, 5.087465e+003
1.057391e+003, 5.075460e+003
1.057874e+003, 5.064144e+003
1.058356e+003, 5.054579e+003
1.058838e+003, 5.046508e+003
1.059320e+003, 5.040669e+003
1.059802e+003, 5.035771e+003
1.060284e+003, 5.029659e+003
1.060766e+003, 5.020986e+003
1.061248e+003, 5.013230e+003
1.061730e+003, 5.006118e+003
1.062213e+003, 5.000738e+003
1.062695e+003, 4.999034e+003
1.063177e+003, 4.999565e+003
1.063659e+003, 4.997385e+003
1.064141e+003, 4.992642e+003
1.064623e+003, 4.986269e+003
1.065105e+003, 4.975239e+003
1.065587e+003, 4.966548e+003
1.066070e+003, 4.965712e+003
1.066552e+003, 4.967199e+003
1.067034e+003, 4.961695e+003
1.067516e+003, 4.948827e+003
1.067998e+003, 4.941573e+003
1.068480e+003, 4.942043e+003
1.068962e+003, 4.942537e+003
1.069444e+003, 4.934779e+003
1.069927e+003, 4.924836e+003
1.070409e+003, 4.918482e+003
1.070891e+003, 4.916306e+003
1.071373e+003, 4.912714e+003
1.071855e+003, 4.907209e+003
1.072337e+003, 4.901306e+003
1.072819e+003, 4.895154e+003
1.073301e+003, 4.889376e+003
1.073783e+003, 4.884526e+003
1.074266e+003, 4.880906e+003
1.074748e+003, 4.879808e+003
1.075230e+003, 4.884094e+003
1.075712e+003, 4.883688e+003
1.076194e+003, 4.872268e+003
1.076676e+003, 4.859439e+003
1.077158e+003, 4.850261e+003
1.077640e+003, 4.844620e+003
1.078122e+003, 4.842139e+003
1.078604e+003, 4.842339e+003
1.079087e+003, 4.841238e+003
1.079569e+003, 4.834766e+003
1.080051e+003, 4.828214e+003
1.080533e+003, 4.825275e+003
1.081015e+003, 4.824202e+003
1.081497e+003, 4.821365e+003
1.081979e+003, 4.815906e+003
1.082461e+003, 4.813391e+003
1.082944e+003, 4.814773e+003
1.083426e+003, 4.815440e+003
1.083908e+003, 4.809041e+003
1.084390e+003, 4.800703e+003
1.084872e+003, 4.797467e+003
1.085354e+003, 4.799142e+003
1.085836e+003, 4.798162e+003
1.086318e+003, 4.792061e+003
1.086801e+003, 4.785819e+003
1.087283e+003, 4.780318e+003
1.087765e+003, 4.775760e+003
1.088247e+003, 4.773909e+003
1.088729e+003, 4.773131e+003
1.089211e+003, 4.768284e+003
1.089693e+003, 4.756993e+003
1.090175e+003, 4.748341e+003
1.090657e+003, 4.749122e+003
1.091140e+003, 4.750723e+003
1.091622e+003, 4.748318e+003
1.092104e+003, 4.742471e+003
1.092586e+003, 4.738026e+003
1.093068e+003, 4.734815e+003
1.093550e+003, 4.731070e+003
1.094032e+003, 4.725124e+003
1.094514e+003, 4.719634e+003
1.094997e+003, 4.716712e+003
1.095479e+003, 4.715369e+003
1.095961e+003, 4.714278e+003
1.096443e+003, 4.713566e+003
1.096925e+003, 4.712511e+003
1.097407e+003, 4.711177e+003
1.097889e+003, 4.709066e+003
1.098371e+003, 4.705665e+003
1.098854e+003, 4.701375e+003
1.099336e+003, 4.696429e+003
1.099818e+003, 4.690972e+003
1.100300e+003, 4.685563e+003
1.100782e+003, 4.679060e+003
1.101264e+003, 4.675001e+003
1.101746e+003, 4.674609e+003
1.102228e+003, 4.675319e+003
1.102710e+003, 4.674064e+003
1.103193e+003, 4.671202e+003
1.103675e+003, 4.667109e+003
1.104157e+003, 4.661886e+003
1.104639e+003, 4.657317e+003
1.105121e+003, 4.655944e+003
1.105603e+003, 4.653156e+003
1.106085e+003, 4.645934e+003
1.106567e+003, 4.636709e+003
1.107049e+003, 4.633753e+003
1.107531e+003, 4.636267e+003
1.108014e+003, 4.638333e+003
1.108496e+003, 4.638323e+003
1.108978e+003, 4.637513e+003
1.109460e+003, 4.636204e+003
1.109942e+003, 4.634846e+003
1.110424e+003, 4.634456e+003
1.110906e+003, 4.635178e+003
1.111388e+003, 4.630835e+003
1.111871e+003, 4.620920e+003
1.112353e+003, 4.613322e+003
1.112835e+003, 4.614048e+003
1.113317e+003, 4.616458e+003
1.113799e+003, 4.612104e+003
1.114281e+003, 4.604896e+003
1.114763e+003, 4.601433e+003
1.115245e+003, 4.606092e+003
1.115728e+003, 4.607665e+003
1.116210e+003, 4.605529e+003
1.116692e+003, 4.602591e+003
1.117174e+003, 4.601839e+003
1.117656e+003, 4.601685e+003
1.118138e+003, 4.598356e+003
1.118620e+003, 4.592738e+003
1.119102e+003, 4.588747e+003
1.119584e+003, 4.589359e+003
1.120067e+003, 4.589162e+003
1.120549e+003, 4.586552e+003
1.121031e+003, 4.583805e+003
1.121513e+003, 4.585722e+003
1.121995e+003, 4.590007e+003
1.122477e+003, 4.587821e+003
1.122959e+003, 4.578431e+003
1.123441e+003, 4.569555e+003
1.123924e+003, 4.564931e+003
1.124406e+003, 4.562188e+003
1.124888e+003, 4.560498e+003
1.125370e+003, 4.559681e+003
1.125852e+003, 4.559681e+003
1.126334e+003, 4.560393e+003
1.126816e+003, 4.560284e+003
1.127298e+003, 4.559291e+003
1.127781e+003, 4.556384e+003
1.128263e+003, 4.547977e+003
1.128745e+003, 4.539640e+003
1.129227e+003, 4.536994e+003
1.129709e+003, 4.539698e+003
1.130191e+003, 4.538365e+003
1.130673e+003, 4.532604e+003
1.131155e+003, 4.529010e+003
1.131637e+003, 4.531511e+003
1.132120e+003, 4.534920e+003
1.132602e+003, 4.532788e+003
1.133084e+003, 4.528447e+003
1.133566e+003, 4.526908e+003
1.134048e+003, 4.530133e+003
1.134530e+003, 4.530968e+003
1.135012e+003, 4.528979e+003
1.135494e+003, 4.526157e+003
1.135976e+003, 4.522531e+003
1.136458e+003, 4.519691e+003
1.136941e+003, 4.521253e+003
1.137423e+003, 4.525636e+003
1.137905e+003, 4.528957e+003
1.138387e+003, 4.529555e+003
1.138869e+003, 4.529856e+003
1.139351e+003, 4.529914e+003
1.139833e+003, 4.529813e+003
1.140315e+003, 4.529789e+003
1.140798e+003, 4.529608e+003
1.141280e+003, 4.528367e+003
1.141762e+003, 4.526257e+003
1.142244e+003, 4.524780e+003
1.142726e+003, 4.525322e+003
1.143208e+003, 4.525490e+003
1.143690e+003, 4.524745e+003
1.144172e+003, 4.523391e+003
1.144655e+003, 4.521752e+003
1.145137e+003, 4.519936e+003
1.145619e+003, 4.518515e+003
1.146101e+003, 4.517622e+003
1.146583e+003, 4.515507e+003
1.147065e+003, 4.508649e+003
1.147547e+003, 4.503333e+003
1.148029e+003, 4.502909e+003
1.148511e+003, 4.505808e+003
1.148994e+003, 4.508054e+003
1.149476e+003, 4.509598e+003
1.149958e+003, 4.509239e+003
1.150440e+003, 4.505978e+003
1.150922e+003, 4.504469e+003
1.151404e+003, 4.510807e+003
1.151886e+003, 4.517774e+003
1.152368e+003, 4.519084e+003
1.152851e+003, 4.515466e+003
1.153333e+003, 4.515192e+003
1.153815e+003, 4.518221e+003
1.154297e+003, 4.520261e+003
1.154779e+003, 4.519364e+003
1.155261e+003, 4.517521e+003
1.155743e+003, 4.516680e+003
1.156225e+003, 4.515816e+003
1.156708e+003, 4.513338e+003
1.157190e+003, 4.508724e+003
1.157672e+003, 4.506584e+003
1.158154e+003, 4.507266e+003
1.158636e+003, 4.507670e+003
1.159118e+003, 4.505834e+003
1.159600e+003, 4.503253e+003
1.160082e+003, 4.501679e+003
1.160564e+003, 4.500600e+003
1.161047e+003, 4.499023e+003
1.161529e+003, 4.496332e+003
1.162011e+003, 4.494515e+003
1.162493e+003, 4.493620e+003
1.162975e+003, 4.493632e+003
1.163457e+003, 4.495545e+003
1.163939e+003, 4.497658e+003
1.164421e+003, 4.496712e+003
1.164903e+003, 4.493872e+003
1.165385e+003, 4.492858e+003
1.165868e+003, 4.496841e+003
1.166350e+003, 4.497606e+003
1.166832e+003, 4.493314e+003
1.167314e+003, 4.488908e+003
1.167796e+003, 4.490677e+003
1.168278e+003, 4.495360e+003
1.168760e+003, 4.497479e+003
1.169242e+003, 4.496955e+003
1.169725e+003, 4.495529e+003
1.170207e+003, 4.492442e+003
1.170689e+003, 4.490545e+003
1.171171e+003, 4.490604e+003
1.171653e+003, 4.491491e+003
1.172135e+003, 4.491731e+003
1.172617e+003, 4.491552e+003
1.173099e+003, 4.491177e+003
1.173582e+003, 4.490668e+003
1.174064e+003, 4.491095e+003
1.174546e+003, 4.494375e+003
1.175028e+003, 4.496636e+003
1.175510e+003, 4.496841e+003
1.175992e+003, 4.495458e+003
1.176474e+003, 4.492610e+003
1.176956e+003, 4.488994e+003
1.177438e+003, 4.487025e+003
1.177921e+003, 4.487381e+003
1.178403e+003, 4.487253e+003
1.178885e+003, 4.483865e+003
1.179367e+003, 4.481831e+003
1.179849e+003, 4.483678e+003
1.180331e+003, 4.487736e+003
1.180813e+003, 4.488988e+003
1.181295e+003, 4.487878e+003
1.181778e+003, 4.485740e+003
1.182260e+003, 4.482434e+003
1.182742e+003, 4.480065e+003
1.183224e+003, 4.480492e+003
1.183706e+003, 4.481250e+003
1.184188e+003, 4.481265e+003
1.184670e+003, 4.480401e+003
1.185152e+003, 4.476801e+003
1.185635e+003, 4.471339e+003
1.186117e+003, 4.468714e+003
1.186599e+003, 4.472306e+003
1.187081e+003, 4.475611e+003
1.187563e+003, 4.475940e+003
1.188045e+003, 4.474143e+003
1.188527e+003, 4.470217e+003
1.189009e+003, 4.464511e+003
1.189491e+003, 4.461332e+003
1.189974e+003, 4.460422e+003
1.190456e+003, 4.459896e+003
1.190938e+003, 4.460224e+003
1.191420e+003, 4.458832e+003
1.191902e+003, 4.451679e+003
1.192384e+003, 4.444208e+003
1.192866e+003, 4.442243e+003
1.193348e+003, 4.445931e+003
1.193830e+003, 4.447633e+003
1.194313e+003, 4.447404e+003
1.194795e+003, 4.446367e+003
1.195277e+003, 4.444907e+003
1.195759e+003, 4.443103e+003
1.196241e+003, 4.440524e+003
1.196723e+003, 4.437928e+003
1.197205e+003, 4.436564e+003
1.197687e+003, 4.436520e+003
1.198169e+003, 4.435117e+003
1.198652e+003, 4.432313e+003
1.199134e+003, 4.429120e+003
1.199616e+003, 4.426413e+003
1.200098e+003, 4.423431e+003
1.200580e+003, 4.418745e+003
1.201062e+003, 4.414021e+003
1.201544e+003, 4.412077e+003
1.202026e+003, 4.412991e+003
1.202509e+003, 4.414266e+003
1.202991e+003, 4.415686e+003
1.203473e+003, 4.417222e+003
1.203955e+003, 4.419198e+003
1.204437e+003, 4.420881e+003
1.204919e+003, 4.422240e+003
1.205401e+003, 4.422714e+003
1.205883e+003, 4.420484e+003
1.206365e+003, 4.415390e+003
1.206848e+003, 4.412586e+003
1.207330e+003, 4.412854e+003
1.207812e+003, 4.413032e+003
1.208294e+003, 4.409914e+003
1.208776e+003, 4.406531e+003
1.209258e+003, 4.405045e+003
1.209740e+003, 4.405025e+003
1.210222e+003, 4.405436e+003
1.210705e+003, 4.406320e+003
1.211187e+003, 4.407907e+003
1.211669e+003, 4.410545e+003
1.212151e+003, 4.411583e+003
1.212633e+003, 4.407689e+003
1.213115e+003, 4.402530e+003
1.213597e+003, 4.398350e+003
1.214079e+003, 4.395272e+003
1.214562e+003, 4.393776e+003
1.215044e+003, 4.393846e+003
1.215526e+003, 4.394533e+003
1.216008e+003, 4.395862e+003
1.216490e+003, 4.396349e+003
1.216972e+003, 4.393582e+003
1.217454e+003, 4.390503e+003
1.217936e+003, 4.389200e+003
1.218418e+003, 4.389472e+003
1.218901e+003, 4.391240e+003
1.219383e+003, 4.394337e+003
1.219865e+003, 4.395928e+003
1.220347e+003, 4.394982e+003
1.220829e+003, 4.393102e+003
1.221311e+003, 4.391108e+003
1.221793e+003, 4.388953e+003
1.222275e+003, 4.386574e+003
1.222757e+003, 4.384008e+003
1.223240e+003, 4.381217e+003
1.223722e+003, 4.378275e+003
1.224204e+003, 4.375673e+003
1.224686e+003, 4.373588e+003
1.225168e+003, 4.372069e+003
1.225650e+003, 4.372708e+003
1.226132e+003, 4.372513e+003
1.226614e+003, 4.368350e+003
1.227096e+003, 4.361119e+003
1.227579e+003, 4.359336e+003
1.228061e+003, 4.362413e+003
1.228543e+003, 4.365034e+003
1.229025e+003, 4.364581e+003
1.229507e+003, 4.364505e+003
1.229989e+003, 4.368297e+003
1.230471e+003, 4.371814e+003
1.230953e+003, 4.371502e+003
1.231436e+003, 4.367850e+003
1.231918e+003, 4.365699e+003
1.232400e+003, 4.364849e+003
1.232882e+003, 4.364190e+003
1.233364e+003, 4.363473e+003
1.233846e+003, 4.362419e+003
1.234328e+003, 4.360623e+003
1.234810e+003, 4.358682e+003
1.235292e+003, 4.356696e+003
1.235775e+003, 4.354914e+003
1.236257e+003, 4.355513e+003
1.236739e+003, 4.358105e+003
1.237221e+003, 4.360537e+003
1.237703e+003, 4.362347e+003
1.238185e+003, 4.363101e+003
1.238667e+003, 4.361871e+003
1.239149e+003, 4.360226e+003
1.239632e+003, 4.358812e+003
1.240114e+003, 4.357884e+003
1.240596e+003, 4.359686e+003
1.241078e+003, 4.363460e+003
1.241560e+003, 4.366119e+003
1.242042e+003, 4.366304e+003
1.242524e+003, 4.364879e+003
1.243006e+003, 4.360643e+003
1.243489e+003, 4.356793e+003
1.243971e+003, 4.356218e+003
1.244453e+003, 4.358116e+003
1.244935e+003, 4.359549e+003
1.245417e+003, 4.360530e+003
1.245899e+003, 4.361083e+003
1.246381e+003, 4.361284e+003
1.246863e+003, 4.360886e+003
1.247345e+003, 4.359618e+003
1.247828e+003, 4.358365e+003
1.248310e+003, 4.357575e+003
1.248792e+003, 4.357528e+003
1.249274e+003, 4.359635e+003
1.249756e+003, 4.363225e+003
1.250238e+003, 4.365954e+003
1.250720e+003, 4.367270e+003
1.251202e+003, 4.367012e+003
1.251684e+003, 4.364839e+003
1.252167e+003, 4.361999e+003
1.252649e+003, 4.358939e+003
1.253131e+003, 4.356202e+003
1.253613e+003, 4.355006e+003
1.254095e+003, 4.355014e+003
1.254577e+003, 4.355218e+003
1.255059e+003, 4.355718e+003
1.255541e+003, 4.355346e+003
1.256023e+003, 4.353603e+003
1.256506e+003, 4.352394e+003
1.256988e+003, 4.353991e+003
1.257470e+003, 4.356779e+003
1.257952e+003, 4.358888e+003
1.258434e+003, 4.360284e+003
1.258916e+003, 4.361006e+003
1.259398e+003, 4.361814e+003
1.259880e+003, 4.359635e+003
1.260363e+003, 4.353726e+003
1.260845e+003, 4.348545e+003
1.261327e+003, 4.349604e+003
1.261809e+003, 4.351835e+003
1.262291e+003, 4.348946e+003
1.262773e+003, 4.343122e+003
1.263255e+003, 4.340792e+003
1.263737e+003, 4.343284e+003
1.264219e+003, 4.343524e+003
1.264702e+003, 4.340923e+003
1.265184e+003, 4.337679e+003
1.265666e+003, 4.334864e+003
1.266148e+003, 4.332667e+003
1.266630e+003, 4.330510e+003
1.267112e+003, 4.329491e+003
1.267594e+003, 4.332334e+003
1.268076e+003, 4.339560e+003
1.268559e+003, 4.342946e+003
1.269041e+003, 4.341976e+003
1.269523e+003, 4.339264e+003
1.270005e+003, 4.334699e+003
1.270487e+003, 4.330953e+003
1.270969e+003, 4.330258e+003
1.271451e+003, 4.330964e+003
1.271933e+003, 4.330810e+003
1.272416e+003, 4.329913e+003
1.272898e+003, 4.330025e+003
1.273380e+003, 4.331211e+003
1.273862e+003, 4.333131e+003
1.274344e+003, 4.334673e+003
1.274826e+003, 4.338394e+003
1.275308e+003, 4.347955e+003
1.275790e+003, 4.356903e+003
1.276272e+003, 4.355596e+003
1.276755e+003, 4.346828e+003
1.277237e+003, 4.340692e+003
1.277719e+003, 4.337611e+003
1.278201e+003, 4.335367e+003
1.278683e+003, 4.332492e+003
1.279165e+003, 4.331419e+003
1.279647e+003, 4.332991e+003
1.280129e+003, 4.335564e+003
1.280611e+003, 4.337821e+003
1.281094e+003, 4.339519e+003
1.281576e+003, 4.339984e+003
1.282058e+003, 4.339360e+003
1.282540e+003, 4.338529e+003
1.283022e+003, 4.338350e+003
1.283504e+003, 4.336148e+003
1.283986e+003, 4.330755e+003
1.284468e+003, 4.326365e+003
1.284950e+003, 4.328758e+003
1.285433e+003, 4.333552e+003
1.285915e+003, 4.335187e+003
1.286397e+003, 4.334053e+003
1.286879e+003, 4.332343e+003
1.287361e+003, 4.329506e+003
1.287843e+003, 4.329832e+003
1.288325e+003, 4.334167e+003
1.288807e+003, 4.337955e+003
1.289290e+003, 4.336668e+003
1.289772e+003, 4.333720e+003
1.290254e+003, 4.331411e+003
1.290736e+003, 4.329931e+003
1.291218e+003, 4.329358e+003
1.291700e+003, 4.329766e+003
1.292182e+003, 4.329554e+003
1.292664e+003, 4.328589e+003
1.293146e+003, 4.328787e+003
1.293629e+003, 4.333677e+003
1.294111e+003, 4.337668e+003
1.294593e+003, 4.336733e+003
1.295075e+003, 4.333484e+003
1.295557e+003, 4.330623e+003
1.296039e+003, 4.328178e+003
1.296521e+003, 4.326400e+003
1.297003e+003, 4.325196e+003
1.297486e+003, 4.324315e+003
1.297968e+003, 4.324941e+003
1.298450e+003, 4.324783e+003
1.298932e+003, 4.322868e+003
1.299414e+003, 4.321015e+003
1.299896e+003, 4.321979e+003
1.300378e+003, 4.324525e+003
1.300860e+003, 4.325614e+003
1.301343e+003, 4.325247e+003
1.301825e+003, 4.323790e+003
##END=



