##NAMES=Zirkelite
##RRUFFID=R060540
##IDEAL CHEMISTRY=(Ti^4+^,Ca,Zr^4+^)O_2-x_
##LOCALITY=Palabora Open Pit, Phalaborwa, Transvaal, Republic of South Africa
##OWNER=RRUFF
##SOURCE=Michael Scott
##DESCRIPTION=Black flattened octahedra, metamict
##STATUS=The identification of this mineral has been confirmed by X-ray diffraction and chemical analysis
##URL=rruff.info/R060540
##MEASURED CHEMISTRY=(Ti_0.42_Zr_0.28_Ca_0.20_Fe^3+^_0.08_Th_0.02_)_Î£=1_O_1.76_; trace amounts of Ce, Pb, U
9.059570e+001, 3.965718e+003
9.107782e+001, 3.840096e+003
9.155994e+001, 3.795619e+003
9.204205e+001, 3.888559e+003
9.252417e+001, 4.024655e+003
9.300629e+001, 4.174143e+003
9.348840e+001, 4.303795e+003
9.397052e+001, 4.383067e+003
9.445264e+001, 4.397226e+003
9.493475e+001, 4.402521e+003
9.541687e+001, 4.402180e+003
9.589898e+001, 4.400120e+003
9.638110e+001, 4.396876e+003
9.686321e+001, 4.392750e+003
9.734533e+001, 4.384935e+003
9.782745e+001, 4.365502e+003
9.830956e+001, 4.348153e+003
9.879168e+001, 4.332906e+003
9.927380e+001, 4.321018e+003
9.975591e+001, 4.312334e+003
1.002380e+002, 4.306036e+003
1.007201e+002, 4.301398e+003
1.012023e+002, 4.298349e+003
1.016844e+002, 4.296345e+003
1.021665e+002, 4.293224e+003
1.026486e+002, 4.287337e+003
1.031307e+002, 4.280819e+003
1.036128e+002, 4.274966e+003
1.040950e+002, 4.269202e+003
1.045771e+002, 4.265552e+003
1.050592e+002, 4.264856e+003
1.055413e+002, 4.265823e+003
1.060234e+002, 4.267099e+003
1.065055e+002, 4.267171e+003
1.069877e+002, 4.266711e+003
1.074698e+002, 4.269238e+003
1.079519e+002, 4.277474e+003
1.084340e+002, 4.284948e+003
1.089161e+002, 4.289482e+003
1.093982e+002, 4.291100e+003
1.098804e+002, 4.290182e+003
1.103625e+002, 4.286361e+003
1.108446e+002, 4.278647e+003
1.113267e+002, 4.272997e+003
1.118088e+002, 4.269552e+003
1.122909e+002, 4.267708e+003
1.127731e+002, 4.267506e+003
1.132552e+002, 4.268786e+003
1.137373e+002, 4.271129e+003
1.142194e+002, 4.274041e+003
1.147015e+002, 4.278669e+003
1.151836e+002, 4.281615e+003
1.156658e+002, 4.282477e+003
1.161479e+002, 4.281952e+003
1.166300e+002, 4.280368e+003
1.171121e+002, 4.277765e+003
1.175942e+002, 4.274787e+003
1.180763e+002, 4.273101e+003
1.185584e+002, 4.273105e+003
1.190406e+002, 4.273147e+003
1.195227e+002, 4.272995e+003
1.200048e+002, 4.272542e+003
1.204869e+002, 4.271264e+003
1.209690e+002, 4.268126e+003
1.214511e+002, 4.264694e+003
1.219333e+002, 4.263738e+003
1.224154e+002, 4.265683e+003
1.228975e+002, 4.269252e+003
1.233796e+002, 4.274141e+003
1.238617e+002, 4.280650e+003
1.243438e+002, 4.285808e+003
1.248260e+002, 4.287222e+003
1.253081e+002, 4.286784e+003
1.257902e+002, 4.285840e+003
1.262723e+002, 4.284650e+003
1.267544e+002, 4.283432e+003
1.272365e+002, 4.282736e+003
1.277187e+002, 4.282829e+003
1.282008e+002, 4.283053e+003
1.286829e+002, 4.282542e+003
1.291650e+002, 4.282147e+003
1.296471e+002, 4.283189e+003
1.301292e+002, 4.286790e+003
1.306114e+002, 4.292696e+003
1.310935e+002, 4.296921e+003
1.315756e+002, 4.298633e+003
1.320577e+002, 4.299431e+003
1.325398e+002, 4.298667e+003
1.330219e+002, 4.297155e+003
1.335041e+002, 4.296635e+003
1.339862e+002, 4.298833e+003
1.344683e+002, 4.304464e+003
1.349504e+002, 4.308121e+003
1.354325e+002, 4.308170e+003
1.359146e+002, 4.307952e+003
1.363968e+002, 4.309299e+003
1.368789e+002, 4.312397e+003
1.373610e+002, 4.316396e+003
1.378431e+002, 4.320392e+003
1.383252e+002, 4.324381e+003
1.388073e+002, 4.328429e+003
1.392895e+002, 4.333342e+003
1.397716e+002, 4.338002e+003
1.402537e+002, 4.340994e+003
1.407358e+002, 4.341856e+003
1.412179e+002, 4.341540e+003
1.417000e+002, 4.340943e+003
1.421821e+002, 4.340090e+003
1.426643e+002, 4.339376e+003
1.431464e+002, 4.338975e+003
1.436285e+002, 4.338850e+003
1.441106e+002, 4.338901e+003
1.445927e+002, 4.339296e+003
1.450748e+002, 4.339649e+003
1.455570e+002, 4.339603e+003
1.460391e+002, 4.339155e+003
1.465212e+002, 4.338614e+003
1.470033e+002, 4.338315e+003
1.474854e+002, 4.338312e+003
1.479675e+002, 4.338009e+003
1.484497e+002, 4.336770e+003
1.489318e+002, 4.335513e+003
1.494139e+002, 4.335059e+003
1.498960e+002, 4.335508e+003
1.503781e+002, 4.335838e+003
1.508602e+002, 4.334315e+003
1.513424e+002, 4.329662e+003
1.518245e+002, 4.325899e+003
1.523066e+002, 4.323542e+003
1.527887e+002, 4.321958e+003
1.532708e+002, 4.320836e+003
1.537529e+002, 4.320039e+003
1.542351e+002, 4.319329e+003
1.547172e+002, 4.318107e+003
1.551993e+002, 4.316080e+003
1.556814e+002, 4.313825e+003
1.561635e+002, 4.310687e+003
1.566456e+002, 4.307531e+003
1.571278e+002, 4.305769e+003
1.576099e+002, 4.306216e+003
1.580920e+002, 4.307976e+003
1.585741e+002, 4.307122e+003
1.590562e+002, 4.300441e+003
1.595383e+002, 4.295089e+003
1.600205e+002, 4.293675e+003
1.605026e+002, 4.294954e+003
1.609847e+002, 4.296133e+003
1.614668e+002, 4.295761e+003
1.619489e+002, 4.293908e+003
1.624310e+002, 4.291397e+003
1.629131e+002, 4.287010e+003
1.633953e+002, 4.283158e+003
1.638774e+002, 4.281913e+003
1.643595e+002, 4.282988e+003
1.648416e+002, 4.283494e+003
1.653237e+002, 4.281210e+003
1.658058e+002, 4.277176e+003
1.662880e+002, 4.273885e+003
1.667701e+002, 4.271537e+003
1.672522e+002, 4.270072e+003
1.677343e+002, 4.269862e+003
1.682164e+002, 4.271271e+003
1.686985e+002, 4.272210e+003
1.691807e+002, 4.270478e+003
1.696628e+002, 4.267759e+003
1.701449e+002, 4.266198e+003
1.706270e+002, 4.267074e+003
1.711091e+002, 4.269322e+003
1.715912e+002, 4.270479e+003
1.720734e+002, 4.270095e+003
1.725555e+002, 4.269369e+003
1.730376e+002, 4.269058e+003
1.735197e+002, 4.268748e+003
1.740018e+002, 4.267757e+003
1.744839e+002, 4.265492e+003
1.749661e+002, 4.262265e+003
1.754482e+002, 4.260028e+003
1.759303e+002, 4.260467e+003
1.764124e+002, 4.260025e+003
1.768945e+002, 4.257449e+003
1.773766e+002, 4.253373e+003
1.778588e+002, 4.248923e+003
1.783409e+002, 4.244819e+003
1.788230e+002, 4.241050e+003
1.793051e+002, 4.237900e+003
1.797872e+002, 4.235302e+003
1.802693e+002, 4.233347e+003
1.807515e+002, 4.232479e+003
1.812336e+002, 4.232344e+003
1.817157e+002, 4.232085e+003
1.821978e+002, 4.230854e+003
1.826799e+002, 4.228397e+003
1.831620e+002, 4.227409e+003
1.836441e+002, 4.228099e+003
1.841263e+002, 4.229634e+003
1.846084e+002, 4.232748e+003
1.850905e+002, 4.236816e+003
1.855726e+002, 4.239394e+003
1.860547e+002, 4.237950e+003
1.865368e+002, 4.231768e+003
1.870190e+002, 4.226575e+003
1.875011e+002, 4.222611e+003
1.879832e+002, 4.219465e+003
1.884653e+002, 4.217463e+003
1.889474e+002, 4.216548e+003
1.894296e+002, 4.215051e+003
1.899117e+002, 4.210940e+003
1.903938e+002, 4.204306e+003
1.908759e+002, 4.198428e+003
1.913580e+002, 4.193564e+003
1.918401e+002, 4.189703e+003
1.923223e+002, 4.187359e+003
1.928044e+002, 4.186933e+003
1.932865e+002, 4.186205e+003
1.937686e+002, 4.181627e+003
1.942507e+002, 4.174559e+003
1.947328e+002, 4.169563e+003
1.952150e+002, 4.169489e+003
1.956971e+002, 4.172161e+003
1.961792e+002, 4.173362e+003
1.966613e+002, 4.172573e+003
1.971434e+002, 4.170601e+003
1.976255e+002, 4.167531e+003
1.981077e+002, 4.163745e+003
1.985898e+002, 4.160326e+003
1.990719e+002, 4.157822e+003
1.995540e+002, 4.156116e+003
2.000361e+002, 4.154771e+003
2.005182e+002, 4.153843e+003
2.010004e+002, 4.153229e+003
2.014825e+002, 4.152707e+003
2.019646e+002, 4.152394e+003
2.024467e+002, 4.152604e+003
2.029288e+002, 4.153953e+003
2.034109e+002, 4.156330e+003
2.038930e+002, 4.157549e+003
2.043752e+002, 4.156225e+003
2.048573e+002, 4.155173e+003
2.053394e+002, 4.156193e+003
2.058215e+002, 4.158462e+003
2.063036e+002, 4.159850e+003
2.067857e+002, 4.158124e+003
2.072679e+002, 4.153015e+003
2.077500e+002, 4.150182e+003
2.082321e+002, 4.152075e+003
2.087142e+002, 4.154138e+003
2.091963e+002, 4.154790e+003
2.096784e+002, 4.154323e+003
2.101606e+002, 4.154005e+003
2.106427e+002, 4.155151e+003
2.111248e+002, 4.158110e+003
2.116069e+002, 4.159229e+003
2.120890e+002, 4.156844e+003
2.125711e+002, 4.154343e+003
2.130533e+002, 4.152897e+003
2.135354e+002, 4.152536e+003
2.140175e+002, 4.152795e+003
2.144996e+002, 4.153332e+003
2.149817e+002, 4.154249e+003
2.154638e+002, 4.154704e+003
2.159460e+002, 4.154114e+003
2.164281e+002, 4.153694e+003
2.169102e+002, 4.153912e+003
2.173923e+002, 4.154842e+003
2.178744e+002, 4.156585e+003
2.183565e+002, 4.159534e+003
2.188387e+002, 4.163997e+003
2.193208e+002, 4.165948e+003
2.198029e+002, 4.163550e+003
2.202850e+002, 4.160465e+003
2.207671e+002, 4.158857e+003
2.212492e+002, 4.158789e+003
2.217314e+002, 4.159111e+003
2.222135e+002, 4.158816e+003
2.226956e+002, 4.157857e+003
2.231777e+002, 4.157454e+003
2.236598e+002, 4.158259e+003
2.241419e+002, 4.159134e+003
2.246240e+002, 4.159102e+003
2.251062e+002, 4.158151e+003
2.255883e+002, 4.157164e+003
2.260704e+002, 4.156997e+003
2.265525e+002, 4.157501e+003
2.270346e+002, 4.157406e+003
2.275167e+002, 4.155530e+003
2.279989e+002, 4.153725e+003
2.284810e+002, 4.154250e+003
2.289631e+002, 4.157297e+003
2.294452e+002, 4.160012e+003
2.299273e+002, 4.159923e+003
2.304094e+002, 4.157867e+003
2.308916e+002, 4.156196e+003
2.313737e+002, 4.155249e+003
2.318558e+002, 4.154872e+003
2.323379e+002, 4.154795e+003
2.328200e+002, 4.154951e+003
2.333021e+002, 4.155852e+003
2.337843e+002, 4.158606e+003
2.342664e+002, 4.162197e+003
2.347485e+002, 4.165047e+003
2.352306e+002, 4.166405e+003
2.357127e+002, 4.167147e+003
2.361948e+002, 4.168798e+003
2.366770e+002, 4.171827e+003
2.371591e+002, 4.173832e+003
2.376412e+002, 4.171710e+003
2.381233e+002, 4.168456e+003
2.386054e+002, 4.167865e+003
2.390875e+002, 4.172382e+003
2.395697e+002, 4.178199e+003
2.400518e+002, 4.178118e+003
2.405339e+002, 4.169517e+003
2.410160e+002, 4.163496e+003
2.414981e+002, 4.166889e+003
2.419802e+002, 4.173772e+003
2.424624e+002, 4.178714e+003
2.429445e+002, 4.179688e+003
2.434266e+002, 4.178505e+003
2.439087e+002, 4.178108e+003
2.443908e+002, 4.178587e+003
2.448729e+002, 4.179598e+003
2.453550e+002, 4.181227e+003
2.458372e+002, 4.183171e+003
2.463193e+002, 4.185350e+003
2.468014e+002, 4.187764e+003
2.472835e+002, 4.189980e+003
2.477656e+002, 4.191313e+003
2.482477e+002, 4.191709e+003
2.487299e+002, 4.191205e+003
2.492120e+002, 4.188604e+003
2.496941e+002, 4.185928e+003
2.501762e+002, 4.185051e+003
2.506583e+002, 4.186498e+003
2.511404e+002, 4.188828e+003
2.516226e+002, 4.189606e+003
2.521047e+002, 4.188161e+003
2.525868e+002, 4.186643e+003
2.530689e+002, 4.184644e+003
2.535510e+002, 4.183066e+003
2.540331e+002, 4.182908e+003
2.545153e+002, 4.184294e+003
2.549974e+002, 4.186109e+003
2.554795e+002, 4.186363e+003
2.559616e+002, 4.183292e+003
2.564437e+002, 4.182647e+003
2.569258e+002, 4.186024e+003
2.574080e+002, 4.190313e+003
2.578901e+002, 4.193811e+003
2.583722e+002, 4.196061e+003
2.588543e+002, 4.197353e+003
2.593364e+002, 4.197975e+003
2.598185e+002, 4.197545e+003
2.603007e+002, 4.197393e+003
2.607828e+002, 4.197657e+003
2.612649e+002, 4.198017e+003
2.617470e+002, 4.197979e+003
2.622291e+002, 4.197658e+003
2.627112e+002, 4.197845e+003
2.631934e+002, 4.199570e+003
2.636755e+002, 4.203461e+003
2.641576e+002, 4.206586e+003
2.646397e+002, 4.208590e+003
2.651218e+002, 4.210261e+003
2.656039e+002, 4.212198e+003
2.660861e+002, 4.214296e+003
2.665682e+002, 4.215788e+003
2.670503e+002, 4.215672e+003
2.675324e+002, 4.213335e+003
2.680145e+002, 4.213548e+003
2.684966e+002, 4.218697e+003
2.689788e+002, 4.223681e+003
2.694609e+002, 4.226002e+003
2.699430e+002, 4.225827e+003
2.704251e+002, 4.224497e+003
2.709072e+002, 4.222859e+003
2.713893e+002, 4.220860e+003
2.718715e+002, 4.220759e+003
2.723536e+002, 4.224088e+003
2.728357e+002, 4.227376e+003
2.733178e+002, 4.228572e+003
2.737999e+002, 4.228400e+003
2.742820e+002, 4.229167e+003
2.747642e+002, 4.232632e+003
2.752463e+002, 4.238465e+003
2.757284e+002, 4.242533e+003
2.762105e+002, 4.244660e+003
2.766926e+002, 4.245708e+003
2.771747e+002, 4.245330e+003
2.776568e+002, 4.244074e+003
2.781389e+002, 4.243074e+003
2.786211e+002, 4.242949e+003
2.791032e+002, 4.243542e+003
2.795853e+002, 4.244226e+003
2.800674e+002, 4.244451e+003
2.805495e+002, 4.245384e+003
2.810316e+002, 4.248401e+003
2.815138e+002, 4.252215e+003
2.819959e+002, 4.254444e+003
2.824780e+002, 4.253985e+003
2.829601e+002, 4.251668e+003
2.834422e+002, 4.249419e+003
2.839243e+002, 4.246574e+003
2.844065e+002, 4.244970e+003
2.848886e+002, 4.245594e+003
2.853707e+002, 4.247542e+003
2.858528e+002, 4.249653e+003
2.863349e+002, 4.251605e+003
2.868170e+002, 4.253288e+003
2.872992e+002, 4.254370e+003
2.877813e+002, 4.254514e+003
2.882634e+002, 4.255227e+003
2.887455e+002, 4.257137e+003
2.892276e+002, 4.259574e+003
2.897097e+002, 4.261837e+003
2.901919e+002, 4.263779e+003
2.906740e+002, 4.265301e+003
2.911561e+002, 4.266283e+003
2.916382e+002, 4.266701e+003
2.921203e+002, 4.266569e+003
2.926024e+002, 4.264925e+003
2.930846e+002, 4.263265e+003
2.935667e+002, 4.263066e+003
2.940488e+002, 4.264511e+003
2.945309e+002, 4.266920e+003
2.950130e+002, 4.270100e+003
2.954951e+002, 4.273994e+003
2.959773e+002, 4.276507e+003
2.964594e+002, 4.276715e+003
2.969415e+002, 4.276110e+003
2.974236e+002, 4.275651e+003
2.979057e+002, 4.275396e+003
2.983878e+002, 4.275319e+003
2.988700e+002, 4.275536e+003
2.993521e+002, 4.275892e+003
2.998342e+002, 4.275667e+003
3.003163e+002, 4.274310e+003
3.007984e+002, 4.272868e+003
3.012805e+002, 4.271754e+003
3.017627e+002, 4.271010e+003
3.022448e+002, 4.270829e+003
3.027269e+002, 4.271493e+003
3.032090e+002, 4.272685e+003
3.036911e+002, 4.273398e+003
3.041732e+002, 4.273270e+003
3.046554e+002, 4.273348e+003
3.051375e+002, 4.274537e+003
3.056196e+002, 4.276347e+003
3.061017e+002, 4.277466e+003
3.065838e+002, 4.277367e+003
3.070659e+002, 4.276464e+003
3.075481e+002, 4.275674e+003
3.080302e+002, 4.275375e+003
3.085123e+002, 4.274030e+003
3.089944e+002, 4.269888e+003
3.094765e+002, 4.264644e+003
3.099586e+002, 4.261353e+003
3.104408e+002, 4.260934e+003
3.109229e+002, 4.261987e+003
3.114050e+002, 4.262936e+003
3.118871e+002, 4.263780e+003
3.123692e+002, 4.264490e+003
3.128513e+002, 4.265509e+003
3.133335e+002, 4.266153e+003
3.138156e+002, 4.264999e+003
3.142977e+002, 4.261737e+003
3.147798e+002, 4.258973e+003
3.152619e+002, 4.259672e+003
3.157440e+002, 4.263548e+003
3.162262e+002, 4.265838e+003
3.167083e+002, 4.264996e+003
3.171904e+002, 4.263235e+003
3.176725e+002, 4.262478e+003
3.181546e+002, 4.262704e+003
3.186367e+002, 4.262607e+003
3.191188e+002, 4.261104e+003
3.196010e+002, 4.258581e+003
3.200831e+002, 4.256961e+003
3.205652e+002, 4.256980e+003
3.210473e+002, 4.257147e+003
3.215294e+002, 4.256796e+003
3.220115e+002, 4.255962e+003
3.224937e+002, 4.254651e+003
3.229758e+002, 4.252724e+003
3.234579e+002, 4.250518e+003
3.239400e+002, 4.248952e+003
3.244221e+002, 4.248207e+003
3.249042e+002, 4.247589e+003
3.253864e+002, 4.246928e+003
3.258685e+002, 4.246232e+003
3.263506e+002, 4.245493e+003
3.268327e+002, 4.244696e+003
3.273148e+002, 4.243917e+003
3.277969e+002, 4.243313e+003
3.282791e+002, 4.242950e+003
3.287612e+002, 4.242439e+003
3.292433e+002, 4.242259e+003
3.297254e+002, 4.241651e+003
3.302075e+002, 4.239142e+003
3.306896e+002, 4.234479e+003
3.311718e+002, 4.230019e+003
3.316539e+002, 4.228205e+003
3.321360e+002, 4.229312e+003
3.326181e+002, 4.230365e+003
3.331002e+002, 4.231394e+003
3.335823e+002, 4.232243e+003
3.340645e+002, 4.232676e+003
3.345466e+002, 4.232744e+003
3.350287e+002, 4.232931e+003
3.355108e+002, 4.233784e+003
3.359929e+002, 4.235006e+003
3.364750e+002, 4.234686e+003
3.369572e+002, 4.230683e+003
3.374393e+002, 4.227506e+003
3.379214e+002, 4.228286e+003
3.384035e+002, 4.231364e+003
3.388856e+002, 4.232293e+003
3.393677e+002, 4.228538e+003
3.398499e+002, 4.222477e+003
3.403320e+002, 4.220967e+003
3.408141e+002, 4.227116e+003
3.412962e+002, 4.231429e+003
3.417783e+002, 4.231390e+003
3.422604e+002, 4.228788e+003
3.427426e+002, 4.225686e+003
3.432247e+002, 4.222690e+003
3.437068e+002, 4.219672e+003
3.441889e+002, 4.216434e+003
3.446710e+002, 4.212827e+003
3.451531e+002, 4.209519e+003
3.456353e+002, 4.205969e+003
3.461174e+002, 4.203151e+003
3.465995e+002, 4.202369e+003
3.470816e+002, 4.203441e+003
3.475637e+002, 4.204610e+003
3.480458e+002, 4.204393e+003
3.485280e+002, 4.202733e+003
3.490101e+002, 4.200167e+003
3.494922e+002, 4.195359e+003
3.499743e+002, 4.191158e+003
3.504564e+002, 4.189023e+003
3.509385e+002, 4.188502e+003
3.514207e+002, 4.188505e+003
3.519028e+002, 4.188476e+003
3.523849e+002, 4.188345e+003
3.528670e+002, 4.187757e+003
3.533491e+002, 4.184858e+003
3.538312e+002, 4.183820e+003
3.543134e+002, 4.186680e+003
3.547955e+002, 4.191071e+003
3.552776e+002, 4.194237e+003
3.557597e+002, 4.195223e+003
3.562418e+002, 4.195032e+003
3.567239e+002, 4.195437e+003
3.572061e+002, 4.197436e+003
3.576882e+002, 4.197851e+003
3.581703e+002, 4.195551e+003
3.586524e+002, 4.192643e+003
3.591345e+002, 4.190238e+003
3.596166e+002, 4.188592e+003
3.600987e+002, 4.187691e+003
3.605808e+002, 4.187523e+003
3.610630e+002, 4.188087e+003
3.615451e+002, 4.189295e+003
3.620272e+002, 4.193410e+003
3.625093e+002, 4.195777e+003
3.629914e+002, 4.192901e+003
3.634735e+002, 4.187264e+003
3.639557e+002, 4.183922e+003
3.644378e+002, 4.186173e+003
3.649199e+002, 4.192366e+003
3.654020e+002, 4.195391e+003
3.658841e+002, 4.192556e+003
3.663662e+002, 4.190088e+003
3.668484e+002, 4.188389e+003
3.673305e+002, 4.187573e+003
3.678126e+002, 4.187974e+003
3.682947e+002, 4.189625e+003
3.687768e+002, 4.191813e+003
3.692589e+002, 4.193602e+003
3.697411e+002, 4.195324e+003
3.702232e+002, 4.195652e+003
3.707053e+002, 4.193004e+003
3.711874e+002, 4.190326e+003
3.716695e+002, 4.189291e+003
3.721516e+002, 4.189786e+003
3.726338e+002, 4.190536e+003
3.731159e+002, 4.190346e+003
3.735980e+002, 4.189252e+003
3.740801e+002, 4.188810e+003
3.745622e+002, 4.190069e+003
3.750443e+002, 4.190631e+003
3.755265e+002, 4.189493e+003
3.760086e+002, 4.187235e+003
3.764907e+002, 4.184661e+003
3.769728e+002, 4.182013e+003
3.774549e+002, 4.179575e+003
3.779370e+002, 4.177983e+003
3.784192e+002, 4.177374e+003
3.789013e+002, 4.177260e+003
3.793834e+002, 4.177662e+003
3.798655e+002, 4.178416e+003
3.803476e+002, 4.179771e+003
3.808297e+002, 4.181756e+003
3.813119e+002, 4.183218e+003
3.817940e+002, 4.182767e+003
3.822761e+002, 4.180451e+003
3.827582e+002, 4.178065e+003
3.832403e+002, 4.175410e+003
3.837224e+002, 4.173317e+003
3.842046e+002, 4.172346e+003
3.846867e+002, 4.172346e+003
3.851688e+002, 4.172716e+003
3.856509e+002, 4.173500e+003
3.861330e+002, 4.174365e+003
3.866151e+002, 4.174413e+003
3.870973e+002, 4.173390e+003
3.875794e+002, 4.172410e+003
3.880615e+002, 4.172834e+003
3.885436e+002, 4.173449e+003
3.890257e+002, 4.172233e+003
3.895078e+002, 4.167839e+003
3.899900e+002, 4.163247e+003
3.904721e+002, 4.160996e+003
3.909542e+002, 4.160895e+003
3.914363e+002, 4.161747e+003
3.919184e+002, 4.163556e+003
3.924005e+002, 4.165675e+003
3.928827e+002, 4.167201e+003
3.933648e+002, 4.168120e+003
3.938469e+002, 4.168969e+003
3.943290e+002, 4.171143e+003
3.948111e+002, 4.173029e+003
3.952932e+002, 4.171634e+003
3.957754e+002, 4.166346e+003
3.962575e+002, 4.159828e+003
3.967396e+002, 4.153865e+003
3.972217e+002, 4.148621e+003
3.977038e+002, 4.144685e+003
3.981859e+002, 4.143193e+003
3.986681e+002, 4.142029e+003
3.991501e+002, 4.139310e+003
3.996323e+002, 4.135600e+003
4.001144e+002, 4.133207e+003
4.005965e+002, 4.133541e+003
4.010786e+002, 4.135497e+003
4.015607e+002, 4.135896e+003
4.020428e+002, 4.134437e+003
4.025250e+002, 4.132212e+003
4.030071e+002, 4.128251e+003
4.034892e+002, 4.124113e+003
4.039713e+002, 4.121855e+003
4.044534e+002, 4.121874e+003
4.049355e+002, 4.122715e+003
4.054177e+002, 4.122731e+003
4.058998e+002, 4.121762e+003
4.063819e+002, 4.120668e+003
4.068640e+002, 4.119247e+003
4.073461e+002, 4.117926e+003
4.078282e+002, 4.117387e+003
4.083104e+002, 4.117150e+003
4.087925e+002, 4.115798e+003
4.092746e+002, 4.112248e+003
4.097567e+002, 4.107332e+003
4.102388e+002, 4.104854e+003
4.107209e+002, 4.108114e+003
4.112031e+002, 4.109601e+003
4.116852e+002, 4.108255e+003
4.121673e+002, 4.105154e+003
4.126494e+002, 4.100755e+003
4.131315e+002, 4.095427e+003
4.136136e+002, 4.090314e+003
4.140958e+002, 4.087169e+003
4.145779e+002, 4.086658e+003
4.150600e+002, 4.085402e+003
4.155421e+002, 4.083213e+003
4.160242e+002, 4.080443e+003
4.165063e+002, 4.076270e+003
4.169885e+002, 4.071580e+003
4.174706e+002, 4.068538e+003
4.179527e+002, 4.069013e+003
4.184348e+002, 4.071678e+003
4.189169e+002, 4.071546e+003
4.193990e+002, 4.066710e+003
4.198812e+002, 4.063361e+003
4.203633e+002, 4.065268e+003
4.208454e+002, 4.068440e+003
4.213275e+002, 4.068939e+003
4.218096e+002, 4.065765e+003
4.222917e+002, 4.061674e+003
4.227739e+002, 4.059686e+003
4.232560e+002, 4.059653e+003
4.237381e+002, 4.058497e+003
4.242202e+002, 4.054730e+003
4.247023e+002, 4.051144e+003
4.251844e+002, 4.050291e+003
4.256666e+002, 4.051452e+003
4.261487e+002, 4.052041e+003
4.266308e+002, 4.050949e+003
4.271129e+002, 4.048667e+003
4.275950e+002, 4.045326e+003
4.280771e+002, 4.040786e+003
4.285593e+002, 4.037641e+003
4.290414e+002, 4.038372e+003
4.295235e+002, 4.040888e+003
4.300056e+002, 4.040382e+003
4.304877e+002, 4.035528e+003
4.309698e+002, 4.030711e+003
4.314520e+002, 4.028442e+003
4.319341e+002, 4.027721e+003
4.324162e+002, 4.026890e+003
4.328983e+002, 4.025698e+003
4.333804e+002, 4.023220e+003
4.338625e+002, 4.017564e+003
4.343447e+002, 4.008022e+003
4.348268e+002, 4.001895e+003
4.353089e+002, 4.002264e+003
4.357910e+002, 4.003673e+003
4.362731e+002, 4.002715e+003
4.367552e+002, 3.999641e+003
4.372374e+002, 3.996091e+003
4.377195e+002, 3.992983e+003
4.382016e+002, 3.990182e+003
4.386837e+002, 3.987252e+003
4.391658e+002, 3.984607e+003
4.396479e+002, 3.981278e+003
4.401301e+002, 3.975563e+003
4.406122e+002, 3.970090e+003
4.410943e+002, 3.968017e+003
4.415764e+002, 3.969640e+003
4.420585e+002, 3.972159e+003
4.425406e+002, 3.972513e+003
4.430227e+002, 3.970602e+003
4.435049e+002, 3.967361e+003
4.439870e+002, 3.960884e+003
4.444691e+002, 3.955085e+003
4.449512e+002, 3.951405e+003
4.454333e+002, 3.949210e+003
4.459154e+002, 3.947308e+003
4.463976e+002, 3.945105e+003
4.468797e+002, 3.942886e+003
4.473618e+002, 3.941347e+003
4.478439e+002, 3.940716e+003
4.483260e+002, 3.940048e+003
4.488081e+002, 3.939273e+003
4.492903e+002, 3.938301e+003
4.497724e+002, 3.936886e+003
4.502545e+002, 3.935096e+003
4.507366e+002, 3.933460e+003
4.512187e+002, 3.932628e+003
4.517008e+002, 3.932323e+003
4.521830e+002, 3.931399e+003
4.526651e+002, 3.929714e+003
4.531472e+002, 3.927682e+003
4.536293e+002, 3.924878e+003
4.541114e+002, 3.922022e+003
4.545935e+002, 3.920448e+003
4.550757e+002, 3.921251e+003
4.555578e+002, 3.921779e+003
4.560399e+002, 3.919349e+003
4.565220e+002, 3.914613e+003
4.570041e+002, 3.910378e+003
4.574862e+002, 3.907465e+003
4.579684e+002, 3.905250e+003
4.584505e+002, 3.903000e+003
4.589326e+002, 3.900713e+003
4.594147e+002, 3.898632e+003
4.598968e+002, 3.897303e+003
4.603789e+002, 3.895878e+003
4.608611e+002, 3.893593e+003
4.613432e+002, 3.890500e+003
4.618253e+002, 3.886990e+003
4.623074e+002, 3.883117e+003
4.627895e+002, 3.879188e+003
4.632716e+002, 3.876391e+003
4.637538e+002, 3.875942e+003
4.642359e+002, 3.874971e+003
4.647180e+002, 3.872789e+003
4.652001e+002, 3.870105e+003
4.656822e+002, 3.867604e+003
4.661643e+002, 3.865419e+003
4.666465e+002, 3.863320e+003
4.671286e+002, 3.861003e+003
4.676107e+002, 3.858353e+003
4.680928e+002, 3.856267e+003
4.685749e+002, 3.856403e+003
4.690570e+002, 3.855256e+003
4.695392e+002, 3.850934e+003
4.700213e+002, 3.844960e+003
4.705034e+002, 3.839594e+003
4.709855e+002, 3.835824e+003
4.714676e+002, 3.833028e+003
4.719497e+002, 3.830286e+003
4.724319e+002, 3.827740e+003
4.729140e+002, 3.824694e+003
4.733961e+002, 3.820859e+003
4.738782e+002, 3.816677e+003
4.743603e+002, 3.812125e+003
4.748424e+002, 3.807415e+003
4.753246e+002, 3.803125e+003
4.758067e+002, 3.800269e+003
4.762888e+002, 3.797880e+003
4.767709e+002, 3.793477e+003
4.772530e+002, 3.786738e+003
4.777351e+002, 3.780160e+003
4.782173e+002, 3.774792e+003
4.786994e+002, 3.770375e+003
4.791815e+002, 3.766440e+003
4.796636e+002, 3.762981e+003
4.801457e+002, 3.759975e+003
4.806278e+002, 3.757680e+003
4.811100e+002, 3.755752e+003
4.815920e+002, 3.753566e+003
4.820742e+002, 3.751000e+003
4.825563e+002, 3.748297e+003
4.830384e+002, 3.745783e+003
4.835205e+002, 3.743396e+003
4.840026e+002, 3.740026e+003
4.844847e+002, 3.734482e+003
4.849669e+002, 3.729291e+003
4.854490e+002, 3.725900e+003
4.859311e+002, 3.723437e+003
4.864132e+002, 3.720185e+003
4.868953e+002, 3.715501e+003
4.873774e+002, 3.710445e+003
4.878596e+002, 3.706929e+003
4.883417e+002, 3.706031e+003
4.888238e+002, 3.703629e+003
4.893059e+002, 3.698771e+003
4.897880e+002, 3.693609e+003
4.902701e+002, 3.689066e+003
4.907523e+002, 3.685098e+003
4.912344e+002, 3.681469e+003
4.917165e+002, 3.678146e+003
4.921986e+002, 3.674812e+003
4.926807e+002, 3.670276e+003
4.931628e+002, 3.663648e+003
4.936450e+002, 3.658353e+003
4.941271e+002, 3.656878e+003
4.946092e+002, 3.655743e+003
4.950913e+002, 3.652607e+003
4.955734e+002, 3.647396e+003
4.960555e+002, 3.641534e+003
4.965377e+002, 3.635662e+003
4.970198e+002, 3.629942e+003
4.975019e+002, 3.624868e+003
4.979840e+002, 3.620481e+003
4.984661e+002, 3.616563e+003
4.989482e+002, 3.613156e+003
4.994304e+002, 3.610051e+003
4.999125e+002, 3.606964e+003
5.003946e+002, 3.604177e+003
5.008767e+002, 3.600667e+003
5.013588e+002, 3.594745e+003
5.018409e+002, 3.588052e+003
5.023231e+002, 3.584127e+003
5.028052e+002, 3.583752e+003
5.032873e+002, 3.583163e+003
5.037694e+002, 3.578517e+003
5.042515e+002, 3.569594e+003
5.047336e+002, 3.562404e+003
5.052158e+002, 3.557623e+003
5.056979e+002, 3.553607e+003
5.061800e+002, 3.550413e+003
5.066621e+002, 3.547406e+003
5.071442e+002, 3.543506e+003
5.076263e+002, 3.538366e+003
5.081085e+002, 3.532970e+003
5.085906e+002, 3.529029e+003
5.090727e+002, 3.527234e+003
5.095548e+002, 3.524314e+003
5.100369e+002, 3.518972e+003
5.105190e+002, 3.513777e+003
5.110012e+002, 3.510190e+003
5.114833e+002, 3.507372e+003
5.119654e+002, 3.503414e+003
5.124475e+002, 3.497069e+003
5.129296e+002, 3.490096e+003
5.134117e+002, 3.486048e+003
5.138939e+002, 3.485386e+003
5.143760e+002, 3.483989e+003
5.148581e+002, 3.480559e+003
5.153402e+002, 3.476500e+003
5.158223e+002, 3.473301e+003
5.163044e+002, 3.470746e+003
5.167866e+002, 3.467301e+003
5.172687e+002, 3.461427e+003
5.177508e+002, 3.454820e+003
5.182329e+002, 3.449709e+003
5.187150e+002, 3.446039e+003
5.191971e+002, 3.442556e+003
5.196793e+002, 3.438716e+003
5.201614e+002, 3.434647e+003
5.206435e+002, 3.430760e+003
5.211256e+002, 3.427233e+003
5.216077e+002, 3.423280e+003
5.220898e+002, 3.418739e+003
5.225720e+002, 3.413749e+003
5.230541e+002, 3.407838e+003
5.235362e+002, 3.401429e+003
5.240183e+002, 3.396165e+003
5.245004e+002, 3.393395e+003
5.249825e+002, 3.392588e+003
5.254647e+002, 3.390938e+003
5.259468e+002, 3.388309e+003
5.264289e+002, 3.384964e+003
5.269110e+002, 3.380228e+003
5.273931e+002, 3.375309e+003
5.278752e+002, 3.371687e+003
5.283574e+002, 3.369210e+003
5.288395e+002, 3.365980e+003
5.293216e+002, 3.359817e+003
5.298037e+002, 3.351382e+003
5.302858e+002, 3.344567e+003
5.307679e+002, 3.339505e+003
5.312501e+002, 3.335827e+003
5.317322e+002, 3.334912e+003
5.322143e+002, 3.334584e+003
5.326964e+002, 3.332478e+003
5.331785e+002, 3.328089e+003
5.336606e+002, 3.322995e+003
5.341428e+002, 3.317994e+003
5.346249e+002, 3.313052e+003
5.351070e+002, 3.307931e+003
5.355891e+002, 3.302560e+003
5.360712e+002, 3.297508e+003
5.365533e+002, 3.293233e+003
5.370355e+002, 3.289678e+003
5.375176e+002, 3.286440e+003
5.379997e+002, 3.283745e+003
5.384818e+002, 3.281047e+003
5.389639e+002, 3.278547e+003
5.394460e+002, 3.275788e+003
5.399282e+002, 3.272194e+003
5.404103e+002, 3.267665e+003
5.408924e+002, 3.262396e+003
5.413745e+002, 3.256508e+003
5.418566e+002, 3.249970e+003
5.423387e+002, 3.243895e+003
5.428209e+002, 3.237577e+003
5.433029e+002, 3.232710e+003
5.437850e+002, 3.230488e+003
5.442672e+002, 3.229489e+003
5.447493e+002, 3.228572e+003
5.452314e+002, 3.227333e+003
5.457135e+002, 3.224994e+003
5.461956e+002, 3.219788e+003
5.466777e+002, 3.212101e+003
5.471599e+002, 3.207094e+003
5.476420e+002, 3.206249e+003
5.481241e+002, 3.205546e+003
5.486062e+002, 3.202077e+003
5.490883e+002, 3.197196e+003
5.495704e+002, 3.193071e+003
5.500526e+002, 3.190539e+003
5.505347e+002, 3.187816e+003
5.510168e+002, 3.183176e+003
5.514989e+002, 3.177631e+003
5.519810e+002, 3.173300e+003
5.524631e+002, 3.170632e+003
5.529453e+002, 3.168945e+003
5.534274e+002, 3.168087e+003
5.539095e+002, 3.168045e+003
5.543916e+002, 3.164980e+003
5.548737e+002, 3.156314e+003
5.553558e+002, 3.148175e+003
5.558380e+002, 3.141669e+003
5.563201e+002, 3.136828e+003
5.568022e+002, 3.134349e+003
5.572843e+002, 3.134076e+003
5.577664e+002, 3.133969e+003
5.582485e+002, 3.131449e+003
5.587307e+002, 3.126412e+003
5.592128e+002, 3.122441e+003
5.596949e+002, 3.120651e+003
5.601770e+002, 3.118378e+003
5.606591e+002, 3.114227e+003
5.611412e+002, 3.109385e+003
5.616234e+002, 3.105324e+003
5.621055e+002, 3.102484e+003
5.625876e+002, 3.099854e+003
5.630697e+002, 3.096735e+003
5.635518e+002, 3.093131e+003
5.640339e+002, 3.088872e+003
5.645161e+002, 3.083768e+003
5.649982e+002, 3.078749e+003
5.654803e+002, 3.074110e+003
5.659624e+002, 3.070165e+003
5.664445e+002, 3.067890e+003
5.669266e+002, 3.068903e+003
5.674088e+002, 3.069273e+003
5.678909e+002, 3.067333e+003
5.683730e+002, 3.064168e+003
5.688551e+002, 3.061176e+003
5.693372e+002, 3.058579e+003
5.698193e+002, 3.055541e+003
5.703015e+002, 3.051179e+003
5.707836e+002, 3.045589e+003
5.712657e+002, 3.041027e+003
5.717478e+002, 3.037970e+003
5.722299e+002, 3.035341e+003
5.727120e+002, 3.033530e+003
5.731942e+002, 3.031684e+003
5.736763e+002, 3.028766e+003
5.741584e+002, 3.024737e+003
5.746405e+002, 3.020811e+003
5.751226e+002, 3.018031e+003
5.756047e+002, 3.016221e+003
5.760869e+002, 3.014976e+003
5.765690e+002, 3.014669e+003
5.770511e+002, 3.013309e+003
5.775332e+002, 3.009475e+003
5.780153e+002, 3.004267e+003
5.784974e+002, 2.999457e+003
5.789796e+002, 2.995067e+003
5.794617e+002, 2.991112e+003
5.799438e+002, 2.988325e+003
5.804259e+002, 2.985559e+003
5.809080e+002, 2.981221e+003
5.813901e+002, 2.975425e+003
5.818723e+002, 2.969473e+003
5.823544e+002, 2.964086e+003
5.828365e+002, 2.959353e+003
5.833186e+002, 2.955535e+003
5.838007e+002, 2.953017e+003
5.842828e+002, 2.950922e+003
5.847650e+002, 2.950733e+003
5.852471e+002, 2.949705e+003
5.857292e+002, 2.944969e+003
5.862113e+002, 2.937643e+003
5.866934e+002, 2.931571e+003
5.871755e+002, 2.929502e+003
5.876577e+002, 2.929540e+003
5.881398e+002, 2.927147e+003
5.886219e+002, 2.921873e+003
5.891040e+002, 2.917231e+003
5.895861e+002, 2.914450e+003
5.900682e+002, 2.912113e+003
5.905504e+002, 2.908912e+003
5.910325e+002, 2.904956e+003
5.915146e+002, 2.900994e+003
5.919967e+002, 2.897111e+003
5.924788e+002, 2.893431e+003
5.929609e+002, 2.890538e+003
5.934431e+002, 2.888005e+003
5.939252e+002, 2.884180e+003
5.944073e+002, 2.878347e+003
5.948894e+002, 2.872373e+003
5.953715e+002, 2.868856e+003
5.958536e+002, 2.868204e+003
5.963358e+002, 2.868288e+003
5.968179e+002, 2.871492e+003
5.973000e+002, 2.872701e+003
5.977821e+002, 2.868680e+003
5.982642e+002, 2.862055e+003
5.987463e+002, 2.856673e+003
5.992285e+002, 2.853815e+003
5.997106e+002, 2.851706e+003
6.001927e+002, 2.847848e+003
6.006748e+002, 2.842329e+003
6.011569e+002, 2.838359e+003
6.016390e+002, 2.836767e+003
6.021212e+002, 2.835253e+003
6.026033e+002, 2.832810e+003
6.030854e+002, 2.829501e+003
6.035675e+002, 2.825031e+003
6.040496e+002, 2.818513e+003
6.045317e+002, 2.813313e+003
6.050139e+002, 2.812719e+003
6.054960e+002, 2.813763e+003
6.059781e+002, 2.812018e+003
6.064602e+002, 2.807094e+003
6.069423e+002, 2.800966e+003
6.074244e+002, 2.794779e+003
6.079066e+002, 2.788876e+003
6.083887e+002, 2.784795e+003
6.088708e+002, 2.785000e+003
6.093529e+002, 2.783565e+003
6.098350e+002, 2.779444e+003
6.103171e+002, 2.774368e+003
6.107993e+002, 2.769151e+003
6.112814e+002, 2.764080e+003
6.117635e+002, 2.759380e+003
6.122456e+002, 2.755085e+003
6.127277e+002, 2.751421e+003
6.132098e+002, 2.749379e+003
6.136920e+002, 2.749202e+003
6.141741e+002, 2.747419e+003
6.146562e+002, 2.742549e+003
6.151383e+002, 2.736590e+003
6.156204e+002, 2.731118e+003
6.161025e+002, 2.726135e+003
6.165847e+002, 2.722022e+003
6.170668e+002, 2.719949e+003
6.175489e+002, 2.717679e+003
6.180310e+002, 2.713733e+003
6.185131e+002, 2.708559e+003
6.189952e+002, 2.702731e+003
6.194774e+002, 2.696487e+003
6.199595e+002, 2.690777e+003
6.204416e+002, 2.686837e+003
6.209237e+002, 2.684792e+003
6.214058e+002, 2.682509e+003
6.218879e+002, 2.680191e+003
6.223701e+002, 2.677366e+003
6.228522e+002, 2.673955e+003
6.233343e+002, 2.670020e+003
6.238164e+002, 2.665237e+003
6.242985e+002, 2.659715e+003
6.247806e+002, 2.654822e+003
6.252628e+002, 2.652500e+003
6.257448e+002, 2.651559e+003
6.262269e+002, 2.648530e+003
6.267090e+002, 2.643159e+003
6.271912e+002, 2.637878e+003
6.276733e+002, 2.633930e+003
6.281554e+002, 2.630558e+003
6.286375e+002, 2.626154e+003
6.291196e+002, 2.620485e+003
6.296017e+002, 2.615174e+003
6.300839e+002, 2.610367e+003
6.305660e+002, 2.606036e+003
6.310481e+002, 2.602294e+003
6.315302e+002, 2.598970e+003
6.320123e+002, 2.595528e+003
6.324944e+002, 2.591735e+003
6.329766e+002, 2.588235e+003
6.334587e+002, 2.586860e+003
6.339408e+002, 2.588754e+003
6.344229e+002, 2.586576e+003
6.349050e+002, 2.576579e+003
6.353871e+002, 2.567271e+003
6.358693e+002, 2.562947e+003
6.363514e+002, 2.561417e+003
6.368335e+002, 2.559513e+003
6.373156e+002, 2.556587e+003
6.377977e+002, 2.552864e+003
6.382798e+002, 2.547530e+003
6.387620e+002, 2.541840e+003
6.392441e+002, 2.538650e+003
6.397262e+002, 2.538192e+003
6.402083e+002, 2.537512e+003
6.406904e+002, 2.534815e+003
6.411725e+002, 2.530346e+003
6.416547e+002, 2.524838e+003
6.421368e+002, 2.516529e+003
6.426189e+002, 2.509820e+003
6.431010e+002, 2.505532e+003
6.435831e+002, 2.502102e+003
6.440652e+002, 2.498744e+003
6.445474e+002, 2.495371e+003
6.450295e+002, 2.492118e+003
6.455116e+002, 2.489114e+003
6.459937e+002, 2.486062e+003
6.464758e+002, 2.482267e+003
6.469579e+002, 2.477744e+003
6.474401e+002, 2.474017e+003
6.479222e+002, 2.471720e+003
6.484043e+002, 2.469443e+003
6.488864e+002, 2.466138e+003
6.493685e+002, 2.461999e+003
6.498506e+002, 2.457666e+003
6.503328e+002, 2.452824e+003
6.508149e+002, 2.448392e+003
6.512970e+002, 2.445220e+003
6.517791e+002, 2.442420e+003
6.522612e+002, 2.438339e+003
6.527433e+002, 2.433231e+003
6.532255e+002, 2.429600e+003
6.537076e+002, 2.429537e+003
6.541897e+002, 2.431857e+003
6.546718e+002, 2.432091e+003
6.551539e+002, 2.429454e+003
6.556360e+002, 2.426587e+003
6.561182e+002, 2.424205e+003
6.566003e+002, 2.421295e+003
6.570824e+002, 2.416437e+003
6.575645e+002, 2.410476e+003
6.580466e+002, 2.406176e+003
6.585287e+002, 2.405612e+003
6.590109e+002, 2.405353e+003
6.594930e+002, 2.401463e+003
6.599751e+002, 2.395300e+003
6.604572e+002, 2.390964e+003
6.609393e+002, 2.389396e+003
6.614214e+002, 2.387895e+003
6.619036e+002, 2.383829e+003
6.623857e+002, 2.377591e+003
6.628678e+002, 2.373448e+003
6.633499e+002, 2.373817e+003
6.638320e+002, 2.373157e+003
6.643141e+002, 2.370532e+003
6.647963e+002, 2.367092e+003
6.652784e+002, 2.363422e+003
6.657605e+002, 2.359786e+003
6.662426e+002, 2.356577e+003
6.667247e+002, 2.354132e+003
6.672068e+002, 2.352071e+003
6.676890e+002, 2.349726e+003
6.681711e+002, 2.347103e+003
6.686532e+002, 2.344185e+003
6.691353e+002, 2.340877e+003
6.696174e+002, 2.337509e+003
6.700995e+002, 2.334282e+003
6.705817e+002, 2.331246e+003
6.710638e+002, 2.328837e+003
6.715459e+002, 2.328048e+003
6.720280e+002, 2.326650e+003
6.725101e+002, 2.322875e+003
6.729922e+002, 2.318772e+003
6.734744e+002, 2.317265e+003
6.739565e+002, 2.318122e+003
6.744386e+002, 2.318063e+003
6.749207e+002, 2.314296e+003
6.754028e+002, 2.308223e+003
6.758849e+002, 2.304682e+003
6.763671e+002, 2.304428e+003
6.768492e+002, 2.303271e+003
6.773313e+002, 2.299330e+003
6.778134e+002, 2.295458e+003
6.782955e+002, 2.294679e+003
6.787776e+002, 2.295961e+003
6.792598e+002, 2.295548e+003
6.797419e+002, 2.291648e+003
6.802240e+002, 2.287063e+003
6.807061e+002, 2.282883e+003
6.811882e+002, 2.279308e+003
6.816703e+002, 2.276980e+003
6.821525e+002, 2.275833e+003
6.826346e+002, 2.274485e+003
6.831167e+002, 2.271700e+003
6.835988e+002, 2.267911e+003
6.840809e+002, 2.265346e+003
6.845630e+002, 2.264934e+003
6.850452e+002, 2.263730e+003
6.855273e+002, 2.260003e+003
6.860094e+002, 2.256572e+003
6.864915e+002, 2.255670e+003
6.869736e+002, 2.256456e+003
6.874557e+002, 2.256226e+003
6.879379e+002, 2.253656e+003
6.884200e+002, 2.250284e+003
6.889021e+002, 2.247049e+003
6.893842e+002, 2.244114e+003
6.898663e+002, 2.242256e+003
6.903484e+002, 2.241553e+003
6.908306e+002, 2.240206e+003
6.913127e+002, 2.236414e+003
6.917948e+002, 2.231083e+003
6.922769e+002, 2.228813e+003
6.927590e+002, 2.232479e+003
6.932411e+002, 2.234683e+003
6.937233e+002, 2.234648e+003
6.942054e+002, 2.233588e+003
6.946875e+002, 2.232635e+003
6.951696e+002, 2.231272e+003
6.956517e+002, 2.227690e+003
6.961339e+002, 2.220360e+003
6.966160e+002, 2.212914e+003
6.970981e+002, 2.210049e+003
6.975802e+002, 2.210482e+003
6.980623e+002, 2.209391e+003
6.985444e+002, 2.205954e+003
6.990266e+002, 2.202710e+003
6.995087e+002, 2.201757e+003
6.999908e+002, 2.202156e+003
7.004729e+002, 2.200352e+003
7.009550e+002, 2.193228e+003
7.014371e+002, 2.188654e+003
7.019193e+002, 2.188965e+003
7.024014e+002, 2.189760e+003
7.028835e+002, 2.188262e+003
7.033656e+002, 2.185136e+003
7.038477e+002, 2.182236e+003
7.043298e+002, 2.180375e+003
7.048120e+002, 2.178993e+003
7.052941e+002, 2.177424e+003
7.057762e+002, 2.175769e+003
7.062583e+002, 2.174631e+003
7.067404e+002, 2.174202e+003
7.072225e+002, 2.173372e+003
7.077046e+002, 2.171328e+003
7.081867e+002, 2.168565e+003
7.086688e+002, 2.166256e+003
7.091509e+002, 2.164257e+003
7.096331e+002, 2.163026e+003
7.101152e+002, 2.163586e+003
7.105973e+002, 2.163921e+003
7.110794e+002, 2.162996e+003
7.115615e+002, 2.160932e+003
7.120436e+002, 2.157732e+003
7.125258e+002, 2.153428e+003
7.130079e+002, 2.149427e+003
7.134900e+002, 2.147731e+003
7.139721e+002, 2.147858e+003
7.144542e+002, 2.147022e+003
7.149363e+002, 2.145022e+003
7.154185e+002, 2.142880e+003
7.159006e+002, 2.141001e+003
7.163827e+002, 2.139331e+003
7.168648e+002, 2.137911e+003
7.173469e+002, 2.136913e+003
7.178290e+002, 2.135219e+003
7.183112e+002, 2.132375e+003
7.187933e+002, 2.129216e+003
7.192754e+002, 2.125626e+003
7.197575e+002, 2.122211e+003
7.202396e+002, 2.119968e+003
7.207217e+002, 2.119046e+003
7.212039e+002, 2.118368e+003
7.216860e+002, 2.117077e+003
7.221681e+002, 2.115136e+003
7.226502e+002, 2.112108e+003
7.231323e+002, 2.107748e+003
7.236144e+002, 2.104238e+003
7.240966e+002, 2.102523e+003
7.245787e+002, 2.101583e+003
7.250608e+002, 2.100374e+003
7.255429e+002, 2.098897e+003
7.260250e+002, 2.097307e+003
7.265071e+002, 2.095502e+003
7.269893e+002, 2.093736e+003
7.274714e+002, 2.092290e+003
7.279535e+002, 2.090831e+003
7.284356e+002, 2.088791e+003
7.289177e+002, 2.086273e+003
7.293998e+002, 2.084145e+003
7.298820e+002, 2.083163e+003
7.303641e+002, 2.082742e+003
7.308462e+002, 2.081622e+003
7.313283e+002, 2.079796e+003
7.318104e+002, 2.077049e+003
7.322925e+002, 2.072679e+003
7.327747e+002, 2.068908e+003
7.332568e+002, 2.068084e+003
7.337389e+002, 2.069498e+003
7.342210e+002, 2.069285e+003
7.347031e+002, 2.065928e+003
7.351852e+002, 2.063272e+003
7.356674e+002, 2.063377e+003
7.361495e+002, 2.063421e+003
7.366316e+002, 2.060412e+003
7.371137e+002, 2.055260e+003
7.375958e+002, 2.051050e+003
7.380779e+002, 2.049315e+003
7.385601e+002, 2.048745e+003
7.390422e+002, 2.047653e+003
7.395243e+002, 2.046038e+003
7.400064e+002, 2.043681e+003
7.404885e+002, 2.040429e+003
7.409706e+002, 2.037087e+003
7.414528e+002, 2.033900e+003
7.419349e+002, 2.031085e+003
7.424170e+002, 2.029335e+003
7.428991e+002, 2.029179e+003
7.433812e+002, 2.028211e+003
7.438633e+002, 2.025938e+003
7.443455e+002, 2.023145e+003
7.448276e+002, 2.020279e+003
7.453097e+002, 2.017170e+003
7.457918e+002, 2.013083e+003
7.462739e+002, 2.008008e+003
7.467560e+002, 2.003599e+003
7.472382e+002, 2.001755e+003
7.477203e+002, 2.001797e+003
7.482024e+002, 2.002084e+003
7.486845e+002, 2.002657e+003
7.491666e+002, 2.001661e+003
7.496487e+002, 1.997989e+003
7.501309e+002, 1.993741e+003
7.506130e+002, 1.991578e+003
7.510951e+002, 1.991685e+003
7.515772e+002, 1.990196e+003
7.520593e+002, 1.985181e+003
7.525414e+002, 1.981162e+003
7.530236e+002, 1.979763e+003
7.535057e+002, 1.979264e+003
7.539878e+002, 1.978076e+003
7.544699e+002, 1.976189e+003
7.549520e+002, 1.974536e+003
7.554341e+002, 1.973697e+003
7.559163e+002, 1.973173e+003
7.563984e+002, 1.972691e+003
7.568805e+002, 1.971986e+003
7.573626e+002, 1.969673e+003
7.578447e+002, 1.965447e+003
7.583268e+002, 1.960858e+003
7.588090e+002, 1.956848e+003
7.592911e+002, 1.953473e+003
7.597732e+002, 1.950908e+003
7.602553e+002, 1.949870e+003
7.607374e+002, 1.948412e+003
7.612195e+002, 1.947018e+003
7.617017e+002, 1.944812e+003
7.621838e+002, 1.940767e+003
7.626659e+002, 1.935898e+003
7.631480e+002, 1.931692e+003
7.636301e+002, 1.928575e+003
7.641122e+002, 1.926115e+003
7.645944e+002, 1.924218e+003
7.650765e+002, 1.922653e+003
7.655586e+002, 1.921082e+003
7.660407e+002, 1.919483e+003
7.665228e+002, 1.918079e+003
7.670049e+002, 1.916984e+003
7.674871e+002, 1.915468e+003
7.679692e+002, 1.912410e+003
7.684513e+002, 1.907662e+003
7.689334e+002, 1.904068e+003
7.694155e+002, 1.901991e+003
7.698976e+002, 1.900426e+003
7.703798e+002, 1.899187e+003
7.708619e+002, 1.898296e+003
7.713440e+002, 1.898358e+003
7.718261e+002, 1.898963e+003
7.723082e+002, 1.898180e+003
7.727903e+002, 1.894503e+003
7.732725e+002, 1.890365e+003
7.737546e+002, 1.887467e+003
7.742367e+002, 1.885218e+003
7.747188e+002, 1.882559e+003
7.752009e+002, 1.879480e+003
7.756830e+002, 1.876910e+003
7.761652e+002, 1.875500e+003
7.766473e+002, 1.874751e+003
7.771294e+002, 1.873567e+003
7.776115e+002, 1.871971e+003
7.780936e+002, 1.869722e+003
7.785757e+002, 1.866371e+003
7.790579e+002, 1.863182e+003
7.795400e+002, 1.861121e+003
7.800221e+002, 1.859544e+003
7.805042e+002, 1.857373e+003
7.809863e+002, 1.854434e+003
7.814684e+002, 1.851524e+003
7.819506e+002, 1.848779e+003
7.824327e+002, 1.846170e+003
7.829148e+002, 1.843697e+003
7.833969e+002, 1.841320e+003
7.838790e+002, 1.838843e+003
7.843611e+002, 1.836291e+003
7.848433e+002, 1.834261e+003
7.853254e+002, 1.833704e+003
7.858075e+002, 1.833833e+003
7.862896e+002, 1.831889e+003
7.867717e+002, 1.827835e+003
7.872538e+002, 1.824840e+003
7.877360e+002, 1.824027e+003
7.882181e+002, 1.823449e+003
7.887002e+002, 1.821317e+003
7.891823e+002, 1.817809e+003
7.896644e+002, 1.814516e+003
7.901465e+002, 1.811223e+003
7.906286e+002, 1.808434e+003
7.911107e+002, 1.806834e+003
7.915928e+002, 1.805156e+003
7.920750e+002, 1.802099e+003
7.925571e+002, 1.798412e+003
7.930392e+002, 1.795880e+003
7.935213e+002, 1.795273e+003
7.940034e+002, 1.794839e+003
7.944855e+002, 1.792846e+003
7.949677e+002, 1.790057e+003
7.954498e+002, 1.788244e+003
7.959319e+002, 1.787218e+003
7.964140e+002, 1.784989e+003
7.968961e+002, 1.780636e+003
7.973782e+002, 1.775632e+003
7.978604e+002, 1.771962e+003
7.983425e+002, 1.769635e+003
7.988246e+002, 1.767871e+003
7.993067e+002, 1.767163e+003
7.997888e+002, 1.766082e+003
8.002709e+002, 1.764257e+003
8.007531e+002, 1.761930e+003
8.012352e+002, 1.758826e+003
8.017173e+002, 1.755254e+003
8.021994e+002, 1.752699e+003
8.026815e+002, 1.752620e+003
8.031636e+002, 1.752077e+003
8.036458e+002, 1.748471e+003
8.041279e+002, 1.744265e+003
8.046100e+002, 1.742891e+003
8.050921e+002, 1.743884e+003
8.055742e+002, 1.744333e+003
8.060563e+002, 1.742676e+003
8.065385e+002, 1.739725e+003
8.070206e+002, 1.736496e+003
8.075027e+002, 1.733041e+003
8.079848e+002, 1.730188e+003
8.084669e+002, 1.728104e+003
8.089490e+002, 1.725906e+003
8.094312e+002, 1.723285e+003
8.099133e+002, 1.720246e+003
8.103954e+002, 1.716626e+003
8.108775e+002, 1.712216e+003
8.113596e+002, 1.708681e+003
8.118417e+002, 1.706242e+003
8.123239e+002, 1.704398e+003
8.128060e+002, 1.704296e+003
8.132881e+002, 1.703821e+003
8.137702e+002, 1.699987e+003
8.142523e+002, 1.693644e+003
8.147344e+002, 1.689182e+003
8.152166e+002, 1.689434e+003
8.156987e+002, 1.691019e+003
8.161808e+002, 1.690822e+003
8.166629e+002, 1.689209e+003
8.171450e+002, 1.686721e+003
8.176271e+002, 1.683535e+003
8.181093e+002, 1.680285e+003
8.185914e+002, 1.677302e+003
8.190735e+002, 1.674580e+003
8.195556e+002, 1.672033e+003
8.200377e+002, 1.669533e+003
8.205198e+002, 1.668046e+003
8.210020e+002, 1.668385e+003
8.214841e+002, 1.668140e+003
8.219662e+002, 1.666279e+003
8.224483e+002, 1.663463e+003
8.229304e+002, 1.660031e+003
8.234125e+002, 1.656051e+003
8.238947e+002, 1.653139e+003
8.243768e+002, 1.652889e+003
8.248589e+002, 1.652279e+003
8.253410e+002, 1.649714e+003
8.258231e+002, 1.646302e+003
8.263052e+002, 1.643210e+003
8.267874e+002, 1.640552e+003
8.272695e+002, 1.637867e+003
8.277516e+002, 1.634812e+003
8.282337e+002, 1.631974e+003
8.287158e+002, 1.630654e+003
8.291979e+002, 1.630307e+003
8.296801e+002, 1.628377e+003
8.301622e+002, 1.624640e+003
8.306443e+002, 1.621194e+003
8.311264e+002, 1.619214e+003
8.316085e+002, 1.617658e+003
8.320906e+002, 1.614637e+003
8.325728e+002, 1.609777e+003
8.330549e+002, 1.606211e+003
8.335370e+002, 1.604873e+003
8.340191e+002, 1.603508e+003
8.345012e+002, 1.601879e+003
8.349833e+002, 1.599827e+003
8.354655e+002, 1.596937e+003
8.359476e+002, 1.593428e+003
8.364297e+002, 1.590279e+003
8.369118e+002, 1.587830e+003
8.373939e+002, 1.585749e+003
8.378760e+002, 1.584188e+003
8.383582e+002, 1.582680e+003
8.388403e+002, 1.580518e+003
8.393224e+002, 1.577885e+003
8.398045e+002, 1.575626e+003
8.402866e+002, 1.574153e+003
8.407687e+002, 1.572771e+003
8.412509e+002, 1.570504e+003
8.417330e+002, 1.567489e+003
8.422151e+002, 1.564298e+003
8.426972e+002, 1.560885e+003
8.431793e+002, 1.558536e+003
8.436614e+002, 1.557992e+003
8.441436e+002, 1.557927e+003
8.446257e+002, 1.556821e+003
8.451078e+002, 1.554686e+003
8.455899e+002, 1.552625e+003
8.460720e+002, 1.550534e+003
8.465541e+002, 1.548658e+003
8.470363e+002, 1.547642e+003
8.475184e+002, 1.546229e+003
8.480005e+002, 1.543191e+003
8.484826e+002, 1.539214e+003
8.489647e+002, 1.535920e+003
8.494468e+002, 1.533840e+003
8.499290e+002, 1.531928e+003
8.504111e+002, 1.529915e+003
8.508932e+002, 1.527557e+003
8.513753e+002, 1.524273e+003
8.518574e+002, 1.520495e+003
8.523395e+002, 1.517242e+003
8.528217e+002, 1.514825e+003
8.533038e+002, 1.512733e+003
8.537859e+002, 1.510613e+003
8.542680e+002, 1.508364e+003
8.547501e+002, 1.505373e+003
8.552322e+002, 1.501640e+003
8.557144e+002, 1.499267e+003
8.561965e+002, 1.499091e+003
8.566786e+002, 1.498436e+003
8.571607e+002, 1.494964e+003
8.576428e+002, 1.489759e+003
8.581249e+002, 1.486339e+003
8.586071e+002, 1.485789e+003
8.590892e+002, 1.484678e+003
8.595713e+002, 1.482733e+003
8.600534e+002, 1.480543e+003
8.605355e+002, 1.477857e+003
8.610176e+002, 1.475276e+003
8.614998e+002, 1.473842e+003
8.619819e+002, 1.473551e+003
8.624640e+002, 1.472496e+003
8.629461e+002, 1.469282e+003
8.634282e+002, 1.465711e+003
8.639103e+002, 1.462912e+003
8.643925e+002, 1.460587e+003
8.648746e+002, 1.458750e+003
8.653567e+002, 1.457036e+003
8.658388e+002, 1.454138e+003
8.663209e+002, 1.449152e+003
8.668030e+002, 1.443745e+003
8.672852e+002, 1.440523e+003
8.677673e+002, 1.439199e+003
8.682494e+002, 1.438534e+003
8.687315e+002, 1.438499e+003
8.692136e+002, 1.437712e+003
8.696957e+002, 1.435529e+003
8.701779e+002, 1.432555e+003
8.706600e+002, 1.429555e+003
8.711421e+002, 1.426522e+003
8.716242e+002, 1.423523e+003
8.721063e+002, 1.420173e+003
8.725884e+002, 1.417530e+003
8.730705e+002, 1.416672e+003
8.735526e+002, 1.415742e+003
8.740347e+002, 1.413323e+003
8.745168e+002, 1.410017e+003
8.749990e+002, 1.407346e+003
8.754811e+002, 1.405787e+003
8.759632e+002, 1.404187e+003
8.764453e+002, 1.402638e+003
8.769274e+002, 1.400447e+003
8.774095e+002, 1.396169e+003
8.778917e+002, 1.391244e+003
8.783738e+002, 1.388422e+003
8.788559e+002, 1.388085e+003
8.793380e+002, 1.387681e+003
8.798201e+002, 1.384901e+003
8.803022e+002, 1.381304e+003
8.807844e+002, 1.379697e+003
8.812665e+002, 1.379497e+003
8.817486e+002, 1.378622e+003
8.822307e+002, 1.376744e+003
8.827128e+002, 1.374315e+003
8.831949e+002, 1.371522e+003
8.836771e+002, 1.368816e+003
8.841592e+002, 1.367352e+003
8.846413e+002, 1.367417e+003
8.851234e+002, 1.366532e+003
8.856055e+002, 1.364634e+003
8.860876e+002, 1.361827e+003
8.865698e+002, 1.357429e+003
8.870519e+002, 1.352851e+003
8.875340e+002, 1.349659e+003
8.880161e+002, 1.347791e+003
8.884982e+002, 1.346124e+003
8.889803e+002, 1.344871e+003
8.894625e+002, 1.343475e+003
8.899446e+002, 1.341823e+003
8.904267e+002, 1.340015e+003
8.909088e+002, 1.338071e+003
8.913909e+002, 1.336054e+003
8.918730e+002, 1.334208e+003
8.923552e+002, 1.332619e+003
8.928373e+002, 1.330560e+003
8.933194e+002, 1.326977e+003
8.938015e+002, 1.323197e+003
8.942836e+002, 1.320909e+003
8.947657e+002, 1.319469e+003
8.952479e+002, 1.317308e+003
8.957300e+002, 1.314249e+003
8.962121e+002, 1.311475e+003
8.966942e+002, 1.309841e+003
8.971763e+002, 1.309154e+003
8.976584e+002, 1.309619e+003
8.981406e+002, 1.310968e+003
8.986227e+002, 1.310281e+003
8.991048e+002, 1.307138e+003
8.995869e+002, 1.303748e+003
9.000690e+002, 1.301010e+003
9.005511e+002, 1.298934e+003
9.010333e+002, 1.297703e+003
9.015154e+002, 1.297398e+003
9.019975e+002, 1.296016e+003
9.024796e+002, 1.292389e+003
9.029617e+002, 1.289873e+003
9.034438e+002, 1.290347e+003
9.039260e+002, 1.290899e+003
9.044081e+002, 1.289316e+003
9.048902e+002, 1.286329e+003
9.053723e+002, 1.283889e+003
9.058544e+002, 1.282505e+003
9.063365e+002, 1.280822e+003
9.068187e+002, 1.277964e+003
9.073008e+002, 1.275301e+003
9.077829e+002, 1.273717e+003
9.082650e+002, 1.272821e+003
9.087471e+002, 1.272296e+003
9.092292e+002, 1.271904e+003
9.097114e+002, 1.270879e+003
9.101935e+002, 1.268285e+003
9.106756e+002, 1.265638e+003
9.111577e+002, 1.264883e+003
9.116398e+002, 1.265004e+003
9.121219e+002, 1.264238e+003
9.126041e+002, 1.262448e+003
9.130862e+002, 1.259987e+003
9.135683e+002, 1.257027e+003
9.140504e+002, 1.254174e+003
9.145325e+002, 1.252289e+003
9.150146e+002, 1.251241e+003
9.154968e+002, 1.250078e+003
9.159789e+002, 1.248788e+003
9.164610e+002, 1.248262e+003
9.169431e+002, 1.249011e+003
9.174252e+002, 1.249199e+003
9.179073e+002, 1.247111e+003
9.183895e+002, 1.243428e+003
9.188716e+002, 1.240586e+003
9.193537e+002, 1.238594e+003
9.198358e+002, 1.237424e+003
9.203179e+002, 1.238233e+003
9.208000e+002, 1.238161e+003
9.212822e+002, 1.234901e+003
9.217643e+002, 1.230932e+003
9.222464e+002, 1.229169e+003
9.227285e+002, 1.229541e+003
9.232106e+002, 1.229483e+003
9.236927e+002, 1.228537e+003
9.241749e+002, 1.227252e+003
9.246570e+002, 1.225441e+003
9.251391e+002, 1.223651e+003
9.256212e+002, 1.222290e+003
9.261033e+002, 1.221305e+003
9.265854e+002, 1.220633e+003
9.270676e+002, 1.220277e+003
9.275497e+002, 1.219643e+003
9.280318e+002, 1.218166e+003
9.285139e+002, 1.216406e+003
9.289960e+002, 1.214767e+003
9.294781e+002, 1.213324e+003
9.299603e+002, 1.212212e+003
9.304424e+002, 1.211414e+003
9.309245e+002, 1.210813e+003
9.314066e+002, 1.210388e+003
9.318887e+002, 1.209803e+003
9.323708e+002, 1.208280e+003
9.328530e+002, 1.206124e+003
9.333351e+002, 1.204642e+003
9.338172e+002, 1.203872e+003
9.342993e+002, 1.203333e+003
9.347814e+002, 1.202892e+003
9.352635e+002, 1.202122e+003
9.357457e+002, 1.200402e+003
9.362278e+002, 1.198042e+003
9.367099e+002, 1.197123e+003
9.371920e+002, 1.198148e+003
9.376741e+002, 1.198240e+003
9.381563e+002, 1.196448e+003
9.386384e+002, 1.195185e+003
9.391205e+002, 1.196669e+003
9.396026e+002, 1.198742e+003
9.400847e+002, 1.197111e+003
9.405668e+002, 1.190759e+003
9.410490e+002, 1.186757e+003
9.415311e+002, 1.187500e+003
9.420132e+002, 1.187226e+003
9.424953e+002, 1.183087e+003
9.429774e+002, 1.179176e+003
9.434595e+002, 1.179498e+003
9.439417e+002, 1.182349e+003
9.444238e+002, 1.182937e+003
9.449059e+002, 1.179781e+003
9.453880e+002, 1.176514e+003
9.458701e+002, 1.174191e+003
9.463522e+002, 1.172406e+003
9.468344e+002, 1.170599e+003
9.473165e+002, 1.169353e+003
9.477986e+002, 1.170257e+003
9.482807e+002, 1.172812e+003
9.487628e+002, 1.173775e+003
9.492449e+002, 1.170779e+003
9.497271e+002, 1.167253e+003
9.502092e+002, 1.167112e+003
9.506913e+002, 1.168176e+003
9.511734e+002, 1.166477e+003
9.516555e+002, 1.162803e+003
9.521376e+002, 1.160813e+003
9.526198e+002, 1.161638e+003
9.531019e+002, 1.162953e+003
9.535840e+002, 1.162551e+003
9.540661e+002, 1.161028e+003
9.545482e+002, 1.159672e+003
9.550303e+002, 1.158495e+003
9.555124e+002, 1.157663e+003
9.559945e+002, 1.157191e+003
9.564766e+002, 1.156692e+003
9.569587e+002, 1.155955e+003
9.574409e+002, 1.155043e+003
9.579230e+002, 1.153942e+003
9.584051e+002, 1.152660e+003
9.588872e+002, 1.152636e+003
9.593693e+002, 1.154539e+003
9.598514e+002, 1.154618e+003
9.603336e+002, 1.151349e+003
9.608157e+002, 1.147732e+003
9.612978e+002, 1.146010e+003
9.617799e+002, 1.145627e+003
9.622620e+002, 1.145079e+003
9.627441e+002, 1.144518e+003
9.632263e+002, 1.143311e+003
9.637084e+002, 1.140155e+003
9.641905e+002, 1.138147e+003
9.646726e+002, 1.139438e+003
9.651547e+002, 1.141103e+003
9.656368e+002, 1.140279e+003
9.661190e+002, 1.137527e+003
9.666011e+002, 1.135728e+003
9.670832e+002, 1.135953e+003
9.675653e+002, 1.135666e+003
9.680474e+002, 1.133550e+003
9.685295e+002, 1.131616e+003
9.690117e+002, 1.131406e+003
9.694938e+002, 1.131864e+003
9.699759e+002, 1.131468e+003
9.704580e+002, 1.130124e+003
9.709401e+002, 1.128912e+003
9.714222e+002, 1.128261e+003
9.719044e+002, 1.127943e+003
9.723865e+002, 1.128489e+003
9.728686e+002, 1.128774e+003
9.733507e+002, 1.127190e+003
9.738328e+002, 1.124418e+003
9.743149e+002, 1.122084e+003
9.747971e+002, 1.120698e+003
9.752792e+002, 1.119833e+003
9.757613e+002, 1.119463e+003
9.762434e+002, 1.119096e+003
9.767255e+002, 1.117619e+003
9.772076e+002, 1.115789e+003
9.776898e+002, 1.115590e+003
9.781719e+002, 1.116855e+003
9.786540e+002, 1.117516e+003
9.791361e+002, 1.116596e+003
9.796182e+002, 1.115152e+003
9.801003e+002, 1.114472e+003
9.805825e+002, 1.114330e+003
9.810646e+002, 1.113992e+003
9.815467e+002, 1.113488e+003
9.820288e+002, 1.113198e+003
9.825109e+002, 1.113198e+003
9.829930e+002, 1.112500e+003
9.834752e+002, 1.110337e+003
9.839573e+002, 1.107702e+003
9.844394e+002, 1.106639e+003
9.849215e+002, 1.107166e+003
9.854036e+002, 1.106944e+003
9.858857e+002, 1.105822e+003
9.863679e+002, 1.104814e+003
9.868500e+002, 1.104128e+003
9.873321e+002, 1.103836e+003
9.878142e+002, 1.104153e+003
9.882963e+002, 1.104764e+003
9.887784e+002, 1.104672e+003
9.892606e+002, 1.103750e+003
9.897427e+002, 1.102498e+003
9.902248e+002, 1.100485e+003
9.907069e+002, 1.098979e+003
9.911890e+002, 1.098669e+003
9.916711e+002, 1.098682e+003
9.921533e+002, 1.098061e+003
9.926354e+002, 1.096989e+003
9.931175e+002, 1.096588e+003
9.935996e+002, 1.097461e+003
9.940817e+002, 1.097926e+003
9.945638e+002, 1.097969e+003
9.950460e+002, 1.097593e+003
9.955281e+002, 1.096664e+003
9.960102e+002, 1.095417e+003
9.964923e+002, 1.093848e+003
9.969744e+002, 1.092098e+003
9.974565e+002, 1.091061e+003
9.979387e+002, 1.091456e+003
9.984208e+002, 1.091658e+003
9.989029e+002, 1.091092e+003
9.993850e+002, 1.090383e+003
9.998671e+002, 1.089848e+003
1.000349e+003, 1.089460e+003
1.000831e+003, 1.089250e+003
1.001313e+003, 1.089162e+003
1.001796e+003, 1.088796e+003
1.002278e+003, 1.087722e+003
1.002760e+003, 1.086733e+003
1.003242e+003, 1.086387e+003
1.003724e+003, 1.086213e+003
1.004206e+003, 1.085753e+003
1.004688e+003, 1.085122e+003
1.005170e+003, 1.084706e+003
1.005653e+003, 1.084547e+003
1.006135e+003, 1.084090e+003
1.006617e+003, 1.082599e+003
1.007099e+003, 1.081178e+003
1.007581e+003, 1.081281e+003
1.008063e+003, 1.081848e+003
1.008545e+003, 1.081237e+003
1.009027e+003, 1.079698e+003
1.009509e+003, 1.078340e+003
1.009992e+003, 1.077574e+003
1.010474e+003, 1.077200e+003
1.010956e+003, 1.077306e+003
1.011438e+003, 1.077416e+003
1.011920e+003, 1.076511e+003
1.012402e+003, 1.075139e+003
1.012884e+003, 1.074651e+003
1.013366e+003, 1.075059e+003
1.013849e+003, 1.075683e+003
1.014331e+003, 1.076208e+003
1.014813e+003, 1.076303e+003
1.015295e+003, 1.075220e+003
1.015777e+003, 1.073727e+003
1.016259e+003, 1.074521e+003
1.016741e+003, 1.076780e+003
1.017223e+003, 1.075925e+003
1.017705e+003, 1.071643e+003
1.018188e+003, 1.068333e+003
1.018670e+003, 1.068259e+003
1.019152e+003, 1.070166e+003
1.019634e+003, 1.072806e+003
1.020116e+003, 1.075786e+003
1.020598e+003, 1.077220e+003
1.021080e+003, 1.077126e+003
1.021562e+003, 1.075991e+003
1.022044e+003, 1.073852e+003
1.022527e+003, 1.071349e+003
1.023009e+003, 1.068740e+003
1.023491e+003, 1.066522e+003
1.023973e+003, 1.065585e+003
1.024455e+003, 1.065851e+003
1.024937e+003, 1.066134e+003
1.025419e+003, 1.066482e+003
1.025901e+003, 1.066415e+003
1.026384e+003, 1.065772e+003
1.026866e+003, 1.064839e+003
1.027348e+003, 1.063363e+003
1.027830e+003, 1.062758e+003
1.028312e+003, 1.066417e+003
1.028794e+003, 1.074769e+003
1.029276e+003, 1.076707e+003
1.029758e+003, 1.070114e+003
1.030240e+003, 1.064519e+003
1.030723e+003, 1.061675e+003
1.031205e+003, 1.060224e+003
1.031687e+003, 1.059544e+003
1.032169e+003, 1.059394e+003
1.032651e+003, 1.059292e+003
1.033133e+003, 1.059227e+003
1.033615e+003, 1.059258e+003
1.034097e+003, 1.059309e+003
1.034579e+003, 1.059642e+003
1.035062e+003, 1.060703e+003
1.035544e+003, 1.061417e+003
1.036026e+003, 1.060828e+003
1.036508e+003, 1.059539e+003
1.036990e+003, 1.058803e+003
1.037472e+003, 1.058679e+003
1.037954e+003, 1.058756e+003
1.038436e+003, 1.059253e+003
1.038919e+003, 1.059606e+003
1.039401e+003, 1.060052e+003
1.039883e+003, 1.059966e+003
1.040365e+003, 1.058370e+003
1.040847e+003, 1.056146e+003
1.041329e+003, 1.055274e+003
1.041811e+003, 1.056080e+003
1.042293e+003, 1.056525e+003
1.042776e+003, 1.056485e+003
1.043258e+003, 1.056226e+003
1.043740e+003, 1.055986e+003
1.044222e+003, 1.055367e+003
1.044704e+003, 1.053430e+003
1.045186e+003, 1.051161e+003
1.045668e+003, 1.050756e+003
1.046150e+003, 1.052737e+003
1.046632e+003, 1.053791e+003
1.047115e+003, 1.052785e+003
1.047597e+003, 1.051886e+003
1.048079e+003, 1.051552e+003
1.048561e+003, 1.051558e+003
1.049043e+003, 1.052149e+003
1.049525e+003, 1.052808e+003
1.050007e+003, 1.052343e+003
1.050489e+003, 1.050451e+003
1.050971e+003, 1.049571e+003
1.051454e+003, 1.051215e+003
1.051936e+003, 1.052508e+003
1.052418e+003, 1.052725e+003
1.052900e+003, 1.052170e+003
1.053382e+003, 1.050200e+003
1.053864e+003, 1.047973e+003
1.054346e+003, 1.047883e+003
1.054828e+003, 1.050335e+003
1.055311e+003, 1.051762e+003
1.055793e+003, 1.050312e+003
1.056275e+003, 1.048935e+003
1.056757e+003, 1.048563e+003
1.057239e+003, 1.048709e+003
1.057721e+003, 1.049226e+003
1.058203e+003, 1.049901e+003
1.058685e+003, 1.050543e+003
1.059167e+003, 1.051107e+003
1.059650e+003, 1.051233e+003
1.060132e+003, 1.050461e+003
1.060614e+003, 1.049693e+003
1.061096e+003, 1.049126e+003
1.061578e+003, 1.048825e+003
1.062060e+003, 1.049150e+003
1.062542e+003, 1.049622e+003
1.063024e+003, 1.049181e+003
1.063506e+003, 1.047796e+003
1.063989e+003, 1.047289e+003
1.064471e+003, 1.049401e+003
1.064953e+003, 1.050960e+003
1.065435e+003, 1.050203e+003
1.065917e+003, 1.048852e+003
1.066399e+003, 1.048146e+003
1.066881e+003, 1.047780e+003
1.067363e+003, 1.047086e+003
1.067846e+003, 1.046016e+003
1.068328e+003, 1.045108e+003
1.068810e+003, 1.044369e+003
1.069292e+003, 1.044173e+003
1.069774e+003, 1.045419e+003
1.070256e+003, 1.046543e+003
1.070738e+003, 1.046154e+003
1.071220e+003, 1.045022e+003
1.071703e+003, 1.044212e+003
1.072185e+003, 1.043890e+003
1.072667e+003, 1.043821e+003
1.073149e+003, 1.044021e+003
1.073631e+003, 1.044216e+003
1.074113e+003, 1.043984e+003
1.074595e+003, 1.044001e+003
1.075077e+003, 1.045469e+003
1.075559e+003, 1.047037e+003
1.076042e+003, 1.046548e+003
1.076524e+003, 1.044281e+003
1.077006e+003, 1.042626e+003
1.077488e+003, 1.042442e+003
1.077970e+003, 1.042788e+003
1.078452e+003, 1.043250e+003
1.078934e+003, 1.044073e+003
1.079416e+003, 1.046074e+003
1.079898e+003, 1.048090e+003
1.080380e+003, 1.048613e+003
1.080863e+003, 1.047850e+003
1.081345e+003, 1.047033e+003
1.081827e+003, 1.046529e+003
1.082309e+003, 1.046055e+003
1.082791e+003, 1.044822e+003
1.083273e+003, 1.044333e+003
1.083755e+003, 1.046436e+003
1.084237e+003, 1.049036e+003
1.084720e+003, 1.049568e+003
1.085202e+003, 1.048648e+003
1.085684e+003, 1.048664e+003
1.086166e+003, 1.050370e+003
1.086648e+003, 1.051604e+003
1.087130e+003, 1.051365e+003
1.087612e+003, 1.050525e+003
1.088094e+003, 1.048913e+003
1.088577e+003, 1.047445e+003
1.089059e+003, 1.047214e+003
1.089541e+003, 1.047719e+003
1.090023e+003, 1.047768e+003
1.090505e+003, 1.047116e+003
1.090987e+003, 1.046606e+003
1.091469e+003, 1.046301e+003
1.091951e+003, 1.046556e+003
1.092433e+003, 1.048378e+003
1.092916e+003, 1.050006e+003
1.093398e+003, 1.049719e+003
1.093880e+003, 1.048408e+003
1.094362e+003, 1.047702e+003
1.094844e+003, 1.047805e+003
1.095326e+003, 1.047768e+003
1.095808e+003, 1.046752e+003
1.096290e+003, 1.046366e+003
1.096772e+003, 1.048236e+003
1.097255e+003, 1.049713e+003
1.097737e+003, 1.048056e+003
1.098219e+003, 1.045623e+003
1.098701e+003, 1.045924e+003
1.099183e+003, 1.048843e+003
1.099665e+003, 1.051226e+003
1.100147e+003, 1.052305e+003
1.100629e+003, 1.052874e+003
1.101112e+003, 1.052788e+003
1.101594e+003, 1.052630e+003
1.102076e+003, 1.052797e+003
1.102558e+003, 1.052950e+003
1.103040e+003, 1.052508e+003
1.103522e+003, 1.051710e+003
1.104004e+003, 1.051600e+003
1.104486e+003, 1.052714e+003
1.104969e+003, 1.053267e+003
1.105451e+003, 1.052020e+003
1.105933e+003, 1.051364e+003
1.106415e+003, 1.052656e+003
1.106897e+003, 1.054380e+003
1.107379e+003, 1.055250e+003
1.107861e+003, 1.055607e+003
1.108343e+003, 1.056529e+003
1.108825e+003, 1.058336e+003
1.109307e+003, 1.059313e+003
1.109790e+003, 1.058283e+003
1.110272e+003, 1.057873e+003
1.110754e+003, 1.059440e+003
1.111236e+003, 1.060893e+003
1.111718e+003, 1.060118e+003
1.112200e+003, 1.058828e+003
1.112682e+003, 1.060315e+003
1.113164e+003, 1.064820e+003
1.113647e+003, 1.067613e+003
1.114129e+003, 1.068289e+003
1.114611e+003, 1.067902e+003
1.115093e+003, 1.065653e+003
1.115575e+003, 1.063527e+003
1.116057e+003, 1.062254e+003
1.116539e+003, 1.061633e+003
1.117021e+003, 1.061688e+003
1.117504e+003, 1.062254e+003
1.117986e+003, 1.062008e+003
1.118468e+003, 1.059844e+003
1.118950e+003, 1.059599e+003
1.119432e+003, 1.062409e+003
1.119914e+003, 1.064930e+003
1.120396e+003, 1.066146e+003
1.120878e+003, 1.066656e+003
1.121360e+003, 1.066766e+003
1.121843e+003, 1.066719e+003
1.122325e+003, 1.067269e+003
1.122807e+003, 1.068534e+003
1.123289e+003, 1.069770e+003
1.123771e+003, 1.071188e+003
1.124253e+003, 1.071799e+003
1.124735e+003, 1.071150e+003
1.125217e+003, 1.070338e+003
1.125699e+003, 1.069892e+003
1.126182e+003, 1.070089e+003
1.126664e+003, 1.071611e+003
1.127146e+003, 1.074332e+003
1.127628e+003, 1.075866e+003
1.128110e+003, 1.076068e+003
1.128592e+003, 1.076281e+003
1.129074e+003, 1.076665e+003
1.129556e+003, 1.077042e+003
1.130039e+003, 1.077300e+003
1.130521e+003, 1.077660e+003
1.131003e+003, 1.078368e+003
1.131485e+003, 1.079389e+003
1.131967e+003, 1.080722e+003
1.132449e+003, 1.082331e+003
1.132931e+003, 1.083488e+003
1.133413e+003, 1.084178e+003
1.133896e+003, 1.085322e+003
1.134378e+003, 1.087196e+003
1.134860e+003, 1.088452e+003
1.135342e+003, 1.087882e+003
1.135824e+003, 1.086914e+003
1.136306e+003, 1.088641e+003
1.136788e+003, 1.092134e+003
1.137270e+003, 1.093689e+003
1.137752e+003, 1.093605e+003
1.138234e+003, 1.093332e+003
1.138717e+003, 1.093276e+003
1.139199e+003, 1.094176e+003
1.139681e+003, 1.096422e+003
1.140163e+003, 1.098629e+003
1.140645e+003, 1.099203e+003
1.141127e+003, 1.098774e+003
1.141609e+003, 1.097726e+003
1.142091e+003, 1.096894e+003
1.142574e+003, 1.099057e+003
1.143056e+003, 1.103223e+003
1.143538e+003, 1.105094e+003
1.144020e+003, 1.103577e+003
1.144502e+003, 1.101847e+003
1.144984e+003, 1.102063e+003
1.145466e+003, 1.103200e+003
1.145948e+003, 1.104428e+003
1.146431e+003, 1.105752e+003
1.146913e+003, 1.107273e+003
1.147395e+003, 1.108847e+003
1.147877e+003, 1.110277e+003
1.148359e+003, 1.111495e+003
1.148841e+003, 1.112333e+003
1.149323e+003, 1.112611e+003
1.149805e+003, 1.113203e+003
1.150287e+003, 1.115130e+003
1.150770e+003, 1.117032e+003
1.151252e+003, 1.117738e+003
1.151734e+003, 1.118051e+003
1.152216e+003, 1.118890e+003
1.152698e+003, 1.120079e+003
1.153180e+003, 1.121006e+003
1.153662e+003, 1.121547e+003
1.154144e+003, 1.122068e+003
1.154626e+003, 1.122318e+003
1.155109e+003, 1.123114e+003
1.155591e+003, 1.125005e+003
1.156073e+003, 1.127223e+003
1.156555e+003, 1.129842e+003
1.157037e+003, 1.132159e+003
1.157519e+003, 1.133043e+003
1.158001e+003, 1.132704e+003
1.158483e+003, 1.132927e+003
1.158966e+003, 1.134233e+003
1.159448e+003, 1.135348e+003
1.159930e+003, 1.135794e+003
1.160412e+003, 1.136598e+003
1.160894e+003, 1.138466e+003
1.161376e+003, 1.140289e+003
1.161858e+003, 1.141093e+003
1.162340e+003, 1.141354e+003
1.162822e+003, 1.142059e+003
1.163305e+003, 1.143203e+003
1.163787e+003, 1.144909e+003
1.164269e+003, 1.147460e+003
1.164751e+003, 1.149789e+003
1.165233e+003, 1.151871e+003
1.165715e+003, 1.153271e+003
1.166197e+003, 1.153527e+003
1.166679e+003, 1.153677e+003
1.167161e+003, 1.154989e+003
1.167644e+003, 1.157174e+003
1.168126e+003, 1.159250e+003
1.168608e+003, 1.161246e+003
1.169090e+003, 1.161957e+003
1.169572e+003, 1.161286e+003
1.170054e+003, 1.160650e+003
1.170536e+003, 1.160406e+003
1.171018e+003, 1.161587e+003
1.171500e+003, 1.165074e+003
1.171983e+003, 1.169190e+003
1.172465e+003, 1.171036e+003
1.172947e+003, 1.171398e+003
1.173429e+003, 1.173357e+003
1.173911e+003, 1.176183e+003
1.174393e+003, 1.176590e+003
1.174875e+003, 1.174777e+003
1.175357e+003, 1.173847e+003
1.175840e+003, 1.174977e+003
1.176322e+003, 1.177213e+003
1.176804e+003, 1.180023e+003
1.177286e+003, 1.182975e+003
1.177768e+003, 1.185806e+003
1.178250e+003, 1.188234e+003
1.178732e+003, 1.189656e+003
1.179214e+003, 1.190431e+003
1.179697e+003, 1.191445e+003
1.180179e+003, 1.192642e+003
1.180661e+003, 1.192811e+003
1.181143e+003, 1.191182e+003
1.181625e+003, 1.190685e+003
1.182107e+003, 1.194397e+003
1.182589e+003, 1.198259e+003
1.183071e+003, 1.199119e+003
1.183553e+003, 1.199295e+003
1.184036e+003, 1.201397e+003
1.184518e+003, 1.204398e+003
1.185000e+003, 1.205812e+003
1.185482e+003, 1.205412e+003
1.185964e+003, 1.205874e+003
1.186446e+003, 1.209211e+003
1.186928e+003, 1.211193e+003
1.187410e+003, 1.209521e+003
1.187892e+003, 1.208370e+003
1.188375e+003, 1.209811e+003
1.188857e+003, 1.212307e+003
1.189339e+003, 1.214618e+003
1.189821e+003, 1.216790e+003
1.190303e+003, 1.218955e+003
1.190785e+003, 1.221240e+003
1.191267e+003, 1.222711e+003
1.191749e+003, 1.222938e+003
1.192232e+003, 1.223524e+003
1.192714e+003, 1.224704e+003
1.193196e+003, 1.226357e+003
1.193678e+003, 1.228586e+003
1.194160e+003, 1.230693e+003
1.194642e+003, 1.231616e+003
1.195124e+003, 1.231927e+003
1.195606e+003, 1.234180e+003
1.196089e+003, 1.238264e+003
1.196571e+003, 1.241437e+003
1.197053e+003, 1.243556e+003
1.197535e+003, 1.244615e+003
1.198017e+003, 1.244682e+003
1.198499e+003, 1.245099e+003
1.198981e+003, 1.246719e+003
1.199463e+003, 1.248805e+003
1.199945e+003, 1.250414e+003
1.200427e+003, 1.251764e+003
1.200910e+003, 1.253170e+003
1.201392e+003, 1.254727e+003
1.201874e+003, 1.257012e+003
1.202356e+003, 1.259611e+003
1.202838e+003, 1.261116e+003
1.203320e+003, 1.261276e+003
1.203802e+003, 1.261222e+003
1.204284e+003, 1.261449e+003
1.204767e+003, 1.262162e+003
1.205249e+003, 1.263955e+003
1.205731e+003, 1.265823e+003
1.206213e+003, 1.266374e+003
1.206695e+003, 1.266921e+003
1.207177e+003, 1.269623e+003
1.207659e+003, 1.273613e+003
1.208141e+003, 1.276142e+003
1.208624e+003, 1.276573e+003
1.209106e+003, 1.277277e+003
1.209588e+003, 1.278894e+003
1.210070e+003, 1.280718e+003
1.210552e+003, 1.282761e+003
1.211034e+003, 1.284805e+003
1.211516e+003, 1.287248e+003
1.211998e+003, 1.289164e+003
1.212480e+003, 1.289052e+003
1.212963e+003, 1.287729e+003
1.213445e+003, 1.288518e+003
1.213927e+003, 1.292138e+003
1.214409e+003, 1.293936e+003
1.214891e+003, 1.293103e+003
1.215373e+003, 1.293815e+003
1.215855e+003, 1.297193e+003
1.216337e+003, 1.300652e+003
1.216819e+003, 1.302957e+003
1.217302e+003, 1.303873e+003
1.217784e+003, 1.302653e+003
1.218266e+003, 1.300592e+003
1.218748e+003, 1.302455e+003
1.219230e+003, 1.307167e+003
1.219712e+003, 1.308727e+003
1.220194e+003, 1.307626e+003
1.220676e+003, 1.308241e+003
1.221159e+003, 1.311328e+003
1.221641e+003, 1.314444e+003
1.222123e+003, 1.316284e+003
1.222605e+003, 1.317710e+003
1.223087e+003, 1.319429e+003
1.223569e+003, 1.321345e+003
1.224051e+003, 1.323047e+003
1.224533e+003, 1.325091e+003
1.225016e+003, 1.329072e+003
1.225498e+003, 1.333559e+003
1.225980e+003, 1.335208e+003
1.226462e+003, 1.334027e+003
1.226944e+003, 1.333856e+003
1.227426e+003, 1.336297e+003
1.227908e+003, 1.338957e+003
1.228390e+003, 1.341404e+003
1.228872e+003, 1.343362e+003
1.229354e+003, 1.344555e+003
1.229837e+003, 1.345370e+003
1.230319e+003, 1.345434e+003
1.230801e+003, 1.345698e+003
1.231283e+003, 1.348214e+003
1.231765e+003, 1.352885e+003
1.232247e+003, 1.355613e+003
1.232729e+003, 1.355518e+003
1.233211e+003, 1.356287e+003
1.233694e+003, 1.358370e+003
1.234176e+003, 1.360322e+003
1.234658e+003, 1.361699e+003
1.235140e+003, 1.362941e+003
1.235622e+003, 1.364386e+003
1.236104e+003, 1.365822e+003
1.236586e+003, 1.366748e+003
1.237068e+003, 1.367422e+003
1.237551e+003, 1.369224e+003
1.238033e+003, 1.371781e+003
1.238515e+003, 1.373200e+003
1.238997e+003, 1.373659e+003
1.239479e+003, 1.375297e+003
1.239961e+003, 1.378477e+003
1.240443e+003, 1.380776e+003
1.240925e+003, 1.380366e+003
1.241407e+003, 1.380142e+003
1.241890e+003, 1.383563e+003
1.242372e+003, 1.387810e+003
1.242854e+003, 1.390501e+003
1.243336e+003, 1.392111e+003
1.243818e+003, 1.392686e+003
1.244300e+003, 1.393015e+003
1.244782e+003, 1.394704e+003
1.245264e+003, 1.397896e+003
1.245746e+003, 1.400660e+003
1.246229e+003, 1.402369e+003
1.246711e+003, 1.403844e+003
1.247193e+003, 1.404754e+003
1.247675e+003, 1.406102e+003
1.248157e+003, 1.408942e+003
1.248639e+003, 1.411406e+003
1.249121e+003, 1.411623e+003
1.249603e+003, 1.411181e+003
1.250085e+003, 1.413183e+003
1.250568e+003, 1.417410e+003
1.251050e+003, 1.420101e+003
1.251532e+003, 1.421079e+003
1.252014e+003, 1.422301e+003
1.252496e+003, 1.423913e+003
1.252978e+003, 1.425820e+003
1.253460e+003, 1.427991e+003
1.253942e+003, 1.430358e+003
1.254425e+003, 1.432847e+003
1.254907e+003, 1.435660e+003
1.255389e+003, 1.439665e+003
1.255871e+003, 1.443698e+003
1.256353e+003, 1.445050e+003
1.256835e+003, 1.445052e+003
1.257317e+003, 1.445944e+003
1.257799e+003, 1.447746e+003
1.258281e+003, 1.449865e+003
1.258764e+003, 1.452160e+003
1.259246e+003, 1.454892e+003
1.259728e+003, 1.458427e+003
1.260210e+003, 1.461419e+003
1.260692e+003, 1.462951e+003
1.261174e+003, 1.464186e+003
1.261656e+003, 1.465288e+003
1.262138e+003, 1.466703e+003
1.262620e+003, 1.469216e+003
1.263103e+003, 1.471986e+003
1.263585e+003, 1.473356e+003
1.264067e+003, 1.473607e+003
1.264549e+003, 1.475221e+003
1.265031e+003, 1.478931e+003
1.265513e+003, 1.481365e+003
1.265995e+003, 1.482143e+003
1.266477e+003, 1.483153e+003
1.266960e+003, 1.484811e+003
1.267442e+003, 1.486789e+003
1.267924e+003, 1.488955e+003
1.268406e+003, 1.490884e+003
1.268888e+003, 1.491982e+003
1.269370e+003, 1.492715e+003
1.269852e+003, 1.494042e+003
1.270334e+003, 1.495927e+003
1.270817e+003, 1.498839e+003
1.271299e+003, 1.502080e+003
1.271781e+003, 1.503445e+003
1.272263e+003, 1.503169e+003
1.272745e+003, 1.503638e+003
1.273227e+003, 1.505768e+003
1.273709e+003, 1.508148e+003
1.274191e+003, 1.510259e+003
1.274673e+003, 1.511990e+003
1.275156e+003, 1.511948e+003
1.275638e+003, 1.513042e+003
1.276120e+003, 1.519294e+003
1.276602e+003, 1.526094e+003
1.277084e+003, 1.527245e+003
1.277566e+003, 1.524592e+003
1.278048e+003, 1.524904e+003
1.278530e+003, 1.528641e+003
1.279012e+003, 1.531117e+003
1.279495e+003, 1.531454e+003
1.279977e+003, 1.533774e+003
1.280459e+003, 1.539182e+003
1.280941e+003, 1.543228e+003
1.281423e+003, 1.544192e+003
1.281905e+003, 1.544240e+003
1.282387e+003, 1.545018e+003
1.282869e+003, 1.546387e+003
1.283352e+003, 1.548427e+003
1.283834e+003, 1.550534e+003
1.284316e+003, 1.551293e+003
1.284798e+003, 1.550781e+003
##END=



