##NAMES=Zirsilite-(Ce)
##RRUFFID=R200001
##IDEAL CHEMISTRY=(Na,[box])_12_(Ce^3+^,Na)_3_Ca_6_Mn^2+^_3_Zr^4+^_3_Nb^5+^Si_25_O_73_(OH)_3_(CO_3_)&#183;H_2_O
##LOCALITY=Sagasen Quarry, Morje, Porsgreunn, Telemark, Norway
##OWNER=RRUFF
##SOURCE=Don Doell
##DESCRIPTION=Yellowish orange grains in albite-aegirine-nepheline matrix
##STATUS=The identification of this mineral has been confirmed only by single crystal X-ray diffraction.
##URL=rruff.info/R200001
8.813672e+001, 2.623113e+003
8.861884e+001, 2.650960e+003
8.910095e+001, 2.684138e+003
8.958307e+001, 2.731058e+003
9.006519e+001, 2.781819e+003
9.054730e+001, 2.824382e+003
9.102942e+001, 2.861220e+003
9.151154e+001, 2.892871e+003
9.199365e+001, 2.919741e+003
9.247577e+001, 2.942690e+003
9.295789e+001, 2.962641e+003
9.344000e+001, 2.980705e+003
9.392212e+001, 2.994714e+003
9.440424e+001, 3.003356e+003
9.488635e+001, 3.009134e+003
9.536847e+001, 3.013727e+003
9.585059e+001, 3.016606e+003
9.633270e+001, 3.017760e+003
9.681482e+001, 3.022146e+003
9.729694e+001, 3.033730e+003
9.777905e+001, 3.051963e+003
9.826117e+001, 3.068856e+003
9.874329e+001, 3.082933e+003
9.922540e+001, 3.095860e+003
9.970752e+001, 3.112686e+003
1.001896e+002, 3.134068e+003
1.006718e+002, 3.155299e+003
1.011539e+002, 3.172044e+003
1.016360e+002, 3.182593e+003
1.021181e+002, 3.197232e+003
1.026002e+002, 3.217661e+003
1.030823e+002, 3.243279e+003
1.035645e+002, 3.269737e+003
1.040466e+002, 3.297131e+003
1.045287e+002, 3.325764e+003
1.050108e+002, 3.356186e+003
1.054929e+002, 3.387238e+003
1.059750e+002, 3.422175e+003
1.064572e+002, 3.462627e+003
1.069393e+002, 3.509568e+003
1.074214e+002, 3.554937e+003
1.079035e+002, 3.600344e+003
1.083856e+002, 3.644167e+003
1.088677e+002, 3.683830e+003
1.093499e+002, 3.714952e+003
1.098320e+002, 3.747296e+003
1.103141e+002, 3.783287e+003
1.107962e+002, 3.825051e+003
1.112783e+002, 3.866075e+003
1.117604e+002, 3.904548e+003
1.122426e+002, 3.942833e+003
1.127247e+002, 3.983806e+003
1.132068e+002, 4.028191e+003
1.136889e+002, 4.075226e+003
1.141710e+002, 4.124733e+003
1.146531e+002, 4.178798e+003
1.151353e+002, 4.231144e+003
1.156174e+002, 4.280704e+003
1.160995e+002, 4.327779e+003
1.165816e+002, 4.373800e+003
1.170637e+002, 4.417835e+003
1.175458e+002, 4.461495e+003
1.180280e+002, 4.506605e+003
1.185101e+002, 4.555301e+003
1.189922e+002, 4.602834e+003
1.194743e+002, 4.644413e+003
1.199564e+002, 4.681542e+003
1.204385e+002, 4.720243e+003
1.209207e+002, 4.764835e+003
1.214028e+002, 4.812544e+003
1.218849e+002, 4.860050e+003
1.223670e+002, 4.906856e+003
1.228491e+002, 4.953227e+003
1.233312e+002, 4.999943e+003
1.238134e+002, 5.046930e+003
1.242955e+002, 5.091007e+003
1.247776e+002, 5.128556e+003
1.252597e+002, 5.161093e+003
1.257418e+002, 5.191849e+003
1.262239e+002, 5.219737e+003
1.267061e+002, 5.247353e+003
1.271882e+002, 5.277992e+003
1.276703e+002, 5.311943e+003
1.281524e+002, 5.348281e+003
1.286345e+002, 5.387347e+003
1.291166e+002, 5.428489e+003
1.295988e+002, 5.468846e+003
1.300809e+002, 5.505858e+003
1.305630e+002, 5.540857e+003
1.310451e+002, 5.578590e+003
1.315272e+002, 5.619359e+003
1.320093e+002, 5.661835e+003
1.324915e+002, 5.705153e+003
1.329736e+002, 5.749267e+003
1.334557e+002, 5.792807e+003
1.339378e+002, 5.834991e+003
1.344199e+002, 5.875738e+003
1.349020e+002, 5.912949e+003
1.353842e+002, 5.945750e+003
1.358663e+002, 5.975105e+003
1.363484e+002, 6.005647e+003
1.368305e+002, 6.038026e+003
1.373126e+002, 6.066886e+003
1.377947e+002, 6.088435e+003
1.382769e+002, 6.102136e+003
1.387590e+002, 6.111159e+003
1.392411e+002, 6.115694e+003
1.397232e+002, 6.115498e+003
1.402053e+002, 6.109733e+003
1.406874e+002, 6.098051e+003
1.411696e+002, 6.081718e+003
1.416517e+002, 6.061146e+003
1.421338e+002, 6.034503e+003
1.426159e+002, 6.009378e+003
1.430980e+002, 5.988010e+003
1.435801e+002, 5.970063e+003
1.440623e+002, 5.947818e+003
1.445444e+002, 5.920032e+003
1.450265e+002, 5.889987e+003
1.455086e+002, 5.860594e+003
1.459907e+002, 5.831482e+003
1.464728e+002, 5.803555e+003
1.469550e+002, 5.776060e+003
1.474371e+002, 5.748945e+003
1.479192e+002, 5.726025e+003
1.484013e+002, 5.710274e+003
1.488834e+002, 5.696978e+003
1.493655e+002, 5.681544e+003
1.498477e+002, 5.659561e+003
1.503298e+002, 5.640071e+003
1.508119e+002, 5.626528e+003
1.512940e+002, 5.620956e+003
1.517761e+002, 5.609559e+003
1.522583e+002, 5.584902e+003
1.527404e+002, 5.556999e+003
1.532225e+002, 5.536219e+003
1.537046e+002, 5.531883e+003
1.541867e+002, 5.527260e+003
1.546688e+002, 5.517514e+003
1.551510e+002, 5.500793e+003
1.556331e+002, 5.485368e+003
1.561152e+002, 5.474583e+003
1.565973e+002, 5.465622e+003
1.570794e+002, 5.454793e+003
1.575615e+002, 5.440153e+003
1.580437e+002, 5.424518e+003
1.585258e+002, 5.408416e+003
1.590079e+002, 5.390969e+003
1.594900e+002, 5.376126e+003
1.599721e+002, 5.365891e+003
1.604542e+002, 5.358921e+003
1.609364e+002, 5.352858e+003
1.614185e+002, 5.349755e+003
1.619006e+002, 5.345237e+003
1.623827e+002, 5.335987e+003
1.628648e+002, 5.318903e+003
1.633469e+002, 5.302919e+003
1.638291e+002, 5.293188e+003
1.643112e+002, 5.287604e+003
1.647933e+002, 5.281067e+003
1.652754e+002, 5.269856e+003
1.657575e+002, 5.257647e+003
1.662396e+002, 5.247177e+003
1.667218e+002, 5.239174e+003
1.672039e+002, 5.232763e+003
1.676860e+002, 5.228493e+003
1.681681e+002, 5.225747e+003
1.686502e+002, 5.222313e+003
1.691323e+002, 5.214292e+003
1.696145e+002, 5.206215e+003
1.700966e+002, 5.202832e+003
1.705787e+002, 5.206492e+003
1.710608e+002, 5.213246e+003
1.715429e+002, 5.222366e+003
1.720250e+002, 5.232832e+003
1.725072e+002, 5.239585e+003
1.729893e+002, 5.234190e+003
1.734714e+002, 5.224534e+003
1.739535e+002, 5.221812e+003
1.744356e+002, 5.231411e+003
1.749177e+002, 5.245971e+003
1.753999e+002, 5.259157e+003
1.758820e+002, 5.270971e+003
1.763641e+002, 5.280702e+003
1.768462e+002, 5.287830e+003
1.773283e+002, 5.292783e+003
1.778104e+002, 5.296181e+003
1.782926e+002, 5.297193e+003
1.787747e+002, 5.297729e+003
1.792568e+002, 5.299568e+003
1.797389e+002, 5.302844e+003
1.802210e+002, 5.309354e+003
1.807031e+002, 5.322484e+003
1.811853e+002, 5.340224e+003
1.816674e+002, 5.356944e+003
1.821495e+002, 5.370041e+003
1.826316e+002, 5.381524e+003
1.831137e+002, 5.394130e+003
1.835958e+002, 5.407915e+003
1.840780e+002, 5.423902e+003
1.845601e+002, 5.446211e+003
1.850422e+002, 5.472425e+003
1.855243e+002, 5.493804e+003
1.860064e+002, 5.503353e+003
1.864885e+002, 5.507321e+003
1.869707e+002, 5.522987e+003
1.874528e+002, 5.551314e+003
1.879349e+002, 5.583071e+003
1.884170e+002, 5.608054e+003
1.888991e+002, 5.627323e+003
1.893812e+002, 5.649107e+003
1.898634e+002, 5.677801e+003
1.903455e+002, 5.711202e+003
1.908276e+002, 5.740878e+003
1.913097e+002, 5.766674e+003
1.917918e+002, 5.791215e+003
1.922739e+002, 5.816335e+003
1.927561e+002, 5.842384e+003
1.932382e+002, 5.871678e+003
1.937203e+002, 5.907523e+003
1.942024e+002, 5.947732e+003
1.946845e+002, 5.979922e+003
1.951666e+002, 6.002125e+003
1.956488e+002, 6.021765e+003
1.961309e+002, 6.049328e+003
1.966130e+002, 6.085790e+003
1.970951e+002, 6.117863e+003
1.975772e+002, 6.141406e+003
1.980593e+002, 6.156795e+003
1.985415e+002, 6.167556e+003
1.990236e+002, 6.173156e+003
1.995057e+002, 6.175965e+003
1.999878e+002, 6.179087e+003
2.004699e+002, 6.182986e+003
2.009520e+002, 6.185351e+003
2.014342e+002, 6.185106e+003
2.019163e+002, 6.182517e+003
2.023984e+002, 6.181227e+003
2.028805e+002, 6.182016e+003
2.033626e+002, 6.183031e+003
2.038447e+002, 6.181332e+003
2.043269e+002, 6.176315e+003
2.048090e+002, 6.171704e+003
2.052911e+002, 6.168671e+003
2.057732e+002, 6.167147e+003
2.062553e+002, 6.166210e+003
2.067374e+002, 6.165827e+003
2.072196e+002, 6.165646e+003
2.077017e+002, 6.164503e+003
2.081838e+002, 6.161147e+003
2.086659e+002, 6.160630e+003
2.091480e+002, 6.165601e+003
2.096301e+002, 6.176617e+003
2.101123e+002, 6.184333e+003
2.105944e+002, 6.188216e+003
2.110765e+002, 6.189381e+003
2.115586e+002, 6.189374e+003
2.120407e+002, 6.188277e+003
2.125228e+002, 6.185574e+003
2.130050e+002, 6.181139e+003
2.134871e+002, 6.174999e+003
2.139692e+002, 6.167073e+003
2.144513e+002, 6.157700e+003
2.149334e+002, 6.146151e+003
2.154155e+002, 6.131425e+003
2.158977e+002, 6.113837e+003
2.163798e+002, 6.092268e+003
2.168619e+002, 6.066157e+003
2.173440e+002, 6.035356e+003
2.178261e+002, 6.002405e+003
2.183082e+002, 5.966864e+003
2.187904e+002, 5.930206e+003
2.192725e+002, 5.894847e+003
2.197546e+002, 5.862543e+003
2.202367e+002, 5.828576e+003
2.207188e+002, 5.791389e+003
2.212009e+002, 5.749917e+003
2.216831e+002, 5.710771e+003
2.221652e+002, 5.674110e+003
2.226473e+002, 5.639730e+003
2.231294e+002, 5.608225e+003
2.236115e+002, 5.580142e+003
2.240936e+002, 5.553358e+003
2.245758e+002, 5.527132e+003
2.250579e+002, 5.501616e+003
2.255400e+002, 5.476530e+003
2.260221e+002, 5.452001e+003
2.265042e+002, 5.427740e+003
2.269863e+002, 5.403437e+003
2.274685e+002, 5.377032e+003
2.279506e+002, 5.353821e+003
2.284327e+002, 5.335451e+003
2.289148e+002, 5.322140e+003
2.293969e+002, 5.310550e+003
2.298790e+002, 5.302217e+003
2.303612e+002, 5.294102e+003
2.308433e+002, 5.281726e+003
2.313254e+002, 5.259995e+003
2.318075e+002, 5.243052e+003
2.322896e+002, 5.236711e+003
2.327717e+002, 5.243036e+003
2.332539e+002, 5.239983e+003
2.337360e+002, 5.223476e+003
2.342181e+002, 5.201378e+003
2.347002e+002, 5.182179e+003
2.351823e+002, 5.166818e+003
2.356644e+002, 5.153160e+003
2.361466e+002, 5.140800e+003
2.366287e+002, 5.129829e+003
2.371108e+002, 5.121132e+003
2.375929e+002, 5.117023e+003
2.380750e+002, 5.113494e+003
2.385571e+002, 5.106070e+003
2.390393e+002, 5.092239e+003
2.395214e+002, 5.079371e+003
2.400035e+002, 5.068798e+003
2.404856e+002, 5.060476e+003
2.409677e+002, 5.054134e+003
2.414498e+002, 5.050881e+003
2.419320e+002, 5.048441e+003
2.424141e+002, 5.044446e+003
2.428962e+002, 5.037606e+003
2.433783e+002, 5.031267e+003
2.438604e+002, 5.025657e+003
2.443425e+002, 5.020667e+003
2.448247e+002, 5.017178e+003
2.453068e+002, 5.015654e+003
2.457889e+002, 5.014857e+003
2.462710e+002, 5.013961e+003
2.467531e+002, 5.013880e+003
2.472352e+002, 5.011724e+003
2.477174e+002, 5.006951e+003
2.481995e+002, 4.999681e+003
2.486816e+002, 4.990457e+003
2.491637e+002, 4.977306e+003
2.496458e+002, 4.964776e+003
2.501279e+002, 4.956770e+003
2.506101e+002, 4.954892e+003
2.510922e+002, 4.954559e+003
2.515743e+002, 4.955986e+003
2.520564e+002, 4.958935e+003
2.525385e+002, 4.960747e+003
2.530206e+002, 4.961543e+003
2.535028e+002, 4.961152e+003
2.539849e+002, 4.958980e+003
2.544670e+002, 4.953228e+003
2.549491e+002, 4.949685e+003
2.554312e+002, 4.948709e+003
2.559133e+002, 4.950188e+003
2.563955e+002, 4.954597e+003
2.568776e+002, 4.964164e+003
2.573597e+002, 4.972830e+003
2.578418e+002, 4.976083e+003
2.583239e+002, 4.970800e+003
2.588061e+002, 4.968114e+003
2.592882e+002, 4.969079e+003
2.597703e+002, 4.973087e+003
2.602524e+002, 4.978129e+003
2.607345e+002, 4.984961e+003
2.612166e+002, 4.991698e+003
2.616988e+002, 4.997818e+003
2.621809e+002, 5.003964e+003
2.626630e+002, 5.007305e+003
2.631451e+002, 5.006583e+003
2.636272e+002, 5.003740e+003
2.641093e+002, 5.004489e+003
2.645915e+002, 5.011043e+003
2.650736e+002, 5.016623e+003
2.655557e+002, 5.016687e+003
2.660378e+002, 5.008339e+003
2.665199e+002, 5.007236e+003
2.670020e+002, 5.015817e+003
2.674842e+002, 5.030085e+003
2.679663e+002, 5.041792e+003
2.684484e+002, 5.050598e+003
2.689305e+002, 5.057612e+003
2.694126e+002, 5.061394e+003
2.698947e+002, 5.060028e+003
2.703769e+002, 5.067777e+003
2.708590e+002, 5.087292e+003
2.713411e+002, 5.112301e+003
2.718232e+002, 5.132425e+003
2.723053e+002, 5.147063e+003
2.727874e+002, 5.158465e+003
2.732696e+002, 5.166518e+003
2.737517e+002, 5.170848e+003
2.742338e+002, 5.177528e+003
2.747159e+002, 5.187764e+003
2.751980e+002, 5.197946e+003
2.756801e+002, 5.202270e+003
2.761623e+002, 5.199751e+003
2.766444e+002, 5.197490e+003
2.771265e+002, 5.197894e+003
2.776086e+002, 5.200870e+003
2.780907e+002, 5.204723e+003
2.785728e+002, 5.210858e+003
2.790550e+002, 5.214387e+003
2.795371e+002, 5.207338e+003
2.800192e+002, 5.188690e+003
2.805013e+002, 5.174273e+003
2.809834e+002, 5.168749e+003
2.814655e+002, 5.170927e+003
2.819477e+002, 5.175624e+003
2.824298e+002, 5.183417e+003
2.829119e+002, 5.190830e+003
2.833940e+002, 5.192899e+003
2.838761e+002, 5.189729e+003
2.843582e+002, 5.190960e+003
2.848404e+002, 5.200212e+003
2.853225e+002, 5.214271e+003
2.858046e+002, 5.222448e+003
2.862867e+002, 5.224038e+003
2.867688e+002, 5.225998e+003
2.872509e+002, 5.234721e+003
2.877331e+002, 5.249405e+003
2.882152e+002, 5.263042e+003
2.886973e+002, 5.274306e+003
2.891794e+002, 5.284158e+003
2.896615e+002, 5.294089e+003
2.901436e+002, 5.304188e+003
2.906258e+002, 5.314956e+003
2.911079e+002, 5.327024e+003
2.915900e+002, 5.340220e+003
2.920721e+002, 5.354712e+003
2.925542e+002, 5.371669e+003
2.930363e+002, 5.386924e+003
2.935185e+002, 5.391166e+003
2.940006e+002, 5.385694e+003
2.944827e+002, 5.382190e+003
2.949648e+002, 5.389435e+003
2.954469e+002, 5.403594e+003
2.959290e+002, 5.414130e+003
2.964112e+002, 5.420039e+003
2.968933e+002, 5.424026e+003
2.973754e+002, 5.428620e+003
2.978575e+002, 5.433821e+003
2.983396e+002, 5.439786e+003
2.988217e+002, 5.448049e+003
2.993039e+002, 5.456675e+003
2.997860e+002, 5.460642e+003
3.002681e+002, 5.459415e+003
3.007502e+002, 5.459382e+003
3.012323e+002, 5.469950e+003
3.017144e+002, 5.486802e+003
3.021966e+002, 5.499083e+003
3.026787e+002, 5.499127e+003
3.031608e+002, 5.494555e+003
3.036429e+002, 5.495244e+003
3.041250e+002, 5.500943e+003
3.046071e+002, 5.506619e+003
3.050893e+002, 5.506673e+003
3.055714e+002, 5.504375e+003
3.060535e+002, 5.505225e+003
3.065356e+002, 5.513837e+003
3.070177e+002, 5.523128e+003
3.074998e+002, 5.525758e+003
3.079820e+002, 5.522785e+003
3.084641e+002, 5.519689e+003
3.089462e+002, 5.520598e+003
3.094283e+002, 5.522937e+003
3.099104e+002, 5.523929e+003
3.103925e+002, 5.522818e+003
3.108747e+002, 5.520415e+003
3.113568e+002, 5.517922e+003
3.118389e+002, 5.514707e+003
3.123210e+002, 5.509007e+003
3.128031e+002, 5.496056e+003
3.132852e+002, 5.482606e+003
3.137674e+002, 5.474843e+003
3.142495e+002, 5.476248e+003
3.147316e+002, 5.475976e+003
3.152137e+002, 5.469812e+003
3.156958e+002, 5.458290e+003
3.161779e+002, 5.442302e+003
3.166601e+002, 5.417531e+003
3.171422e+002, 5.392030e+003
3.176243e+002, 5.368839e+003
3.181064e+002, 5.347935e+003
3.185885e+002, 5.333146e+003
3.190706e+002, 5.330757e+003
3.195528e+002, 5.333542e+003
3.200349e+002, 5.333286e+003
3.205170e+002, 5.325803e+003
3.209991e+002, 5.316920e+003
3.214812e+002, 5.307168e+003
3.219633e+002, 5.296551e+003
3.224455e+002, 5.289310e+003
3.229276e+002, 5.287411e+003
3.234097e+002, 5.288474e+003
3.238918e+002, 5.290706e+003
3.243739e+002, 5.295882e+003
3.248560e+002, 5.299914e+003
3.253382e+002, 5.299893e+003
3.258203e+002, 5.297019e+003
3.263024e+002, 5.299380e+003
3.267845e+002, 5.312543e+003
3.272666e+002, 5.327311e+003
3.277487e+002, 5.339350e+003
3.282309e+002, 5.348556e+003
3.287130e+002, 5.354755e+003
3.291951e+002, 5.353534e+003
3.296772e+002, 5.349426e+003
3.301593e+002, 5.354231e+003
3.306414e+002, 5.376282e+003
3.311236e+002, 5.397631e+003
3.316057e+002, 5.411581e+003
3.320878e+002, 5.414284e+003
3.325699e+002, 5.421610e+003
3.330520e+002, 5.436032e+003
3.335341e+002, 5.453488e+003
3.340163e+002, 5.468089e+003
3.344984e+002, 5.478804e+003
3.349805e+002, 5.488537e+003
3.354626e+002, 5.497658e+003
3.359447e+002, 5.506165e+003
3.364268e+002, 5.516585e+003
3.369090e+002, 5.529711e+003
3.373911e+002, 5.543772e+003
3.378732e+002, 5.556841e+003
3.383553e+002, 5.568574e+003
3.388374e+002, 5.580651e+003
3.393195e+002, 5.593855e+003
3.398017e+002, 5.607474e+003
3.402838e+002, 5.619032e+003
3.407659e+002, 5.628337e+003
3.412480e+002, 5.635879e+003
3.417301e+002, 5.642191e+003
3.422122e+002, 5.647192e+003
3.426944e+002, 5.649417e+003
3.431765e+002, 5.647587e+003
3.436586e+002, 5.644457e+003
3.441407e+002, 5.647151e+003
3.446228e+002, 5.655855e+003
3.451049e+002, 5.662726e+003
3.455871e+002, 5.662969e+003
3.460692e+002, 5.657558e+003
3.465513e+002, 5.650775e+003
3.470334e+002, 5.642342e+003
3.475155e+002, 5.635120e+003
3.479977e+002, 5.635353e+003
3.484798e+002, 5.641300e+003
3.489619e+002, 5.643527e+003
3.494440e+002, 5.636776e+003
3.499261e+002, 5.624219e+003
3.504082e+002, 5.610472e+003
3.508904e+002, 5.595484e+003
3.513725e+002, 5.583165e+003
3.518546e+002, 5.578329e+003
3.523367e+002, 5.578342e+003
3.528188e+002, 5.577851e+003
3.533009e+002, 5.575680e+003
3.537831e+002, 5.571712e+003
3.542652e+002, 5.564241e+003
3.547473e+002, 5.554180e+003
3.552294e+002, 5.545859e+003
3.557115e+002, 5.544322e+003
3.561936e+002, 5.544991e+003
3.566758e+002, 5.542405e+003
3.571579e+002, 5.534333e+003
3.576400e+002, 5.526906e+003
3.581221e+002, 5.527055e+003
3.586042e+002, 5.531031e+003
3.590863e+002, 5.531242e+003
3.595685e+002, 5.517308e+003
3.600506e+002, 5.503950e+003
3.605327e+002, 5.502304e+003
3.610148e+002, 5.514663e+003
3.614969e+002, 5.525343e+003
3.619790e+002, 5.527538e+003
3.624612e+002, 5.524666e+003
3.629433e+002, 5.520413e+003
3.634254e+002, 5.511933e+003
3.639075e+002, 5.505770e+003
3.643896e+002, 5.505675e+003
3.648717e+002, 5.510858e+003
3.653539e+002, 5.513045e+003
3.658360e+002, 5.508937e+003
3.663181e+002, 5.502097e+003
3.668002e+002, 5.494585e+003
3.672823e+002, 5.487528e+003
3.677644e+002, 5.478469e+003
3.682466e+002, 5.466084e+003
3.687287e+002, 5.451421e+003
3.692108e+002, 5.437757e+003
3.696929e+002, 5.428036e+003
3.701750e+002, 5.416145e+003
3.706571e+002, 5.399858e+003
3.711393e+002, 5.377641e+003
3.716214e+002, 5.355572e+003
3.721035e+002, 5.330866e+003
3.725856e+002, 5.308266e+003
3.730677e+002, 5.294940e+003
3.735498e+002, 5.295408e+003
3.740320e+002, 5.295442e+003
3.745141e+002, 5.291939e+003
3.749962e+002, 5.285192e+003
3.754783e+002, 5.278086e+003
3.759604e+002, 5.270577e+003
3.764425e+002, 5.263183e+003
3.769247e+002, 5.255721e+003
3.774068e+002, 5.247874e+003
3.778889e+002, 5.243393e+003
3.783710e+002, 5.243543e+003
3.788531e+002, 5.246613e+003
3.793352e+002, 5.247380e+003
3.798174e+002, 5.245318e+003
3.802995e+002, 5.246703e+003
3.807816e+002, 5.257026e+003
3.812637e+002, 5.274768e+003
3.817458e+002, 5.289218e+003
3.822279e+002, 5.299593e+003
3.827101e+002, 5.308202e+003
3.831922e+002, 5.315755e+003
3.836743e+002, 5.323373e+003
3.841564e+002, 5.336406e+003
3.846385e+002, 5.360415e+003
3.851206e+002, 5.389526e+003
3.856028e+002, 5.413756e+003
3.860849e+002, 5.433238e+003
3.865670e+002, 5.450375e+003
3.870491e+002, 5.467732e+003
3.875312e+002, 5.484087e+003
3.880133e+002, 5.497320e+003
3.884955e+002, 5.506020e+003
3.889776e+002, 5.513261e+003
3.894597e+002, 5.522563e+003
3.899418e+002, 5.532754e+003
3.904239e+002, 5.540370e+003
3.909060e+002, 5.541685e+003
3.913882e+002, 5.540993e+003
3.918703e+002, 5.542281e+003
3.923524e+002, 5.546833e+003
3.928345e+002, 5.548810e+003
3.933166e+002, 5.544938e+003
3.937987e+002, 5.536937e+003
3.942809e+002, 5.527068e+003
3.947630e+002, 5.512911e+003
3.952451e+002, 5.499892e+003
3.957272e+002, 5.491453e+003
3.962093e+002, 5.487173e+003
3.966914e+002, 5.478966e+003
3.971736e+002, 5.461203e+003
3.976557e+002, 5.441562e+003
3.981378e+002, 5.424632e+003
3.986199e+002, 5.411185e+003
3.991020e+002, 5.400313e+003
3.995841e+002, 5.393727e+003
4.000663e+002, 5.389567e+003
4.005484e+002, 5.383336e+003
4.010305e+002, 5.373446e+003
4.015126e+002, 5.363450e+003
4.019947e+002, 5.354416e+003
4.024768e+002, 5.346537e+003
4.029590e+002, 5.339071e+003
4.034411e+002, 5.332291e+003
4.039232e+002, 5.325653e+003
4.044053e+002, 5.318522e+003
4.048874e+002, 5.310776e+003
4.053695e+002, 5.303120e+003
4.058517e+002, 5.295796e+003
4.063338e+002, 5.288714e+003
4.068159e+002, 5.280024e+003
4.072980e+002, 5.268874e+003
4.077801e+002, 5.260439e+003
4.082622e+002, 5.261450e+003
4.087444e+002, 5.270815e+003
4.092265e+002, 5.271101e+003
4.097086e+002, 5.258218e+003
4.101907e+002, 5.242237e+003
4.106728e+002, 5.241212e+003
4.111549e+002, 5.252627e+003
4.116371e+002, 5.260544e+003
4.121192e+002, 5.254694e+003
4.126013e+002, 5.240934e+003
4.130834e+002, 5.230690e+003
4.135655e+002, 5.223948e+003
4.140476e+002, 5.218184e+003
4.145298e+002, 5.211686e+003
4.150119e+002, 5.204628e+003
4.154940e+002, 5.197123e+003
4.159761e+002, 5.189062e+003
4.164582e+002, 5.180972e+003
4.169403e+002, 5.173147e+003
4.174225e+002, 5.165765e+003
4.179046e+002, 5.159281e+003
4.183867e+002, 5.155556e+003
4.188688e+002, 5.152003e+003
4.193509e+002, 5.146394e+003
4.198330e+002, 5.137822e+003
4.203152e+002, 5.130841e+003
4.207973e+002, 5.129801e+003
4.212794e+002, 5.130396e+003
4.217615e+002, 5.127628e+003
4.222436e+002, 5.113269e+003
4.227257e+002, 5.102859e+003
4.232079e+002, 5.104291e+003
4.236900e+002, 5.116124e+003
4.241721e+002, 5.119148e+003
4.246542e+002, 5.101172e+003
4.251363e+002, 5.082267e+003
4.256184e+002, 5.072304e+003
4.261006e+002, 5.078446e+003
4.265827e+002, 5.080361e+003
4.270648e+002, 5.075292e+003
4.275469e+002, 5.067261e+003
4.280290e+002, 5.064235e+003
4.285111e+002, 5.069546e+003
4.289933e+002, 5.072228e+003
4.294754e+002, 5.068185e+003
4.299575e+002, 5.057601e+003
4.304396e+002, 5.049288e+003
4.309217e+002, 5.043997e+003
4.314038e+002, 5.038702e+003
4.318860e+002, 5.030473e+003
4.323681e+002, 5.019306e+003
4.328502e+002, 5.008098e+003
4.333323e+002, 4.996629e+003
4.338144e+002, 4.986435e+003
4.342965e+002, 4.981998e+003
4.347787e+002, 4.982812e+003
4.352608e+002, 4.982486e+003
4.357429e+002, 4.975066e+003
4.362250e+002, 4.964319e+003
4.367071e+002, 4.959830e+003
4.371892e+002, 4.962322e+003
4.376714e+002, 4.965293e+003
4.381535e+002, 4.961292e+003
4.386356e+002, 4.953819e+003
4.391177e+002, 4.949249e+003
4.395998e+002, 4.952578e+003
4.400819e+002, 4.956172e+003
4.405641e+002, 4.951681e+003
4.410462e+002, 4.941657e+003
4.415283e+002, 4.935189e+003
4.420104e+002, 4.941537e+003
4.424925e+002, 4.949994e+003
4.429746e+002, 4.952392e+003
4.434568e+002, 4.945654e+003
4.439389e+002, 4.940840e+003
4.444210e+002, 4.941644e+003
4.449031e+002, 4.946097e+003
4.453852e+002, 4.951865e+003
4.458673e+002, 4.961822e+003
4.463495e+002, 4.969177e+003
4.468316e+002, 4.971027e+003
4.473137e+002, 4.967764e+003
4.477958e+002, 4.966680e+003
4.482779e+002, 4.969665e+003
4.487600e+002, 4.972839e+003
4.492422e+002, 4.974556e+003
4.497243e+002, 4.975544e+003
4.502064e+002, 4.973229e+003
4.506885e+002, 4.966501e+003
4.511706e+002, 4.957685e+003
4.516527e+002, 4.949806e+003
4.521349e+002, 4.942117e+003
4.526170e+002, 4.939252e+003
4.530991e+002, 4.944506e+003
4.535812e+002, 4.956161e+003
4.540633e+002, 4.963245e+003
4.545454e+002, 4.965681e+003
4.550276e+002, 4.965752e+003
4.555097e+002, 4.963431e+003
4.559918e+002, 4.959718e+003
4.564739e+002, 4.960378e+003
4.569560e+002, 4.967218e+003
4.574381e+002, 4.975368e+003
4.579203e+002, 4.977774e+003
4.584024e+002, 4.975802e+003
4.588845e+002, 4.974032e+003
4.593666e+002, 4.974957e+003
4.598488e+002, 4.976908e+003
4.603309e+002, 4.978020e+003
4.608130e+002, 4.978245e+003
4.612951e+002, 4.978359e+003
4.617772e+002, 4.978954e+003
4.622593e+002, 4.979613e+003
4.627415e+002, 4.979916e+003
4.632236e+002, 4.979540e+003
4.637057e+002, 4.979304e+003
4.641878e+002, 4.981296e+003
4.646699e+002, 4.983601e+003
4.651520e+002, 4.982464e+003
4.656342e+002, 4.972303e+003
4.661163e+002, 4.963175e+003
4.665984e+002, 4.958368e+003
4.670805e+002, 4.958465e+003
4.675626e+002, 4.959876e+003
4.680447e+002, 4.964961e+003
4.685269e+002, 4.969269e+003
4.690090e+002, 4.969304e+003
4.694911e+002, 4.961184e+003
4.699732e+002, 4.956845e+003
4.704553e+002, 4.958442e+003
4.709374e+002, 4.963235e+003
4.714196e+002, 4.965114e+003
4.719017e+002, 4.963542e+003
4.723838e+002, 4.960850e+003
4.728659e+002, 4.957458e+003
4.733480e+002, 4.953537e+003
4.738301e+002, 4.951078e+003
4.743123e+002, 4.950208e+003
4.747944e+002, 4.950074e+003
4.752765e+002, 4.950212e+003
4.757586e+002, 4.950546e+003
4.762407e+002, 4.950374e+003
4.767228e+002, 4.949149e+003
4.772050e+002, 4.948402e+003
4.776871e+002, 4.951715e+003
4.781692e+002, 4.957531e+003
4.786513e+002, 4.960888e+003
4.791334e+002, 4.956235e+003
4.796155e+002, 4.949639e+003
4.800977e+002, 4.946927e+003
4.805798e+002, 4.948269e+003
4.810619e+002, 4.951008e+003
4.815440e+002, 4.955220e+003
4.820261e+002, 4.959252e+003
4.825082e+002, 4.961651e+003
4.829904e+002, 4.961706e+003
4.834725e+002, 4.960700e+003
4.839546e+002, 4.957639e+003
4.844367e+002, 4.953875e+003
4.849188e+002, 4.952307e+003
4.854009e+002, 4.957079e+003
4.858831e+002, 4.960389e+003
4.863652e+002, 4.959190e+003
4.868473e+002, 4.953021e+003
4.873294e+002, 4.950127e+003
4.878115e+002, 4.951418e+003
4.882936e+002, 4.954951e+003
4.887758e+002, 4.959890e+003
4.892579e+002, 4.967223e+003
4.897400e+002, 4.971904e+003
4.902221e+002, 4.972083e+003
4.907042e+002, 4.971168e+003
4.911863e+002, 4.977003e+003
4.916685e+002, 4.990075e+003
4.921506e+002, 5.001491e+003
4.926327e+002, 5.006573e+003
4.931148e+002, 5.007361e+003
4.935969e+002, 5.010740e+003
4.940790e+002, 5.016718e+003
4.945612e+002, 5.022751e+003
4.950433e+002, 5.025952e+003
4.955254e+002, 5.027911e+003
4.960075e+002, 5.031810e+003
4.964896e+002, 5.038360e+003
4.969717e+002, 5.046364e+003
4.974539e+002, 5.056445e+003
4.979360e+002, 5.066940e+003
4.984181e+002, 5.074511e+003
4.989002e+002, 5.075074e+003
4.993823e+002, 5.074740e+003
4.998644e+002, 5.076254e+003
5.003466e+002, 5.079697e+003
5.008287e+002, 5.084763e+003
5.013108e+002, 5.091679e+003
5.017929e+002, 5.100017e+003
5.022750e+002, 5.109926e+003
5.027571e+002, 5.124384e+003
5.032393e+002, 5.134811e+003
5.037214e+002, 5.139378e+003
5.042035e+002, 5.140729e+003
5.046856e+002, 5.142212e+003
5.051677e+002, 5.143801e+003
5.056498e+002, 5.145390e+003
5.061320e+002, 5.145770e+003
5.066141e+002, 5.146082e+003
5.070962e+002, 5.154311e+003
5.075783e+002, 5.172789e+003
5.080604e+002, 5.189184e+003
5.085425e+002, 5.194889e+003
5.090247e+002, 5.190879e+003
5.095068e+002, 5.186388e+003
5.099889e+002, 5.181330e+003
5.104710e+002, 5.177881e+003
5.109531e+002, 5.180775e+003
5.114352e+002, 5.187590e+003
5.119174e+002, 5.190740e+003
5.123995e+002, 5.185784e+003
5.128816e+002, 5.179216e+003
5.133637e+002, 5.177621e+003
5.138458e+002, 5.180259e+003
5.143279e+002, 5.184610e+003
5.148101e+002, 5.191085e+003
5.152922e+002, 5.197688e+003
5.157743e+002, 5.203005e+003
5.162564e+002, 5.206887e+003
5.167385e+002, 5.210468e+003
5.172206e+002, 5.211514e+003
5.177028e+002, 5.213872e+003
5.181849e+002, 5.220637e+003
5.186670e+002, 5.236816e+003
5.191491e+002, 5.251704e+003
5.196312e+002, 5.264970e+003
5.201133e+002, 5.276367e+003
5.205955e+002, 5.285234e+003
5.210776e+002, 5.288834e+003
5.215597e+002, 5.294782e+003
5.220418e+002, 5.306500e+003
5.225239e+002, 5.323558e+003
5.230060e+002, 5.335091e+003
5.234882e+002, 5.339458e+003
5.239703e+002, 5.344028e+003
5.244524e+002, 5.355302e+003
5.249345e+002, 5.372600e+003
5.254166e+002, 5.389578e+003
5.258987e+002, 5.405757e+003
5.263809e+002, 5.421218e+003
5.268630e+002, 5.435218e+003
5.273451e+002, 5.448686e+003
5.278272e+002, 5.464291e+003
5.283093e+002, 5.484811e+003
5.287914e+002, 5.506807e+003
5.292736e+002, 5.527647e+003
5.297557e+002, 5.547387e+003
5.302378e+002, 5.565095e+003
5.307199e+002, 5.575995e+003
5.312020e+002, 5.588188e+003
5.316841e+002, 5.608766e+003
5.321663e+002, 5.641361e+003
5.326484e+002, 5.670397e+003
5.331305e+002, 5.687656e+003
5.336126e+002, 5.701967e+003
5.340947e+002, 5.722081e+003
5.345768e+002, 5.758517e+003
5.350590e+002, 5.787302e+003
5.355411e+002, 5.803951e+003
5.360232e+002, 5.812163e+003
5.365053e+002, 5.822265e+003
5.369874e+002, 5.836542e+003
5.374695e+002, 5.846354e+003
5.379517e+002, 5.848649e+003
5.384338e+002, 5.843460e+003
5.389159e+002, 5.831985e+003
5.393980e+002, 5.814236e+003
5.398801e+002, 5.790313e+003
5.403622e+002, 5.756932e+003
5.408444e+002, 5.717099e+003
5.413265e+002, 5.682020e+003
5.418086e+002, 5.653433e+003
5.422907e+002, 5.627979e+003
5.427728e+002, 5.601225e+003
5.432549e+002, 5.574536e+003
5.437371e+002, 5.551419e+003
5.442192e+002, 5.535745e+003
5.447013e+002, 5.522181e+003
5.451834e+002, 5.504886e+003
5.456655e+002, 5.485724e+003
5.461476e+002, 5.472763e+003
5.466298e+002, 5.474548e+003
5.471119e+002, 5.479144e+003
5.475940e+002, 5.479149e+003
5.480761e+002, 5.471120e+003
5.485582e+002, 5.469749e+003
5.490403e+002, 5.478537e+003
5.495225e+002, 5.492664e+003
5.500046e+002, 5.508414e+003
5.504867e+002, 5.525991e+003
5.509688e+002, 5.544308e+003
5.514509e+002, 5.562284e+003
5.519330e+002, 5.581654e+003
5.524152e+002, 5.606803e+003
5.528973e+002, 5.638545e+003
5.533794e+002, 5.669885e+003
5.538615e+002, 5.696619e+003
5.543436e+002, 5.721298e+003
5.548257e+002, 5.753083e+003
5.553079e+002, 5.791642e+003
5.557900e+002, 5.834180e+003
5.562721e+002, 5.881460e+003
5.567542e+002, 5.930016e+003
5.572363e+002, 5.973646e+003
5.577184e+002, 6.011309e+003
5.582006e+002, 6.046268e+003
5.586827e+002, 6.081924e+003
5.591648e+002, 6.115959e+003
5.596469e+002, 6.146074e+003
5.601290e+002, 6.172741e+003
5.606111e+002, 6.193722e+003
5.610933e+002, 6.204687e+003
5.615754e+002, 6.209026e+003
5.620575e+002, 6.215845e+003
5.625396e+002, 6.228130e+003
5.630217e+002, 6.241101e+003
5.635038e+002, 6.251950e+003
5.639860e+002, 6.260350e+003
5.644681e+002, 6.276935e+003
5.649502e+002, 6.300946e+003
5.654323e+002, 6.334386e+003
5.659144e+002, 6.379396e+003
5.663965e+002, 6.436608e+003
5.668787e+002, 6.498046e+003
5.673608e+002, 6.562419e+003
5.678429e+002, 6.632137e+003
5.683250e+002, 6.712736e+003
5.688071e+002, 6.801398e+003
5.692892e+002, 6.884227e+003
5.697714e+002, 6.959569e+003
5.702535e+002, 7.022345e+003
5.707356e+002, 7.065907e+003
5.712177e+002, 7.090965e+003
5.716998e+002, 7.097956e+003
5.721819e+002, 7.089377e+003
5.726641e+002, 7.061562e+003
5.731462e+002, 7.009164e+003
5.736283e+002, 6.931365e+003
5.741104e+002, 6.844191e+003
5.745925e+002, 6.745991e+003
5.750746e+002, 6.643983e+003
5.755568e+002, 6.540818e+003
5.760389e+002, 6.435004e+003
5.765210e+002, 6.334443e+003
5.770031e+002, 6.236033e+003
5.774852e+002, 6.144241e+003
5.779673e+002, 6.064918e+003
5.784495e+002, 5.998487e+003
5.789316e+002, 5.941492e+003
5.794137e+002, 5.895294e+003
5.798958e+002, 5.856734e+003
5.803779e+002, 5.813521e+003
5.808600e+002, 5.765941e+003
5.813422e+002, 5.724127e+003
5.818243e+002, 5.696754e+003
5.823064e+002, 5.678007e+003
5.827885e+002, 5.654838e+003
5.832706e+002, 5.627250e+003
5.837527e+002, 5.604141e+003
5.842349e+002, 5.598218e+003
5.847170e+002, 5.596668e+003
5.851991e+002, 5.585224e+003
5.856812e+002, 5.558598e+003
5.861633e+002, 5.530192e+003
5.866454e+002, 5.503061e+003
5.871276e+002, 5.478153e+003
5.876097e+002, 5.456986e+003
5.880918e+002, 5.443282e+003
5.885739e+002, 5.429017e+003
5.890560e+002, 5.413057e+003
5.895381e+002, 5.395990e+003
5.900203e+002, 5.378804e+003
5.905024e+002, 5.359688e+003
5.909845e+002, 5.345031e+003
5.914666e+002, 5.338770e+003
5.919487e+002, 5.339765e+003
5.924308e+002, 5.337193e+003
5.929130e+002, 5.330708e+003
5.933951e+002, 5.323816e+003
5.938772e+002, 5.318521e+003
5.943593e+002, 5.314999e+003
5.948414e+002, 5.314208e+003
5.953235e+002, 5.316398e+003
5.958057e+002, 5.319767e+003
5.962878e+002, 5.322476e+003
5.967699e+002, 5.325251e+003
5.972520e+002, 5.329378e+003
5.977341e+002, 5.337223e+003
5.982162e+002, 5.343476e+003
5.986984e+002, 5.343814e+003
5.991805e+002, 5.340841e+003
5.996626e+002, 5.340137e+003
6.001447e+002, 5.342104e+003
6.006268e+002, 5.347531e+003
6.011089e+002, 5.358958e+003
6.015911e+002, 5.375436e+003
6.020732e+002, 5.385310e+003
6.025553e+002, 5.384917e+003
6.030374e+002, 5.384672e+003
6.035195e+002, 5.390116e+003
6.040016e+002, 5.401433e+003
6.044838e+002, 5.413438e+003
6.049659e+002, 5.426045e+003
6.054480e+002, 5.439368e+003
6.059301e+002, 5.453315e+003
6.064122e+002, 5.467994e+003
6.068943e+002, 5.483663e+003
6.073765e+002, 5.499833e+003
6.078586e+002, 5.518452e+003
6.083407e+002, 5.544116e+003
6.088228e+002, 5.573174e+003
6.093049e+002, 5.598391e+003
6.097870e+002, 5.610229e+003
6.102692e+002, 5.624438e+003
6.107513e+002, 5.651517e+003
6.112334e+002, 5.687670e+003
6.117155e+002, 5.719034e+003
6.121976e+002, 5.735894e+003
6.126797e+002, 5.754894e+003
6.131619e+002, 5.782595e+003
6.136440e+002, 5.819827e+003
6.141261e+002, 5.852171e+003
6.146082e+002, 5.878035e+003
6.150903e+002, 5.902587e+003
6.155724e+002, 5.929471e+003
6.160546e+002, 5.958582e+003
6.165367e+002, 5.989140e+003
6.170188e+002, 6.021401e+003
6.175009e+002, 6.053136e+003
6.179830e+002, 6.082696e+003
6.184651e+002, 6.109716e+003
6.189473e+002, 6.132812e+003
6.194294e+002, 6.150823e+003
6.199115e+002, 6.166645e+003
6.203936e+002, 6.183716e+003
6.208757e+002, 6.200706e+003
6.213578e+002, 6.215007e+003
6.218400e+002, 6.227094e+003
6.223221e+002, 6.234891e+003
6.228042e+002, 6.235974e+003
6.232863e+002, 6.231258e+003
6.237684e+002, 6.226593e+003
6.242505e+002, 6.225154e+003
6.247327e+002, 6.221048e+003
6.252148e+002, 6.213193e+003
6.256969e+002, 6.201987e+003
6.261790e+002, 6.180384e+003
6.266611e+002, 6.145764e+003
6.271432e+002, 6.107949e+003
6.276254e+002, 6.075346e+003
6.281075e+002, 6.047321e+003
6.285896e+002, 6.016747e+003
6.290717e+002, 5.983341e+003
6.295538e+002, 5.947440e+003
6.300359e+002, 5.906966e+003
6.305181e+002, 5.864915e+003
6.310002e+002, 5.826652e+003
6.314823e+002, 5.794476e+003
6.319644e+002, 5.765686e+003
6.324465e+002, 5.737521e+003
6.329286e+002, 5.711427e+003
6.334108e+002, 5.690609e+003
6.338929e+002, 5.682339e+003
6.343750e+002, 5.672613e+003
6.348571e+002, 5.654709e+003
6.353392e+002, 5.630030e+003
6.358214e+002, 5.610557e+003
6.363035e+002, 5.596217e+003
6.367856e+002, 5.586553e+003
6.372677e+002, 5.582476e+003
6.377498e+002, 5.583866e+003
6.382319e+002, 5.582528e+003
6.387141e+002, 5.577845e+003
6.391962e+002, 5.573122e+003
6.396783e+002, 5.570842e+003
6.401604e+002, 5.570789e+003
6.406425e+002, 5.572495e+003
6.411246e+002, 5.576214e+003
6.416068e+002, 5.580635e+003
6.420889e+002, 5.585749e+003
6.425710e+002, 5.590675e+003
6.430531e+002, 5.594026e+003
6.435352e+002, 5.595414e+003
6.440173e+002, 5.595608e+003
6.444995e+002, 5.594151e+003
6.449816e+002, 5.591933e+003
6.454637e+002, 5.590430e+003
6.459458e+002, 5.590251e+003
6.464279e+002, 5.590188e+003
6.469100e+002, 5.590172e+003
6.473922e+002, 5.589912e+003
6.478743e+002, 5.588521e+003
6.483564e+002, 5.585664e+003
6.488385e+002, 5.582059e+003
6.493206e+002, 5.577699e+003
6.498027e+002, 5.572694e+003
6.502849e+002, 5.568834e+003
6.507670e+002, 5.566087e+003
6.512491e+002, 5.561732e+003
6.517312e+002, 5.551619e+003
6.522133e+002, 5.539715e+003
6.526954e+002, 5.532077e+003
6.531776e+002, 5.529691e+003
6.536597e+002, 5.528043e+003
6.541418e+002, 5.523661e+003
6.546239e+002, 5.519240e+003
6.551060e+002, 5.517218e+003
6.555881e+002, 5.518867e+003
6.560703e+002, 5.521395e+003
6.565524e+002, 5.525159e+003
6.570345e+002, 5.529118e+003
6.575166e+002, 5.531813e+003
6.579987e+002, 5.532241e+003
6.584808e+002, 5.534043e+003
6.589630e+002, 5.538758e+003
6.594451e+002, 5.543880e+003
6.599272e+002, 5.542263e+003
6.604093e+002, 5.534255e+003
6.608914e+002, 5.529655e+003
6.613735e+002, 5.535530e+003
6.618557e+002, 5.544651e+003
6.623378e+002, 5.543218e+003
6.628199e+002, 5.533906e+003
6.633020e+002, 5.527977e+003
6.637841e+002, 5.532644e+003
6.642662e+002, 5.542597e+003
6.647484e+002, 5.556303e+003
6.652305e+002, 5.573487e+003
6.657126e+002, 5.587319e+003
6.661947e+002, 5.593414e+003
6.666768e+002, 5.597833e+003
6.671589e+002, 5.603508e+003
6.676411e+002, 5.610268e+003
6.681232e+002, 5.617995e+003
6.686053e+002, 5.625984e+003
6.690874e+002, 5.635524e+003
6.695695e+002, 5.648259e+003
6.700516e+002, 5.663939e+003
6.705338e+002, 5.679508e+003
6.710159e+002, 5.694834e+003
6.714980e+002, 5.708480e+003
6.719801e+002, 5.717462e+003
6.724622e+002, 5.723397e+003
6.729443e+002, 5.729734e+003
6.734265e+002, 5.737608e+003
6.739086e+002, 5.746502e+003
6.743907e+002, 5.757832e+003
6.748728e+002, 5.770130e+003
6.753549e+002, 5.780300e+003
6.758370e+002, 5.784133e+003
6.763192e+002, 5.790294e+003
6.768013e+002, 5.801710e+003
6.772834e+002, 5.817511e+003
6.777655e+002, 5.834637e+003
6.782476e+002, 5.854210e+003
6.787297e+002, 5.872281e+003
6.792119e+002, 5.885760e+003
6.796940e+002, 5.896163e+003
6.801761e+002, 5.912884e+003
6.806582e+002, 5.935882e+003
6.811403e+002, 5.960775e+003
6.816224e+002, 5.983556e+003
6.821046e+002, 6.006309e+003
6.825867e+002, 6.033150e+003
6.830688e+002, 6.064321e+003
6.835509e+002, 6.094339e+003
6.840330e+002, 6.119611e+003
6.845151e+002, 6.142431e+003
6.849973e+002, 6.165172e+003
6.854794e+002, 6.189058e+003
6.859615e+002, 6.210834e+003
6.864436e+002, 6.227392e+003
6.869257e+002, 6.243722e+003
6.874078e+002, 6.264183e+003
6.878900e+002, 6.291214e+003
6.883721e+002, 6.316667e+003
6.888542e+002, 6.340192e+003
6.893363e+002, 6.361472e+003
6.898184e+002, 6.378672e+003
6.903005e+002, 6.392201e+003
6.907827e+002, 6.405251e+003
6.912648e+002, 6.417550e+003
6.917469e+002, 6.431725e+003
6.922290e+002, 6.450537e+003
6.927111e+002, 6.473695e+003
6.931932e+002, 6.500091e+003
6.936754e+002, 6.533362e+003
6.941575e+002, 6.565568e+003
6.946396e+002, 6.591524e+003
6.951217e+002, 6.612800e+003
6.956038e+002, 6.636131e+003
6.960859e+002, 6.665077e+003
6.965681e+002, 6.692511e+003
6.970502e+002, 6.715474e+003
6.975323e+002, 6.734791e+003
6.980144e+002, 6.759176e+003
6.984965e+002, 6.790032e+003
6.989786e+002, 6.820216e+003
6.994608e+002, 6.845703e+003
6.999429e+002, 6.867400e+003
7.004250e+002, 6.889148e+003
7.009071e+002, 6.910983e+003
7.013892e+002, 6.928375e+003
7.018713e+002, 6.938813e+003
7.023535e+002, 6.942539e+003
7.028356e+002, 6.939698e+003
7.033177e+002, 6.930210e+003
7.037998e+002, 6.914514e+003
7.042819e+002, 6.889270e+003
7.047640e+002, 6.859923e+003
7.052462e+002, 6.830548e+003
7.057283e+002, 6.802897e+003
7.062104e+002, 6.771988e+003
7.066925e+002, 6.736744e+003
7.071746e+002, 6.699166e+003
7.076567e+002, 6.659670e+003
7.081389e+002, 6.618044e+003
7.086210e+002, 6.583127e+003
7.091031e+002, 6.557106e+003
7.095852e+002, 6.534290e+003
7.100673e+002, 6.506080e+003
7.105494e+002, 6.475128e+003
7.110316e+002, 6.446913e+003
7.115137e+002, 6.422151e+003
7.119958e+002, 6.403161e+003
7.124779e+002, 6.394588e+003
7.129600e+002, 6.392376e+003
7.134421e+002, 6.388946e+003
7.139243e+002, 6.378485e+003
7.144064e+002, 6.371531e+003
7.148885e+002, 6.370646e+003
7.153706e+002, 6.374884e+003
7.158527e+002, 6.381892e+003
7.163348e+002, 6.392769e+003
7.168170e+002, 6.402281e+003
7.172991e+002, 6.406640e+003
7.177812e+002, 6.409146e+003
7.182633e+002, 6.422089e+003
7.187454e+002, 6.444613e+003
7.192275e+002, 6.466431e+003
7.197097e+002, 6.479733e+003
7.201918e+002, 6.490616e+003
7.206739e+002, 6.504951e+003
7.211560e+002, 6.522849e+003
7.216381e+002, 6.544866e+003
7.221202e+002, 6.573978e+003
7.226024e+002, 6.604800e+003
7.230845e+002, 6.635114e+003
7.235666e+002, 6.665052e+003
7.240487e+002, 6.691598e+003
7.245308e+002, 6.710569e+003
7.250129e+002, 6.733359e+003
7.254951e+002, 6.769098e+003
7.259772e+002, 6.818801e+003
7.264593e+002, 6.862022e+003
7.269414e+002, 6.898171e+003
7.274235e+002, 6.931912e+003
7.279056e+002, 6.966691e+003
7.283878e+002, 7.002367e+003
7.288699e+002, 7.037405e+003
7.293520e+002, 7.071138e+003
7.298341e+002, 7.109749e+003
7.303162e+002, 7.163175e+003
7.307983e+002, 7.220259e+003
7.312805e+002, 7.270310e+003
7.317626e+002, 7.302668e+003
7.322447e+002, 7.343663e+003
7.327268e+002, 7.400073e+003
7.332089e+002, 7.461225e+003
7.336910e+002, 7.514531e+003
7.341732e+002, 7.557544e+003
7.346553e+002, 7.605594e+003
7.351374e+002, 7.661367e+003
7.356195e+002, 7.719323e+003
7.361016e+002, 7.770386e+003
7.365837e+002, 7.816143e+003
7.370659e+002, 7.862991e+003
7.375480e+002, 7.915513e+003
7.380301e+002, 7.964562e+003
7.385122e+002, 8.000398e+003
7.389943e+002, 8.027204e+003
7.394764e+002, 8.051876e+003
7.399586e+002, 8.079409e+003
7.404407e+002, 8.101903e+003
7.409228e+002, 8.118492e+003
7.414049e+002, 8.128794e+003
7.418870e+002, 8.130917e+003
7.423691e+002, 8.124151e+003
7.428513e+002, 8.112120e+003
7.433334e+002, 8.096139e+003
7.438155e+002, 8.075486e+003
7.442976e+002, 8.048392e+003
7.447797e+002, 8.014737e+003
7.452618e+002, 7.974372e+003
7.457440e+002, 7.921205e+003
7.462261e+002, 7.865321e+003
7.467082e+002, 7.815252e+003
7.471903e+002, 7.771165e+003
7.476724e+002, 7.732087e+003
7.481545e+002, 7.698067e+003
7.486367e+002, 7.668462e+003
7.491188e+002, 7.643707e+003
7.496009e+002, 7.623233e+003
7.500830e+002, 7.603397e+003
7.505651e+002, 7.583169e+003
7.510472e+002, 7.565129e+003
7.515294e+002, 7.552010e+003
7.520115e+002, 7.542411e+003
7.524936e+002, 7.525495e+003
7.529757e+002, 7.501295e+003
7.534578e+002, 7.480103e+003
7.539399e+002, 7.471917e+003
7.544221e+002, 7.470009e+003
7.549042e+002, 7.468312e+003
7.553863e+002, 7.465978e+003
7.558684e+002, 7.456402e+003
7.563505e+002, 7.424884e+003
7.568326e+002, 7.394027e+003
7.573148e+002, 7.379245e+003
7.577969e+002, 7.385000e+003
7.582790e+002, 7.386368e+003
7.587611e+002, 7.382785e+003
7.592432e+002, 7.375409e+003
7.597253e+002, 7.364302e+003
7.602075e+002, 7.349328e+003
7.606896e+002, 7.334450e+003
7.611717e+002, 7.319702e+003
7.616538e+002, 7.303087e+003
7.621359e+002, 7.280568e+003
7.626180e+002, 7.255665e+003
7.631002e+002, 7.235116e+003
7.635823e+002, 7.220337e+003
7.640644e+002, 7.204695e+003
7.645465e+002, 7.184684e+003
7.650286e+002, 7.162265e+003
7.655107e+002, 7.139136e+003
7.659929e+002, 7.115254e+003
7.664750e+002, 7.090979e+003
7.669571e+002, 7.065638e+003
7.674392e+002, 7.040476e+003
7.679213e+002, 7.015479e+003
7.684034e+002, 6.990530e+003
7.688856e+002, 6.972623e+003
7.693677e+002, 6.963731e+003
7.698498e+002, 6.954169e+003
7.703319e+002, 6.931141e+003
7.708140e+002, 6.900733e+003
7.712961e+002, 6.873760e+003
7.717783e+002, 6.853208e+003
7.722604e+002, 6.833612e+003
7.727425e+002, 6.812480e+003
7.732246e+002, 6.790708e+003
7.737067e+002, 6.768919e+003
7.741888e+002, 6.745315e+003
7.746710e+002, 6.725219e+003
7.751531e+002, 6.710928e+003
7.756352e+002, 6.697577e+003
7.761173e+002, 6.676927e+003
7.765994e+002, 6.649133e+003
7.770815e+002, 6.630655e+003
7.775637e+002, 6.625669e+003
7.780458e+002, 6.623568e+003
7.785279e+002, 6.610573e+003
7.790100e+002, 6.591573e+003
7.794921e+002, 6.575360e+003
7.799742e+002, 6.565361e+003
7.804564e+002, 6.556888e+003
7.809385e+002, 6.547915e+003
7.814206e+002, 6.539028e+003
7.819027e+002, 6.531041e+003
7.823848e+002, 6.523949e+003
7.828669e+002, 6.517983e+003
7.833491e+002, 6.514583e+003
7.838312e+002, 6.510421e+003
7.843133e+002, 6.498892e+003
7.847954e+002, 6.480466e+003
7.852775e+002, 6.463520e+003
7.857596e+002, 6.449628e+003
7.862418e+002, 6.439156e+003
7.867239e+002, 6.434583e+003
7.872060e+002, 6.433522e+003
7.876881e+002, 6.431542e+003
7.881702e+002, 6.427124e+003
7.886523e+002, 6.421813e+003
7.891345e+002, 6.415721e+003
7.896166e+002, 6.409366e+003
7.900987e+002, 6.403057e+003
7.905808e+002, 6.394629e+003
7.910629e+002, 6.391616e+003
7.915450e+002, 6.395929e+003
7.920272e+002, 6.405228e+003
7.925093e+002, 6.417167e+003
7.929914e+002, 6.431056e+003
7.934735e+002, 6.440159e+003
7.939556e+002, 6.442989e+003
7.944377e+002, 6.439427e+003
7.949199e+002, 6.422339e+003
7.954020e+002, 6.399803e+003
7.958841e+002, 6.387028e+003
7.963662e+002, 6.397953e+003
7.968483e+002, 6.408388e+003
7.973304e+002, 6.410943e+003
7.978126e+002, 6.409258e+003
7.982947e+002, 6.409587e+003
7.987768e+002, 6.412655e+003
7.992589e+002, 6.415424e+003
7.997410e+002, 6.418172e+003
8.002231e+002, 6.419040e+003
8.007053e+002, 6.411872e+003
8.011874e+002, 6.399265e+003
8.016695e+002, 6.391866e+003
8.021516e+002, 6.395636e+003
8.026337e+002, 6.402725e+003
8.031158e+002, 6.407667e+003
8.035980e+002, 6.411227e+003
8.040801e+002, 6.414737e+003
8.045622e+002, 6.416480e+003
8.050443e+002, 6.421290e+003
8.055264e+002, 6.432029e+003
8.060085e+002, 6.445108e+003
8.064907e+002, 6.452567e+003
8.069728e+002, 6.452581e+003
8.074549e+002, 6.458415e+003
8.079370e+002, 6.474013e+003
8.084191e+002, 6.494231e+003
8.089012e+002, 6.511993e+003
8.093834e+002, 6.527417e+003
8.098655e+002, 6.540907e+003
8.103476e+002, 6.550886e+003
8.108297e+002, 6.561264e+003
8.113118e+002, 6.574562e+003
8.117939e+002, 6.589588e+003
8.122761e+002, 6.604323e+003
8.127582e+002, 6.619059e+003
8.132403e+002, 6.632754e+003
8.137224e+002, 6.645280e+003
8.142045e+002, 6.656916e+003
8.146866e+002, 6.667530e+003
8.151688e+002, 6.677086e+003
8.156509e+002, 6.689419e+003
8.161330e+002, 6.706897e+003
8.166151e+002, 6.724124e+003
8.170972e+002, 6.733100e+003
8.175793e+002, 6.737009e+003
8.180615e+002, 6.741958e+003
8.185436e+002, 6.751130e+003
8.190257e+002, 6.760026e+003
8.195078e+002, 6.768138e+003
8.199899e+002, 6.774475e+003
8.204720e+002, 6.777553e+003
8.209542e+002, 6.776276e+003
8.214363e+002, 6.774066e+003
8.219184e+002, 6.770722e+003
8.224005e+002, 6.767508e+003
8.228826e+002, 6.767966e+003
8.233647e+002, 6.770717e+003
8.238469e+002, 6.769212e+003
8.243290e+002, 6.760650e+003
8.248111e+002, 6.750963e+003
8.252932e+002, 6.745984e+003
8.257753e+002, 6.742836e+003
8.262574e+002, 6.737716e+003
8.267396e+002, 6.728921e+003
8.272217e+002, 6.719276e+003
8.277038e+002, 6.707642e+003
8.281859e+002, 6.696619e+003
8.286681e+002, 6.689552e+003
8.291502e+002, 6.686998e+003
8.296323e+002, 6.683586e+003
8.301144e+002, 6.678062e+003
8.305966e+002, 6.673207e+003
8.310787e+002, 6.672134e+003
8.315608e+002, 6.673967e+003
8.320429e+002, 6.677809e+003
8.325250e+002, 6.684619e+003
8.330071e+002, 6.688767e+003
8.334893e+002, 6.686887e+003
8.339714e+002, 6.680980e+003
8.344535e+002, 6.672641e+003
8.349356e+002, 6.658241e+003
8.354177e+002, 6.649836e+003
8.358998e+002, 6.648405e+003
8.363820e+002, 6.651770e+003
8.368641e+002, 6.661910e+003
8.373462e+002, 6.676612e+003
8.378283e+002, 6.677495e+003
8.383104e+002, 6.661109e+003
8.387925e+002, 6.645574e+003
8.392747e+002, 6.652087e+003
8.397568e+002, 6.665141e+003
8.402389e+002, 6.666372e+003
8.407210e+002, 6.648447e+003
8.412031e+002, 6.633569e+003
8.416852e+002, 6.629349e+003
8.421674e+002, 6.626368e+003
8.426495e+002, 6.618612e+003
8.431316e+002, 6.605171e+003
8.436137e+002, 6.591395e+003
8.440958e+002, 6.576927e+003
8.445779e+002, 6.562763e+003
8.450601e+002, 6.552252e+003
8.455422e+002, 6.541919e+003
8.460243e+002, 6.523116e+003
8.465064e+002, 6.495117e+003
8.469885e+002, 6.470241e+003
8.474706e+002, 6.459967e+003
8.479528e+002, 6.451174e+003
8.484349e+002, 6.433103e+003
8.489170e+002, 6.403174e+003
8.493991e+002, 6.386283e+003
8.498812e+002, 6.387799e+003
8.503633e+002, 6.389635e+003
8.508455e+002, 6.379478e+003
8.513276e+002, 6.359979e+003
8.518097e+002, 6.346562e+003
8.522918e+002, 6.338573e+003
8.527739e+002, 6.330393e+003
8.532560e+002, 6.314907e+003
8.537382e+002, 6.299793e+003
8.542203e+002, 6.292467e+003
8.547024e+002, 6.292413e+003
8.551845e+002, 6.290448e+003
8.556666e+002, 6.284749e+003
8.561487e+002, 6.276610e+003
8.566309e+002, 6.265240e+003
8.571130e+002, 6.251792e+003
8.575951e+002, 6.241643e+003
8.580772e+002, 6.234907e+003
8.585593e+002, 6.229679e+003
8.590414e+002, 6.225557e+003
8.595236e+002, 6.222145e+003
8.600057e+002, 6.219339e+003
8.604878e+002, 6.216923e+003
8.609699e+002, 6.213974e+003
8.614520e+002, 6.208341e+003
8.619341e+002, 6.204085e+003
8.624163e+002, 6.204392e+003
8.628984e+002, 6.206894e+003
8.633805e+002, 6.204994e+003
8.638626e+002, 6.196989e+003
8.643447e+002, 6.191042e+003
8.648268e+002, 6.190107e+003
8.653090e+002, 6.190651e+003
8.657911e+002, 6.184220e+003
8.662732e+002, 6.173574e+003
8.667553e+002, 6.167162e+003
8.672374e+002, 6.169063e+003
8.677195e+002, 6.174329e+003
8.682017e+002, 6.184185e+003
8.686838e+002, 6.194408e+003
8.691659e+002, 6.197343e+003
8.696480e+002, 6.187488e+003
8.701301e+002, 6.181233e+003
8.706122e+002, 6.181209e+003
8.710944e+002, 6.183412e+003
8.715765e+002, 6.181733e+003
8.720586e+002, 6.177061e+003
8.725407e+002, 6.174379e+003
8.730228e+002, 6.174895e+003
8.735049e+002, 6.176395e+003
8.739871e+002, 6.176935e+003
8.744692e+002, 6.177472e+003
8.749513e+002, 6.179368e+003
8.754334e+002, 6.184428e+003
8.759155e+002, 6.186822e+003
8.763976e+002, 6.183752e+003
8.768798e+002, 6.180778e+003
8.773619e+002, 6.182308e+003
8.778440e+002, 6.188448e+003
8.783261e+002, 6.196860e+003
8.788082e+002, 6.208004e+003
8.792903e+002, 6.214888e+003
8.797725e+002, 6.205346e+003
8.802546e+002, 6.191487e+003
8.807367e+002, 6.189750e+003
8.812188e+002, 6.201841e+003
8.817009e+002, 6.213473e+003
8.821830e+002, 6.219573e+003
8.826652e+002, 6.224187e+003
8.831473e+002, 6.229330e+003
8.836294e+002, 6.234958e+003
8.841115e+002, 6.238284e+003
8.845936e+002, 6.238792e+003
8.850757e+002, 6.240564e+003
8.855579e+002, 6.246555e+003
8.860400e+002, 6.255003e+003
8.865221e+002, 6.261628e+003
8.870042e+002, 6.267434e+003
8.874863e+002, 6.276997e+003
8.879684e+002, 6.299792e+003
8.884506e+002, 6.319187e+003
8.889327e+002, 6.325238e+003
8.894148e+002, 6.322041e+003
8.898969e+002, 6.323601e+003
8.903790e+002, 6.331767e+003
8.908611e+002, 6.337661e+003
8.913433e+002, 6.337499e+003
8.918254e+002, 6.336181e+003
8.923075e+002, 6.344083e+003
8.927896e+002, 6.358792e+003
8.932717e+002, 6.373140e+003
8.937538e+002, 6.387079e+003
8.942360e+002, 6.396481e+003
8.947181e+002, 6.394042e+003
8.952002e+002, 6.387459e+003
8.956823e+002, 6.388146e+003
8.961644e+002, 6.398781e+003
8.966465e+002, 6.412333e+003
8.971287e+002, 6.430187e+003
8.976108e+002, 6.447103e+003
8.980929e+002, 6.454801e+003
8.985750e+002, 6.455579e+003
8.990571e+002, 6.457332e+003
8.995392e+002, 6.460912e+003
9.000214e+002, 6.467920e+003
9.005035e+002, 6.481972e+003
9.009856e+002, 6.498322e+003
9.014677e+002, 6.513325e+003
9.019498e+002, 6.526185e+003
9.024319e+002, 6.536723e+003
9.029141e+002, 6.543448e+003
9.033962e+002, 6.550442e+003
9.038783e+002, 6.562011e+003
9.043604e+002, 6.576816e+003
9.048425e+002, 6.581920e+003
9.053246e+002, 6.578229e+003
9.058068e+002, 6.580281e+003
9.062889e+002, 6.605871e+003
9.067710e+002, 6.634616e+003
9.072531e+002, 6.650778e+003
9.077352e+002, 6.654785e+003
9.082173e+002, 6.656544e+003
9.086995e+002, 6.657146e+003
9.091816e+002, 6.656225e+003
9.096637e+002, 6.652110e+003
9.101458e+002, 6.647431e+003
9.106279e+002, 6.652788e+003
9.111100e+002, 6.666794e+003
9.115922e+002, 6.676108e+003
9.120743e+002, 6.671792e+003
9.125564e+002, 6.666580e+003
9.130385e+002, 6.676216e+003
9.135206e+002, 6.692558e+003
9.140027e+002, 6.701777e+003
9.144849e+002, 6.690491e+003
9.149670e+002, 6.685990e+003
9.154491e+002, 6.693491e+003
9.159312e+002, 6.704733e+003
9.164133e+002, 6.707672e+003
9.168954e+002, 6.702985e+003
9.173776e+002, 6.704445e+003
9.178597e+002, 6.714287e+003
9.183418e+002, 6.726206e+003
9.188239e+002, 6.735681e+003
9.193060e+002, 6.743175e+003
9.197881e+002, 6.748604e+003
9.202703e+002, 6.751206e+003
9.207524e+002, 6.755396e+003
9.212345e+002, 6.760249e+003
9.217166e+002, 6.768694e+003
9.221987e+002, 6.783606e+003
9.226808e+002, 6.804560e+003
9.231630e+002, 6.823362e+003
9.236451e+002, 6.840151e+003
9.241272e+002, 6.853781e+003
9.246093e+002, 6.860163e+003
9.250914e+002, 6.865741e+003
9.255735e+002, 6.876725e+003
9.260557e+002, 6.892706e+003
9.265378e+002, 6.911083e+003
9.270199e+002, 6.934224e+003
9.275020e+002, 6.955964e+003
9.279841e+002, 6.974585e+003
9.284662e+002, 6.991310e+003
9.289484e+002, 7.009667e+003
9.294305e+002, 7.029501e+003
9.299126e+002, 7.048287e+003
9.303947e+002, 7.064594e+003
9.308768e+002, 7.080280e+003
9.313589e+002, 7.096769e+003
9.318411e+002, 7.113844e+003
9.323232e+002, 7.131224e+003
9.328053e+002, 7.153173e+003
9.332874e+002, 7.167509e+003
9.337695e+002, 7.169194e+003
9.342516e+002, 7.168429e+003
9.347338e+002, 7.175544e+003
9.352159e+002, 7.190360e+003
9.356980e+002, 7.204222e+003
9.361801e+002, 7.216849e+003
9.366622e+002, 7.225330e+003
9.371443e+002, 7.222966e+003
9.376265e+002, 7.218077e+003
9.381086e+002, 7.220289e+003
9.385907e+002, 7.230535e+003
9.390728e+002, 7.235734e+003
9.395549e+002, 7.230338e+003
9.400370e+002, 7.224493e+003
9.405192e+002, 7.222548e+003
9.410013e+002, 7.222905e+003
9.414834e+002, 7.218848e+003
9.419655e+002, 7.210402e+003
9.424476e+002, 7.198451e+003
9.429297e+002, 7.182095e+003
9.434119e+002, 7.163979e+003
9.438940e+002, 7.145681e+003
9.443761e+002, 7.127584e+003
9.448582e+002, 7.110423e+003
9.453403e+002, 7.097097e+003
9.458224e+002, 7.080208e+003
9.463046e+002, 7.055974e+003
9.467867e+002, 7.032440e+003
9.472688e+002, 7.023137e+003
9.477509e+002, 7.025735e+003
9.482330e+002, 7.027698e+003
9.487151e+002, 7.027448e+003
9.491973e+002, 7.023101e+003
9.496794e+002, 7.009716e+003
9.501615e+002, 6.993590e+003
9.506436e+002, 6.980345e+003
9.511257e+002, 6.971411e+003
9.516078e+002, 6.962178e+003
9.520900e+002, 6.951790e+003
9.525721e+002, 6.942619e+003
9.530542e+002, 6.935787e+003
9.535363e+002, 6.931349e+003
9.540184e+002, 6.931772e+003
9.545005e+002, 6.935855e+003
9.549827e+002, 6.935726e+003
9.554648e+002, 6.921202e+003
9.559469e+002, 6.906893e+003
9.564290e+002, 6.902565e+003
9.569111e+002, 6.905624e+003
9.573932e+002, 6.907364e+003
9.578754e+002, 6.907207e+003
9.583575e+002, 6.906073e+003
9.588396e+002, 6.903567e+003
9.593217e+002, 6.901060e+003
9.598038e+002, 6.899789e+003
9.602859e+002, 6.900273e+003
9.607681e+002, 6.904685e+003
9.612502e+002, 6.914452e+003
9.617323e+002, 6.924070e+003
9.622144e+002, 6.934187e+003
9.626965e+002, 6.940073e+003
9.631786e+002, 6.935979e+003
9.636608e+002, 6.919107e+003
9.641429e+002, 6.910824e+003
9.646250e+002, 6.912644e+003
9.651071e+002, 6.916824e+003
9.655892e+002, 6.917927e+003
9.660714e+002, 6.917767e+003
9.665535e+002, 6.921015e+003
9.670356e+002, 6.926706e+003
9.675177e+002, 6.929732e+003
9.679998e+002, 6.925340e+003
9.684819e+002, 6.920497e+003
9.689641e+002, 6.918350e+003
9.694462e+002, 6.917413e+003
9.699283e+002, 6.913068e+003
9.704104e+002, 6.904653e+003
9.708925e+002, 6.900958e+003
9.713746e+002, 6.905481e+003
9.718568e+002, 6.910990e+003
9.723389e+002, 6.907099e+003
9.728210e+002, 6.898795e+003
9.733031e+002, 6.893507e+003
9.737852e+002, 6.893229e+003
9.742673e+002, 6.895426e+003
9.747495e+002, 6.903516e+003
9.752316e+002, 6.909594e+003
9.757137e+002, 6.906146e+003
9.761958e+002, 6.893133e+003
9.766779e+002, 6.891550e+003
9.771600e+002, 6.901261e+003
9.776422e+002, 6.909545e+003
9.781243e+002, 6.905384e+003
9.786064e+002, 6.897748e+003
9.790885e+002, 6.894653e+003
9.795706e+002, 6.895374e+003
9.800527e+002, 6.895190e+003
9.805349e+002, 6.892209e+003
9.810170e+002, 6.890557e+003
9.814991e+002, 6.891628e+003
9.819812e+002, 6.893829e+003
9.824633e+002, 6.892612e+003
9.829454e+002, 6.889504e+003
9.834276e+002, 6.891505e+003
9.839097e+002, 6.902190e+003
9.843918e+002, 6.912187e+003
9.848739e+002, 6.913195e+003
9.853560e+002, 6.911693e+003
9.858381e+002, 6.913819e+003
9.863203e+002, 6.919936e+003
9.868024e+002, 6.930090e+003
9.872845e+002, 6.946017e+003
9.877666e+002, 6.960053e+003
9.882487e+002, 6.964032e+003
9.887308e+002, 6.963102e+003
9.892130e+002, 6.969478e+003
9.896951e+002, 6.982129e+003
9.901772e+002, 6.995366e+003
9.906593e+002, 7.006098e+003
9.911414e+002, 7.017283e+003
9.916235e+002, 7.028040e+003
9.921057e+002, 7.040601e+003
9.925878e+002, 7.062635e+003
9.930699e+002, 7.095745e+003
9.935520e+002, 7.120509e+003
9.940341e+002, 7.132236e+003
9.945162e+002, 7.138096e+003
9.949984e+002, 7.142224e+003
9.954805e+002, 7.147552e+003
9.959626e+002, 7.158689e+003
9.964447e+002, 7.178033e+003
9.969268e+002, 7.196901e+003
9.974089e+002, 7.213815e+003
9.978911e+002, 7.230059e+003
9.983732e+002, 7.247268e+003
9.988553e+002, 7.264652e+003
9.993374e+002, 7.275976e+003
9.998195e+002, 7.281749e+003
1.000302e+003, 7.287189e+003
1.000784e+003, 7.293194e+003
1.001266e+003, 7.302165e+003
1.001748e+003, 7.319845e+003
1.002230e+003, 7.341627e+003
1.002712e+003, 7.354579e+003
1.003194e+003, 7.353309e+003
1.003676e+003, 7.355793e+003
1.004159e+003, 7.364934e+003
1.004641e+003, 7.376790e+003
1.005123e+003, 7.385978e+003
1.005605e+003, 7.393874e+003
1.006087e+003, 7.405123e+003
1.006569e+003, 7.421255e+003
1.007051e+003, 7.432964e+003
1.007533e+003, 7.432411e+003
1.008016e+003, 7.429365e+003
1.008498e+003, 7.429226e+003
1.008980e+003, 7.431872e+003
1.009462e+003, 7.435724e+003
1.009944e+003, 7.440968e+003
1.010426e+003, 7.444784e+003
1.010908e+003, 7.445689e+003
1.011390e+003, 7.444696e+003
1.011872e+003, 7.442456e+003
1.012355e+003, 7.439380e+003
1.012837e+003, 7.436255e+003
1.013319e+003, 7.428712e+003
1.013801e+003, 7.428770e+003
1.014283e+003, 7.441342e+003
1.014765e+003, 7.455921e+003
1.015247e+003, 7.460889e+003
1.015729e+003, 7.457609e+003
1.016211e+003, 7.451603e+003
1.016694e+003, 7.443384e+003
1.017176e+003, 7.438505e+003
1.017658e+003, 7.442949e+003
1.018140e+003, 7.450237e+003
1.018622e+003, 7.456728e+003
1.019104e+003, 7.462152e+003
1.019586e+003, 7.466076e+003
1.020068e+003, 7.467823e+003
1.020551e+003, 7.470854e+003
1.021033e+003, 7.476673e+003
1.021515e+003, 7.483540e+003
1.021997e+003, 7.487526e+003
1.022479e+003, 7.490621e+003
1.022961e+003, 7.497164e+003
1.023443e+003, 7.511790e+003
1.023925e+003, 7.522253e+003
1.024407e+003, 7.521234e+003
1.024890e+003, 7.519296e+003
1.025372e+003, 7.525694e+003
1.025854e+003, 7.540327e+003
1.026336e+003, 7.545554e+003
1.026818e+003, 7.541513e+003
1.027300e+003, 7.536138e+003
1.027782e+003, 7.537642e+003
1.028264e+003, 7.537505e+003
1.028746e+003, 7.526353e+003
1.029229e+003, 7.507400e+003
1.029711e+003, 7.493896e+003
1.030193e+003, 7.489243e+003
1.030675e+003, 7.483181e+003
1.031157e+003, 7.473893e+003
1.031639e+003, 7.462759e+003
1.032121e+003, 7.452245e+003
1.032603e+003, 7.441062e+003
1.033086e+003, 7.425587e+003
1.033568e+003, 7.404173e+003
1.034050e+003, 7.385210e+003
1.034532e+003, 7.377135e+003
1.035014e+003, 7.368054e+003
1.035496e+003, 7.351306e+003
1.035978e+003, 7.327603e+003
1.036460e+003, 7.301788e+003
1.036943e+003, 7.274340e+003
1.037425e+003, 7.250551e+003
1.037907e+003, 7.235339e+003
1.038389e+003, 7.222453e+003
1.038871e+003, 7.204535e+003
1.039353e+003, 7.185318e+003
1.039835e+003, 7.171821e+003
1.040317e+003, 7.169254e+003
1.040799e+003, 7.164769e+003
1.041281e+003, 7.157146e+003
1.041764e+003, 7.149588e+003
1.042246e+003, 7.145341e+003
1.042728e+003, 7.143532e+003
1.043210e+003, 7.142705e+003
1.043692e+003, 7.142543e+003
1.044174e+003, 7.141081e+003
1.044656e+003, 7.133200e+003
1.045138e+003, 7.128467e+003
1.045621e+003, 7.133818e+003
1.046103e+003, 7.144272e+003
1.046585e+003, 7.143557e+003
1.047067e+003, 7.131385e+003
1.047549e+003, 7.129319e+003
1.048031e+003, 7.144795e+003
1.048513e+003, 7.164838e+003
1.048995e+003, 7.180553e+003
1.049478e+003, 7.191081e+003
1.049960e+003, 7.193949e+003
1.050442e+003, 7.185236e+003
1.050924e+003, 7.183557e+003
1.051406e+003, 7.191690e+003
1.051888e+003, 7.200703e+003
1.052370e+003, 7.205271e+003
1.052852e+003, 7.207211e+003
1.053334e+003, 7.209659e+003
1.053817e+003, 7.213415e+003
1.054299e+003, 7.221345e+003
1.054781e+003, 7.234681e+003
1.055263e+003, 7.252252e+003
1.055745e+003, 7.275985e+003
1.056227e+003, 7.301966e+003
1.056709e+003, 7.326867e+003
1.057191e+003, 7.350689e+003
1.057673e+003, 7.367972e+003
1.058156e+003, 7.377919e+003
1.058638e+003, 7.391460e+003
1.059120e+003, 7.420620e+003
1.059602e+003, 7.454985e+003
1.060084e+003, 7.486133e+003
1.060566e+003, 7.514229e+003
1.061048e+003, 7.544098e+003
1.061530e+003, 7.575958e+003
1.062013e+003, 7.610037e+003
1.062495e+003, 7.646137e+003
1.062977e+003, 7.685458e+003
1.063459e+003, 7.729198e+003
1.063941e+003, 7.778330e+003
1.064423e+003, 7.835750e+003
1.064905e+003, 7.902753e+003
1.065387e+003, 7.975738e+003
1.065870e+003, 8.048680e+003
1.066352e+003, 8.132719e+003
1.066834e+003, 8.243108e+003
1.067316e+003, 8.371967e+003
1.067798e+003, 8.471708e+003
1.068280e+003, 8.541571e+003
1.068762e+003, 8.573574e+003
1.069244e+003, 8.559818e+003
1.069726e+003, 8.511354e+003
1.070208e+003, 8.417896e+003
1.070691e+003, 8.300735e+003
1.071173e+003, 8.194785e+003
1.071655e+003, 8.097541e+003
1.072137e+003, 8.022550e+003
1.072619e+003, 7.971564e+003
1.073101e+003, 7.933749e+003
1.073583e+003, 7.904836e+003
1.074065e+003, 7.879449e+003
1.074548e+003, 7.850287e+003
1.075030e+003, 7.817569e+003
1.075512e+003, 7.784380e+003
1.075994e+003, 7.753512e+003
1.076476e+003, 7.719190e+003
1.076958e+003, 7.679085e+003
1.077440e+003, 7.636815e+003
1.077922e+003, 7.597691e+003
1.078405e+003, 7.562063e+003
1.078887e+003, 7.532599e+003
1.079369e+003, 7.510870e+003
1.079851e+003, 7.486859e+003
1.080333e+003, 7.452771e+003
1.080815e+003, 7.416628e+003
1.081297e+003, 7.383354e+003
1.081779e+003, 7.352885e+003
1.082261e+003, 7.326539e+003
1.082744e+003, 7.304052e+003
1.083226e+003, 7.282255e+003
1.083708e+003, 7.260720e+003
1.084190e+003, 7.237563e+003
1.084672e+003, 7.207609e+003
1.085154e+003, 7.176141e+003
1.085636e+003, 7.151473e+003
1.086118e+003, 7.137466e+003
1.086601e+003, 7.122413e+003
1.087083e+003, 7.105880e+003
1.087565e+003, 7.089974e+003
1.088047e+003, 7.077016e+003
1.088529e+003, 7.065623e+003
1.089011e+003, 7.053956e+003
1.089493e+003, 7.041698e+003
1.089975e+003, 7.027280e+003
1.090458e+003, 7.006274e+003
1.090940e+003, 6.988966e+003
1.091422e+003, 6.979081e+003
1.091904e+003, 6.971492e+003
1.092386e+003, 6.957522e+003
1.092868e+003, 6.939127e+003
1.093350e+003, 6.925169e+003
1.093832e+003, 6.916784e+003
1.094314e+003, 6.910599e+003
1.094797e+003, 6.907479e+003
1.095279e+003, 6.902907e+003
1.095761e+003, 6.891464e+003
1.096243e+003, 6.876315e+003
1.096725e+003, 6.871646e+003
1.097207e+003, 6.877667e+003
1.097689e+003, 6.882329e+003
1.098171e+003, 6.882390e+003
1.098653e+003, 6.878759e+003
1.099136e+003, 6.869616e+003
1.099618e+003, 6.858814e+003
1.100100e+003, 6.851118e+003
1.100582e+003, 6.848384e+003
1.101064e+003, 6.841970e+003
1.101546e+003, 6.830792e+003
1.102028e+003, 6.819476e+003
1.102510e+003, 6.810653e+003
1.102993e+003, 6.802925e+003
1.103475e+003, 6.793423e+003
1.103957e+003, 6.783050e+003
1.104439e+003, 6.773917e+003
1.104921e+003, 6.765764e+003
1.105403e+003, 6.761249e+003
1.105885e+003, 6.763333e+003
1.106367e+003, 6.764736e+003
1.106849e+003, 6.757159e+003
1.107332e+003, 6.743155e+003
1.107814e+003, 6.732497e+003
1.108296e+003, 6.725302e+003
1.108778e+003, 6.719708e+003
1.109260e+003, 6.714854e+003
1.109742e+003, 6.711410e+003
1.110224e+003, 6.710255e+003
1.110706e+003, 6.710435e+003
1.111188e+003, 6.711339e+003
1.111671e+003, 6.712880e+003
1.112153e+003, 6.708690e+003
1.112635e+003, 6.697209e+003
1.113117e+003, 6.688572e+003
1.113599e+003, 6.692431e+003
1.114081e+003, 6.701412e+003
1.114563e+003, 6.711593e+003
1.115045e+003, 6.721991e+003
1.115528e+003, 6.726854e+003
1.116010e+003, 6.724980e+003
1.116492e+003, 6.724562e+003
1.116974e+003, 6.728212e+003
1.117456e+003, 6.733071e+003
1.117938e+003, 6.733674e+003
1.118420e+003, 6.733989e+003
1.118902e+003, 6.739950e+003
1.119385e+003, 6.754435e+003
1.119867e+003, 6.766175e+003
1.120349e+003, 6.775918e+003
1.120831e+003, 6.779048e+003
1.121313e+003, 6.770306e+003
1.121795e+003, 6.755701e+003
1.122277e+003, 6.745563e+003
1.122759e+003, 6.740244e+003
1.123241e+003, 6.740931e+003
1.123724e+003, 6.757110e+003
1.124206e+003, 6.764342e+003
1.124688e+003, 6.756452e+003
1.125170e+003, 6.744082e+003
1.125652e+003, 6.734951e+003
1.126134e+003, 6.729013e+003
1.126616e+003, 6.726785e+003
1.127098e+003, 6.727664e+003
1.127580e+003, 6.727294e+003
1.128063e+003, 6.721488e+003
1.128545e+003, 6.716268e+003
1.129027e+003, 6.715103e+003
1.129509e+003, 6.715237e+003
1.129991e+003, 6.711462e+003
1.130473e+003, 6.703967e+003
1.130955e+003, 6.705944e+003
1.131437e+003, 6.718624e+003
1.131920e+003, 6.730384e+003
1.132402e+003, 6.731032e+003
1.132884e+003, 6.728973e+003
1.133366e+003, 6.729279e+003
1.133848e+003, 6.731725e+003
1.134330e+003, 6.735273e+003
1.134812e+003, 6.740198e+003
1.135294e+003, 6.743596e+003
1.135776e+003, 6.744706e+003
1.136259e+003, 6.744854e+003
1.136741e+003, 6.745388e+003
1.137223e+003, 6.745698e+003
1.137705e+003, 6.744937e+003
1.138187e+003, 6.742964e+003
1.138669e+003, 6.741054e+003
1.139151e+003, 6.737790e+003
1.139633e+003, 6.740930e+003
1.140115e+003, 6.756860e+003
1.140598e+003, 6.773044e+003
1.141080e+003, 6.767533e+003
1.141562e+003, 6.750987e+003
1.142044e+003, 6.740067e+003
1.142526e+003, 6.740003e+003
1.143008e+003, 6.740630e+003
1.143490e+003, 6.741958e+003
1.143972e+003, 6.742079e+003
1.144455e+003, 6.739307e+003
1.144937e+003, 6.735197e+003
1.145419e+003, 6.733476e+003
1.145901e+003, 6.733409e+003
1.146383e+003, 6.732850e+003
1.146865e+003, 6.726615e+003
1.147347e+003, 6.728345e+003
1.147829e+003, 6.748313e+003
1.148312e+003, 6.764317e+003
1.148794e+003, 6.752455e+003
1.149276e+003, 6.720796e+003
1.149758e+003, 6.709483e+003
1.150240e+003, 6.716354e+003
1.150722e+003, 6.728346e+003
1.151204e+003, 6.746490e+003
1.151686e+003, 6.759020e+003
1.152168e+003, 6.759298e+003
1.152651e+003, 6.754698e+003
1.153133e+003, 6.753648e+003
1.153615e+003, 6.755653e+003
1.154097e+003, 6.754892e+003
1.154579e+003, 6.751130e+003
1.155061e+003, 6.748098e+003
1.155543e+003, 6.749277e+003
1.156025e+003, 6.750656e+003
1.156507e+003, 6.748245e+003
1.156990e+003, 6.745099e+003
1.157472e+003, 6.747567e+003
1.157954e+003, 6.755679e+003
1.158436e+003, 6.765012e+003
1.158918e+003, 6.775209e+003
1.159400e+003, 6.783584e+003
1.159882e+003, 6.789246e+003
1.160364e+003, 6.791140e+003
1.160847e+003, 6.786010e+003
1.161329e+003, 6.775899e+003
1.161811e+003, 6.771106e+003
1.162293e+003, 6.772228e+003
1.162775e+003, 6.772376e+003
1.163257e+003, 6.769759e+003
1.163739e+003, 6.766263e+003
1.164221e+003, 6.762792e+003
1.164703e+003, 6.760110e+003
1.165186e+003, 6.759319e+003
1.165668e+003, 6.760654e+003
1.166150e+003, 6.761657e+003
1.166632e+003, 6.762323e+003
1.167114e+003, 6.763220e+003
1.167596e+003, 6.764632e+003
1.168078e+003, 6.766394e+003
1.168560e+003, 6.766827e+003
1.169042e+003, 6.768213e+003
1.169525e+003, 6.775113e+003
1.170007e+003, 6.791994e+003
1.170489e+003, 6.796382e+003
1.170971e+003, 6.783732e+003
1.171453e+003, 6.775360e+003
1.171935e+003, 6.784819e+003
1.172417e+003, 6.801686e+003
1.172899e+003, 6.810229e+003
1.173382e+003, 6.813869e+003
1.173864e+003, 6.818791e+003
1.174346e+003, 6.827884e+003
1.174828e+003, 6.834825e+003
1.175310e+003, 6.838765e+003
1.175792e+003, 6.842353e+003
1.176274e+003, 6.849543e+003
1.176756e+003, 6.856552e+003
1.177239e+003, 6.854476e+003
1.177721e+003, 6.846434e+003
1.178203e+003, 6.840525e+003
1.178685e+003, 6.843526e+003
1.179167e+003, 6.842296e+003
1.179649e+003, 6.834211e+003
1.180131e+003, 6.826436e+003
1.180613e+003, 6.827165e+003
1.181095e+003, 6.832646e+003
1.181578e+003, 6.834632e+003
1.182060e+003, 6.833440e+003
1.182542e+003, 6.831193e+003
1.183024e+003, 6.826117e+003
1.183506e+003, 6.824025e+003
1.183988e+003, 6.826329e+003
1.184470e+003, 6.830612e+003
1.184952e+003, 6.834706e+003
1.185434e+003, 6.838327e+003
1.185917e+003, 6.839726e+003
1.186399e+003, 6.839271e+003
1.186881e+003, 6.841507e+003
1.187363e+003, 6.848792e+003
1.187845e+003, 6.858642e+003
1.188327e+003, 6.872071e+003
1.188809e+003, 6.885027e+003
1.189291e+003, 6.891448e+003
1.189774e+003, 6.892354e+003
1.190256e+003, 6.889810e+003
1.190738e+003, 6.884126e+003
1.191220e+003, 6.880555e+003
1.191702e+003, 6.884369e+003
1.192184e+003, 6.886668e+003
1.192666e+003, 6.883371e+003
1.193148e+003, 6.878669e+003
1.193630e+003, 6.882487e+003
1.194113e+003, 6.892155e+003
1.194595e+003, 6.898783e+003
1.195077e+003, 6.900859e+003
1.195559e+003, 6.900331e+003
1.196041e+003, 6.895782e+003
1.196523e+003, 6.891442e+003
1.197005e+003, 6.888073e+003
1.197487e+003, 6.886668e+003
1.197969e+003, 6.892066e+003
1.198452e+003, 6.901869e+003
1.198934e+003, 6.907202e+003
1.199416e+003, 6.905198e+003
1.199898e+003, 6.901866e+003
1.200380e+003, 6.897824e+003
1.200862e+003, 6.895181e+003
1.201344e+003, 6.894944e+003
1.201826e+003, 6.896733e+003
1.202309e+003, 6.899690e+003
1.202791e+003, 6.903661e+003
1.203273e+003, 6.908674e+003
1.203755e+003, 6.916716e+003
1.204237e+003, 6.919941e+003
1.204719e+003, 6.910834e+003
1.205201e+003, 6.899977e+003
1.205683e+003, 6.893268e+003
1.206166e+003, 6.889847e+003
1.206648e+003, 6.882682e+003
1.207130e+003, 6.873966e+003
1.207612e+003, 6.873272e+003
1.208094e+003, 6.888341e+003
1.208576e+003, 6.902641e+003
1.209058e+003, 6.910226e+003
1.209540e+003, 6.913177e+003
1.210022e+003, 6.911026e+003
1.210505e+003, 6.905012e+003
1.210987e+003, 6.903533e+003
1.211469e+003, 6.905852e+003
1.211951e+003, 6.908559e+003
1.212433e+003, 6.907219e+003
1.212915e+003, 6.910883e+003
1.213397e+003, 6.931721e+003
1.213879e+003, 6.950014e+003
1.214361e+003, 6.947581e+003
1.214844e+003, 6.928405e+003
1.215326e+003, 6.922521e+003
1.215808e+003, 6.927878e+003
1.216290e+003, 6.933999e+003
1.216772e+003, 6.933466e+003
1.217254e+003, 6.936078e+003
1.217736e+003, 6.948248e+003
1.218218e+003, 6.960866e+003
1.218701e+003, 6.965886e+003
1.219183e+003, 6.964304e+003
1.219665e+003, 6.962788e+003
1.220147e+003, 6.961375e+003
1.220629e+003, 6.959667e+003
1.221111e+003, 6.955599e+003
1.221593e+003, 6.954111e+003
1.222075e+003, 6.959487e+003
1.222557e+003, 6.964673e+003
1.223040e+003, 6.961718e+003
1.223522e+003, 6.952315e+003
1.224004e+003, 6.943503e+003
1.224486e+003, 6.935845e+003
1.224968e+003, 6.931016e+003
1.225450e+003, 6.928876e+003
1.225932e+003, 6.931716e+003
1.226414e+003, 6.942924e+003
1.226896e+003, 6.954660e+003
1.227379e+003, 6.957178e+003
1.227861e+003, 6.952571e+003
1.228343e+003, 6.945814e+003
1.228825e+003, 6.938386e+003
1.229307e+003, 6.937874e+003
1.229789e+003, 6.957702e+003
1.230271e+003, 6.970726e+003
1.230753e+003, 6.968970e+003
1.231236e+003, 6.961693e+003
1.231718e+003, 6.960932e+003
1.232200e+003, 6.964198e+003
1.232682e+003, 6.963978e+003
1.233164e+003, 6.960430e+003
1.233646e+003, 6.958780e+003
1.234128e+003, 6.964501e+003
1.234610e+003, 6.967473e+003
1.235093e+003, 6.964312e+003
1.235575e+003, 6.960490e+003
1.236057e+003, 6.963357e+003
1.236539e+003, 6.971130e+003
1.237021e+003, 6.981591e+003
1.237503e+003, 6.993794e+003
1.237985e+003, 7.002203e+003
1.238467e+003, 7.002366e+003
1.238949e+003, 7.002150e+003
1.239432e+003, 7.003005e+003
1.239914e+003, 7.003384e+003
1.240396e+003, 6.997795e+003
1.240878e+003, 6.991600e+003
1.241360e+003, 6.998292e+003
1.241842e+003, 7.017538e+003
1.242324e+003, 7.026832e+003
1.242806e+003, 7.012496e+003
1.243288e+003, 7.008966e+003
1.243771e+003, 7.025948e+003
1.244253e+003, 7.047076e+003
1.244735e+003, 7.049760e+003
1.245217e+003, 7.043250e+003
1.245699e+003, 7.041655e+003
1.246181e+003, 7.045930e+003
1.246663e+003, 7.046938e+003
1.247145e+003, 7.041887e+003
1.247628e+003, 7.039209e+003
1.248110e+003, 7.040570e+003
1.248592e+003, 7.045331e+003
1.249074e+003, 7.057900e+003
1.249556e+003, 7.070030e+003
1.250038e+003, 7.070187e+003
1.250520e+003, 7.058056e+003
1.251002e+003, 7.049360e+003
1.251484e+003, 7.044658e+003
1.251967e+003, 7.044313e+003
1.252449e+003, 7.049596e+003
1.252931e+003, 7.054563e+003
1.253413e+003, 7.050581e+003
1.253895e+003, 7.044556e+003
1.254377e+003, 7.042974e+003
1.254859e+003, 7.046380e+003
1.255341e+003, 7.053677e+003
1.255823e+003, 7.065736e+003
1.256306e+003, 7.072791e+003
1.256788e+003, 7.071456e+003
1.257270e+003, 7.070004e+003
1.257752e+003, 7.079002e+003
1.258234e+003, 7.088900e+003
1.258716e+003, 7.089989e+003
1.259198e+003, 7.084199e+003
1.259680e+003, 7.082444e+003
1.260163e+003, 7.084763e+003
1.260645e+003, 7.082215e+003
1.261127e+003, 7.071938e+003
1.261609e+003, 7.062045e+003
1.262091e+003, 7.058799e+003
1.262573e+003, 7.058313e+003
1.263055e+003, 7.058898e+003
1.263537e+003, 7.059795e+003
1.264020e+003, 7.056743e+003
1.264502e+003, 7.050858e+003
1.264984e+003, 7.051813e+003
1.265466e+003, 7.062916e+003
1.265948e+003, 7.072790e+003
1.266430e+003, 7.074984e+003
1.266912e+003, 7.073413e+003
1.267394e+003, 7.068745e+003
1.267876e+003, 7.063065e+003
1.268359e+003, 7.062799e+003
1.268841e+003, 7.066466e+003
1.269323e+003, 7.068370e+003
1.269805e+003, 7.066883e+003
1.270287e+003, 7.066880e+003
1.270769e+003, 7.074616e+003
1.271251e+003, 7.078275e+003
1.271733e+003, 7.071581e+003
1.272215e+003, 7.061499e+003
1.272698e+003, 7.065688e+003
1.273180e+003, 7.077850e+003
1.273662e+003, 7.083284e+003
1.274144e+003, 7.078761e+003
1.274626e+003, 7.074320e+003
1.275108e+003, 7.070798e+003
1.275590e+003, 7.070394e+003
1.276072e+003, 7.074729e+003
1.276555e+003, 7.080844e+003
1.277037e+003, 7.083693e+003
1.277519e+003, 7.084931e+003
1.278001e+003, 7.087719e+003
1.278483e+003, 7.092638e+003
1.278965e+003, 7.093036e+003
1.279447e+003, 7.086124e+003
1.279929e+003, 7.083718e+003
1.280411e+003, 7.090315e+003
1.280894e+003, 7.099809e+003
1.281376e+003, 7.106242e+003
1.281858e+003, 7.110341e+003
1.282340e+003, 7.111792e+003
1.282822e+003, 7.110935e+003
1.283304e+003, 7.116055e+003
1.283786e+003, 7.128409e+003
1.284268e+003, 7.132157e+003
1.284750e+003, 7.120975e+003
1.285233e+003, 7.109284e+003
1.285715e+003, 7.112442e+003
1.286197e+003, 7.119318e+003
1.286679e+003, 7.121044e+003
1.287161e+003, 7.118569e+003
1.287643e+003, 7.115419e+003
1.288125e+003, 7.111943e+003
1.288607e+003, 7.112583e+003
1.289090e+003, 7.119263e+003
1.289572e+003, 7.124706e+003
1.290054e+003, 7.122563e+003
1.290536e+003, 7.120004e+003
1.291018e+003, 7.120858e+003
1.291500e+003, 7.124001e+003
1.291982e+003, 7.126495e+003
1.292464e+003, 7.128570e+003
1.292947e+003, 7.131010e+003
1.293429e+003, 7.133853e+003
1.293911e+003, 7.137642e+003
1.294393e+003, 7.141799e+003
1.294875e+003, 7.148084e+003
1.295357e+003, 7.157669e+003
1.295839e+003, 7.167889e+003
1.296321e+003, 7.174083e+003
1.296803e+003, 7.178522e+003
1.297286e+003, 7.185334e+003
1.297768e+003, 7.195146e+003
1.298250e+003, 7.203778e+003
1.298732e+003, 7.213016e+003
1.299214e+003, 7.214007e+003
1.299696e+003, 7.202374e+003
1.300178e+003, 7.189252e+003
1.300660e+003, 7.187626e+003
##END=



