##NAMES=Zwieselite
##RRUFFID=R050279
##IDEAL CHEMISTRY=Fe^2+^_2_PO_4_F
##LOCALITY=Cornelia mine, Hagendorf, Bavaria, Germany
##OWNER=RRUFF
##SOURCE=Marcus Origlieri
##DESCRIPTION=Brown massive associated with bluish-gray triphylite R050366
##STATUS=The identification of this mineral has been confirmed by X-ray diffraction and chemical analysis
##URL=rruff.info/R050279
##MEASURED CHEMISTRY=(Fe^2+^_1.08_Mn^2+^_0.86_Ca_0.06_)_Î£=2_(P_1.00_O_4_)F_1.00_
135.9318, 384.8419
136.4139, 387.5833
136.8960, 390.6876
137.3782, 393.5489
137.8603, 396.2392
138.3424, 398.4491
138.8245, 399.8650
139.3066, 400.4068
139.7887, 401.0096
140.2709, 401.8185
140.7530, 402.7188
141.2351, 403.2780
141.7172, 403.4011
142.1993, 403.4082
142.6814, 403.4681
143.1636, 403.5079
143.6457, 403.7753
144.1278, 404.3405
144.6099, 405.1613
145.0920, 405.9167
145.5741, 406.4203
146.0563, 407.0400
146.5384, 408.0543
147.0205, 409.6231
147.5026, 411.3300
147.9847, 413.4026
148.4668, 415.8973
148.9490, 417.3087
149.4311, 416.7263
149.9132, 415.6304
150.3953, 415.3942
150.8774, 416.8334
151.3595, 418.2422
151.8417, 419.4126
152.3238, 420.3815
152.8059, 420.9702
153.2880, 420.9411
153.7701, 420.6259
154.2522, 420.3787
154.7344, 420.3023
155.2165, 420.2227
155.6986, 420.1471
156.1807, 420.1454
156.6628, 419.8510
157.1449, 418.6152
157.6271, 417.1854
158.1092, 416.5688
158.5913, 418.5389
159.0734, 420.1041
159.5555, 419.7288
160.0376, 416.3403
160.5198, 413.7015
161.0019, 413.5667
161.4840, 414.8547
161.9661, 415.7033
162.4482, 414.9972
162.9303, 414.0131
163.4125, 413.5259
163.8946, 413.9224
164.3767, 414.2244
164.8588, 413.6725
165.3409, 412.6710
165.8230, 412.1705
166.3052, 413.0016
166.7873, 414.2718
167.2694, 415.2807
167.7515, 415.7377
168.2336, 416.1607
168.7157, 417.0553
169.1978, 418.2210
169.6800, 419.0449
170.1621, 418.8441
170.6442, 418.2640
171.1263, 417.9906
171.6084, 418.3576
172.0905, 418.8356
172.5727, 418.9385
173.0548, 418.7404
173.5369, 418.6014
174.0190, 419.1404
174.5011, 419.7859
174.9832, 419.7066
175.4654, 418.4083
175.9475, 416.6021
176.4296, 414.7076
176.9117, 412.7901
177.3938, 411.4667
177.8759, 411.8028
178.3581, 413.0111
178.8402, 413.5721
179.3223, 412.7292
179.8044, 411.2540
180.2865, 410.2516
180.7686, 409.7095
181.2508, 409.1735
181.7329, 408.0978
182.2150, 406.7020
182.6971, 405.6226
183.1792, 405.3806
183.6613, 405.4236
184.1435, 404.5526
184.6256, 402.7331
185.1077, 400.7640
185.5898, 399.2779
186.0719, 398.2628
186.5540, 397.5772
187.0362, 397.4300
187.5183, 397.5258
188.0004, 396.9483
188.4825, 395.6266
188.9646, 394.2233
189.4467, 393.5942
189.9289, 393.6314
190.4110, 393.4118
190.8931, 392.3779
191.3752, 390.8292
191.8573, 390.1195
192.3394, 390.3892
192.8216, 390.7830
193.3037, 390.0441
193.7858, 388.2147
194.2679, 386.8510
194.7500, 386.8489
195.2321, 387.8994
195.7143, 387.9165
196.1964, 386.7221
196.6785, 385.0452
197.1606, 383.7125
197.6427, 382.7105
198.1248, 381.9996
198.6070, 381.6883
199.0891, 381.7339
199.5712, 381.4744
200.0533, 380.8651
200.5354, 380.0626
201.0175, 379.1671
201.4997, 378.1107
201.9818, 377.4295
202.4639, 377.4903
202.9460, 378.2978
203.4281, 378.6111
203.9102, 378.3357
204.3924, 377.7496
204.8745, 377.2017
205.3566, 376.6783
205.8387, 376.2673
206.3208, 376.0065
206.8029, 375.8970
207.2851, 375.8893
207.7672, 375.9626
208.2493, 376.1681
208.7314, 376.6480
209.2135, 377.5077
209.6956, 378.2868
210.1778, 378.8621
210.6599, 379.2535
211.1420, 379.2330
211.6241, 378.6436
212.1062, 377.8231
212.5883, 377.3145
213.0705, 377.2140
213.5526, 377.1446
214.0347, 376.9134
214.5168, 376.4375
214.9989, 376.3989
215.4810, 377.0128
215.9632, 377.8503
216.4453, 378.1581
216.9274, 377.6961
217.4095, 377.2797
217.8916, 377.2326
218.3737, 377.6494
218.8559, 377.8769
219.3380, 377.9128
219.8201, 377.7619
220.3022, 377.3861
220.7843, 376.6599
221.2664, 375.9965
221.7486, 375.5807
222.2307, 375.5132
222.7128, 375.1760
223.1949, 374.3968
223.6770, 373.4968
224.1591, 373.0435
224.6413, 373.3506
225.1234, 373.4927
225.6055, 373.0944
226.0876, 371.9717
226.5697, 371.2879
227.0518, 371.3028
227.5340, 371.5551
228.0161, 371.2532
228.4982, 369.8095
228.9803, 368.8775
229.4624, 369.1126
229.9445, 370.8511
230.4267, 371.9981
230.9088, 372.3098
231.3909, 372.2306
231.8730, 372.3936
232.3551, 372.9323
232.8372, 373.4798
233.3194, 373.9404
233.8015, 374.3116
234.2836, 374.6385
234.7657, 374.9395
235.2478, 375.1854
235.7299, 375.2951
236.2121, 375.0240
236.6942, 375.0512
237.1763, 375.6253
237.6584, 376.8414
238.1405, 377.9435
238.6226, 379.0067
239.1048, 379.8745
239.5869, 380.2797
240.0690, 379.8022
240.5511, 379.6218
241.0332, 380.1738
241.5153, 381.6034
241.9975, 382.4072
242.4796, 382.1803
242.9617, 381.6754
243.4438, 381.7302
243.9259, 382.5191
244.4080, 383.5746
244.8902, 384.9907
245.3723, 386.8390
245.8544, 387.9006
246.3365, 387.8266
246.8186, 387.3021
247.3007, 386.9799
247.7829, 386.8884
248.2650, 386.9489
248.7471, 387.1894
249.2292, 387.6160
249.7113, 387.9644
250.1934, 388.1718
250.6756, 388.3681
251.1577, 388.6899
251.6398, 389.2371
252.1219, 389.7064
252.6040, 390.0987
253.0861, 390.4009
253.5683, 390.3611
254.0504, 389.8237
254.5325, 389.1305
255.0146, 388.5109
255.4967, 387.8413
255.9788, 387.5572
256.4609, 387.9380
256.9431, 388.8465
257.4252, 389.0978
257.9073, 388.4313
258.3894, 387.4761
258.8715, 386.6334
259.3536, 385.8309
259.8358, 385.3144
260.3179, 385.1252
260.8000, 385.2439
261.2821, 385.6488
261.7642, 386.6462
262.2463, 387.4167
262.7285, 387.3241
263.2106, 385.9859
263.6927, 385.0246
264.1748, 384.6687
264.6569, 384.7665
265.1390, 384.7648
265.6212, 384.6327
266.1033, 384.4693
266.5854, 384.3148
267.0675, 384.1590
267.5496, 384.0699
268.0317, 384.0806
268.5139, 384.1420
268.9960, 384.0289
269.4781, 383.5428
269.9602, 383.4111
270.4423, 384.1786
270.9244, 386.1202
271.4066, 387.5205
271.8887, 388.2517
272.3708, 388.5182
272.8529, 388.6743
273.3350, 388.6976
273.8171, 388.6837
274.2993, 388.6682
274.7814, 388.6506
275.2635, 388.6020
275.7456, 388.4727
276.2277, 388.3847
276.7098, 388.6406
277.1920, 389.3442
277.6741, 389.7968
278.1562, 389.5990
278.6383, 388.7526
279.1204, 388.4065
279.6025, 388.7413
280.0847, 389.1424
280.5668, 388.6583
281.0489, 387.1938
281.5310, 385.9390
282.0131, 385.3399
282.4952, 385.3120
282.9774, 385.2175
283.4595, 385.0589
283.9416, 384.8388
284.4237, 384.5599
284.9058, 384.2240
285.3879, 383.8199
285.8701, 383.2975
286.3522, 382.7175
286.8343, 382.4097
287.3164, 382.4307
287.7985, 382.2866
288.2806, 381.3779
288.7628, 379.7870
289.2449, 378.3046
289.7270, 376.9001
290.2091, 375.8708
290.6912, 376.3765
291.1733, 378.4327
291.6555, 380.2931
292.1376, 380.3490
292.6197, 378.9869
293.1018, 378.0101
293.5839, 377.7796
294.0660, 377.9526
294.5482, 377.9255
295.0303, 377.7303
295.5124, 377.6932
295.9945, 378.2231
296.4766, 379.0843
296.9587, 379.5941
297.4409, 379.6602
297.9230, 379.4500
298.4051, 379.0489
298.8872, 378.5160
299.3693, 378.0967
299.8514, 377.9633
300.3336, 378.0238
300.8157, 378.1328
301.2978, 378.2812
301.7799, 378.4414
302.2620, 378.5267
302.7441, 378.5863
303.2263, 378.7548
303.7084, 379.0958
304.1905, 379.5678
304.6726, 380.2733
305.1547, 381.2138
305.6368, 381.8875
306.1190, 381.4908
306.6011, 380.5742
307.0832, 380.1184
307.5653, 380.8191
308.0474, 381.8865
308.5295, 382.8447
309.0117, 383.6583
309.4938, 383.8860
309.9759, 382.7197
310.4580, 380.9874
310.9401, 379.7066
311.4222, 379.2707
311.9044, 379.2027
312.3865, 379.3432
312.8686, 379.6295
313.3507, 379.8361
313.8328, 379.6581
314.3149, 379.4427
314.7971, 379.5203
315.2792, 380.1182
315.7613, 380.6509
316.2434, 380.8076
316.7255, 380.6802
317.2076, 380.4732
317.6898, 380.2624
318.1719, 379.9981
318.6540, 379.6128
319.1361, 379.0431
319.6182, 378.5878
320.1003, 378.8671
320.5825, 379.2001
321.0646, 378.6503
321.5467, 375.4694
322.0288, 372.7073
322.5109, 371.7107
322.9930, 372.7691
323.4752, 373.6874
323.9573, 373.9564
324.4394, 373.9266
324.9215, 373.9136
325.4036, 374.2852
325.8857, 374.3353
326.3679, 373.7757
326.8500, 372.6339
327.3321, 371.6459
327.8142, 370.6327
328.2963, 369.9349
328.7784, 369.7598
329.2606, 371.1572
329.7427, 371.7842
330.2248, 371.0177
330.7069, 369.3185
331.1890, 368.5273
331.6711, 369.5116
332.1533, 370.4688
332.6354, 370.6359
333.1175, 369.6573
333.5996, 368.6237
334.0817, 367.1765
334.5638, 365.8287
335.0460, 365.7102
335.5281, 367.7576
336.0102, 369.2808
336.4923, 369.1897
336.9744, 367.1578
337.4565, 366.0790
337.9387, 366.3934
338.4208, 367.0577
338.9029, 366.6115
339.3850, 364.5789
339.8671, 363.3227
340.3492, 363.7099
340.8313, 365.4446
341.3134, 365.9973
341.7956, 365.0894
342.2777, 363.9219
342.7598, 363.5495
343.2419, 364.0182
343.7240, 364.3831
344.2061, 364.4994
344.6883, 364.4350
345.1704, 364.3069
345.6525, 364.1089
346.1346, 363.9613
346.6167, 364.0046
347.0988, 364.1890
347.5810, 364.1622
348.0631, 363.8231
348.5452, 363.4696
349.0273, 363.7445
349.5094, 364.5049
349.9915, 364.8750
350.4737, 364.0556
350.9558, 362.5884
351.4379, 361.6033
351.9200, 361.1000
352.4021, 361.1720
352.8842, 362.5366
353.3664, 364.5539
353.8485, 365.7547
354.3306, 365.3843
354.8127, 364.1607
355.2948, 362.5242
355.7769, 360.5927
356.2591, 359.1968
356.7412, 359.3597
357.2233, 360.1982
357.7054, 360.6721
358.1875, 360.3956
358.6696, 359.9768
359.1518, 359.9124
359.6339, 360.0472
360.1160, 359.9998
360.5981, 359.1919
361.0802, 358.4081
361.5623, 358.2882
362.0445, 359.0784
362.5266, 359.7325
363.0087, 359.5797
363.4908, 359.0943
363.9729, 358.8804
364.4550, 359.2381
364.9372, 359.7710
365.4193, 360.4569
365.9014, 361.2946
366.3835, 361.8881
366.8656, 362.1174
367.3477, 362.0943
367.8299, 361.9078
368.3120, 361.1295
368.7941, 360.6958
369.2762, 360.9089
369.7583, 361.6074
370.2404, 362.0484
370.7226, 361.8344
371.2047, 361.7504
371.6868, 362.2191
372.1689, 363.8994
372.6510, 364.5875
373.1331, 363.8312
373.6153, 362.3468
374.0974, 361.2465
374.5795, 360.4801
375.0616, 360.2413
375.5437, 360.7403
376.0258, 361.9934
376.5080, 362.9268
376.9901, 363.4183
377.4722, 363.8180
377.9543, 364.5513
378.4364, 365.6976
378.9185, 366.5735
379.4007, 367.0401
379.8828, 367.1453
380.3649, 366.9175
380.8470, 366.3182
381.3291, 365.7304
381.8112, 365.1886
382.2934, 364.7797
382.7755, 365.4065
383.2576, 367.4037
383.7397, 369.6523
384.2218, 370.4438
384.7039, 369.9986
385.1861, 369.4839
385.6682, 369.3920
386.1503, 369.6057
386.6324, 369.8717
387.1145, 370.1830
387.5966, 370.7055
388.0788, 371.8909
388.5609, 373.3427
389.0430, 374.3330
389.5251, 374.4024
390.0072, 374.2396
390.4893, 374.4598
390.9715, 374.9836
391.4536, 375.5330
391.9357, 375.8447
392.4178, 376.1761
392.8999, 376.7998
393.3820, 377.8917
393.8642, 378.8746
394.3463, 379.4711
394.8284, 379.7910
395.3105, 379.9960
395.7926, 379.7506
396.2747, 379.7660
396.7569, 380.3065
397.2390, 381.3931
397.7211, 382.8678
398.2032, 385.0333
398.6853, 387.3917
399.1674, 389.5513
399.6496, 391.5174
400.1317, 393.2445
400.6138, 394.4791
401.0959, 395.4290
401.5780, 396.8396
402.0602, 398.9838
402.5423, 401.2627
403.0244, 403.3857
403.5065, 405.2210
403.9886, 407.4081
404.4707, 410.0764
404.9529, 412.9702
405.4350, 415.7384
405.9171, 418.3446
406.3992, 420.9691
406.8813, 423.6576
407.3634, 426.4041
407.8456, 429.3741
408.3277, 432.6217
408.8098, 435.8925
409.2919, 438.5978
409.7740, 440.8424
410.2561, 444.4576
410.7383, 450.1182
411.2204, 456.4423
411.7025, 461.0987
412.1846, 464.2790
412.6667, 467.5961
413.1488, 471.9437
413.6310, 476.9919
414.1131, 482.1242
414.5952, 487.3079
415.0773, 492.4341
415.5594, 497.5001
416.0415, 502.4514
416.5237, 507.2949
417.0058, 511.8684
417.4879, 516.4310
417.9700, 521.3314
418.4521, 526.4359
418.9342, 531.2925
419.4164, 535.5511
419.8985, 539.5364
420.3806, 543.4645
420.8627, 547.4890
421.3448, 551.1668
421.8269, 554.4049
422.3091, 557.1991
422.7912, 559.5699
423.2733, 561.0363
423.7554, 562.5529
424.2375, 564.7897
424.7196, 567.7642
425.2018, 569.5430
425.6839, 569.5775
426.1660, 568.6268
426.6481, 567.1564
427.1302, 565.9432
427.6123, 563.0186
428.0945, 557.9820
428.5766, 551.3009
429.0587, 543.8581
429.5408, 535.2645
430.0229, 526.7781
430.5050, 518.9830
430.9872, 511.9806
431.4693, 504.4127
431.9514, 495.9087
432.4335, 487.5271
432.9156, 480.4979
433.3977, 474.8464
433.8799, 469.0148
434.3620, 462.4113
434.8441, 455.7458
435.3262, 450.7463
435.8083, 447.3598
436.2904, 444.5585
436.7726, 442.0509
437.2547, 439.6234
437.7368, 436.5979
438.2189, 432.8210
438.7010, 429.2117
439.1831, 426.9239
439.6652, 425.3950
440.1473, 423.5172
440.6295, 420.1404
441.1116, 416.8817
441.5937, 415.3588
442.0758, 415.2617
442.5579, 415.0410
443.0400, 413.4127
443.5222, 411.6580
444.0043, 410.8941
444.4864, 411.9289
444.9685, 412.3575
445.4506, 410.6721
445.9327, 408.1071
446.4149, 406.4315
446.8970, 406.5024
447.3791, 406.9841
447.8612, 407.7536
448.3433, 408.8112
448.8254, 409.4265
449.3076, 409.2311
449.7897, 408.9312
450.2718, 408.9997
450.7539, 409.8605
451.2360, 410.0757
451.7181, 409.2850
452.2003, 408.0556
452.6824, 407.6077
453.1645, 408.1465
453.6466, 408.6494
454.1287, 408.7527
454.6108, 408.4901
455.0930, 408.1902
455.5751, 407.8609
456.0572, 407.4090
456.5393, 406.8301
457.0214, 406.0789
457.5035, 404.8557
457.9857, 402.9061
458.4678, 400.8755
458.9499, 399.9637
459.4320, 399.8531
459.9141, 399.3579
460.3962, 397.2897
460.8784, 394.8046
461.3605, 393.4343
461.8426, 393.2277
462.3247, 392.9680
462.8068, 391.7361
463.2889, 390.0838
463.7711, 388.6107
464.2532, 387.6459
464.7353, 386.6532
465.2174, 385.1831
465.6995, 383.5302
466.1816, 382.3696
466.6638, 382.2164
467.1459, 382.2975
467.6280, 382.5246
468.1101, 383.0869
468.5922, 382.7515
469.0743, 380.7602
469.5565, 378.4033
470.0386, 376.7346
470.5207, 375.9329
471.0028, 375.5124
471.4849, 375.5475
471.9670, 375.8933
472.4492, 376.2751
472.9313, 376.8817
473.4134, 376.8596
473.8955, 375.4700
474.3776, 372.8107
474.8597, 371.1800
475.3419, 370.6503
475.8240, 370.6903
476.3061, 371.0396
476.7882, 371.5679
477.2703, 371.6263
477.7524, 370.9082
478.2346, 369.9195
478.7167, 369.2861
479.1988, 368.9648
479.6809, 368.7952
480.1630, 368.7763
480.6451, 368.8137
481.1273, 368.8686
481.6094, 368.9438
482.0915, 368.8464
482.5736, 368.2249
483.0557, 367.4876
483.5378, 367.0386
484.0200, 367.4620
484.5021, 367.5937
484.9842, 366.7629
485.4663, 365.3676
485.9484, 364.4957
486.4305, 364.5775
486.9127, 364.9431
487.3948, 365.4790
487.8769, 366.2427
488.3590, 366.7344
488.8411, 366.9406
489.3232, 366.8958
489.8054, 366.5602
490.2875, 365.7983
490.7696, 365.2911
491.2517, 365.2015
491.7338, 365.3381
492.2159, 365.2764
492.6981, 365.0141
493.1802, 364.6668
493.6623, 364.2172
494.1444, 363.7216
494.6265, 363.3969
495.1086, 363.2347
495.5908, 363.2753
496.0729, 363.7674
496.5550, 364.4520
497.0371, 364.7632
497.5192, 364.4743
498.0013, 364.0311
498.4835, 363.7459
498.9656, 363.5950
499.4477, 363.5424
499.9298, 363.5412
500.4119, 363.6555
500.8940, 364.0392
501.3762, 364.6796
501.8583, 365.0791
502.3404, 365.0771
502.8225, 364.8171
503.3046, 364.3510
503.7867, 363.1583
504.2689, 362.6575
504.7510, 363.5204
505.2331, 364.8183
505.7152, 365.0859
506.1973, 363.6600
506.6794, 362.5547
507.1616, 362.3534
507.6437, 362.8941
508.1258, 362.9408
508.6079, 362.3309
509.0900, 361.8592
509.5721, 362.3492
510.0543, 363.6460
510.5364, 363.8921
511.0185, 362.7781
511.5006, 361.4998
511.9827, 361.6432
512.4648, 362.8470
512.9470, 363.9694
513.4291, 364.5135
513.9112, 364.9330
514.3933, 365.9991
514.8754, 367.4526
515.3575, 368.3435
515.8397, 367.6376
516.3218, 366.5316
516.8039, 365.8341
517.2860, 365.6442
517.7681, 365.7638
518.2502, 366.4101
518.7324, 367.1812
519.2145, 367.7173
519.6966, 367.8760
520.1787, 367.8956
520.6608, 367.6858
521.1429, 367.3628
521.6251, 367.2220
522.1072, 367.3538
522.5893, 367.5066
523.0714, 367.6180
523.5535, 367.6907
524.0356, 367.6515
524.5178, 367.4444
524.9999, 367.3315
525.4820, 367.7073
525.9641, 368.4873
526.4462, 368.7737
526.9283, 368.3537
527.4105, 367.7443
527.8926, 367.5560
528.3747, 367.7467
528.8568, 368.1821
529.3389, 369.1918
529.8210, 370.1318
530.3032, 370.0365
530.7853, 369.1346
531.2674, 368.5798
531.7495, 369.5976
532.2316, 370.7923
532.7137, 370.9911
533.1959, 369.6924
533.6780, 368.8012
534.1601, 369.1014
534.6422, 369.9024
535.1243, 370.5007
535.6064, 370.8331
536.0886, 370.9597
536.5707, 370.8183
537.0528, 370.4842
537.5349, 370.1683
538.0170, 369.8334
538.4991, 369.6189
538.9813, 369.5500
539.4634, 369.6383
539.9455, 370.1512
540.4276, 371.1726
540.9097, 372.1566
541.3918, 372.5236
541.8740, 372.4067
542.3561, 372.3402
542.8382, 372.4265
543.3203, 372.4991
543.8024, 372.2352
544.2845, 371.8040
544.7667, 371.5969
545.2488, 371.8792
545.7309, 372.3618
546.2130, 372.9327
546.6951, 373.5603
547.1772, 374.0851
547.6594, 374.2912
548.1415, 374.4971
548.6236, 374.8254
549.1057, 375.2180
549.5878, 375.9986
550.0699, 377.6926
550.5521, 379.4697
551.0342, 380.5227
551.5163, 380.0366
551.9984, 380.7704
552.4805, 383.7351
552.9626, 387.5385
553.4448, 388.6033
553.9269, 386.5556
554.4090, 384.6902
554.8911, 384.3382
555.3732, 385.1419
555.8553, 385.8403
556.3375, 386.4303
556.8196, 387.2016
557.3017, 388.5014
557.7838, 390.0808
558.2659, 391.4393
558.7480, 392.4358
559.2302, 393.6708
559.7123, 396.0101
560.1944, 398.7268
560.6765, 400.8818
561.1586, 401.7983
561.6407, 402.5422
562.1229, 403.2933
562.6050, 404.1116
563.0871, 405.1909
563.5692, 406.9997
564.0513, 408.6163
564.5334, 409.6920
565.0156, 410.1871
565.4977, 411.1162
565.9798, 412.7510
566.4619, 414.3087
566.9440, 415.0724
567.4261, 414.9491
567.9083, 415.4403
568.3904, 416.7769
568.8725, 418.3356
569.3546, 419.3028
569.8367, 419.7656
570.3188, 420.1492
570.8010, 420.5645
571.2831, 420.9838
571.7652, 421.2118
572.2473, 421.3756
572.7294, 421.8910
573.2115, 423.7288
573.6937, 425.4152
574.1758, 425.6948
574.6579, 424.4603
575.1400, 423.5959
575.6221, 423.6938
576.1042, 424.3410
576.5864, 425.3197
577.0685, 427.0990
577.5506, 428.2702
578.0327, 428.3280
578.5148, 428.1565
578.9969, 428.9964
579.4791, 431.1357
579.9612, 433.3014
580.4433, 435.2523
580.9254, 437.0240
581.4075, 438.5282
581.8896, 439.7628
582.3718, 441.4757
582.8539, 444.4077
583.3360, 448.0078
583.8181, 450.9657
584.3002, 453.2789
584.7823, 455.7189
585.2645, 459.1051
585.7466, 462.7627
586.2287, 465.8644
586.7108, 467.8956
587.1929, 470.5945
587.6750, 475.6557
588.1571, 481.4217
588.6392, 486.0403
589.1213, 487.9510
589.6035, 490.2089
590.0856, 492.9905
590.5677, 496.3803
591.0498, 500.7236
591.5319, 506.4641
592.0140, 512.1573
592.4962, 517.1824
592.9783, 521.6595
593.4604, 526.5304
593.9425, 531.8499
594.4246, 536.9974
594.9067, 541.4510
595.3889, 545.3467
595.8710, 549.0326
596.3531, 552.5101
596.8352, 556.1806
597.3173, 560.8754
597.7994, 565.8810
598.2816, 570.0583
598.7637, 572.7564
599.2458, 575.1774
599.7279, 578.1603
600.2100, 581.2225
600.6921, 583.4692
601.1743, 583.8535
601.6564, 584.3510
602.1385, 585.4705
602.6206, 587.1499
603.1027, 588.8874
603.5848, 590.7724
604.0670, 592.5224
604.5491, 594.0319
605.0312, 595.2848
605.5133, 596.2114
605.9954, 596.7363
606.4775, 597.2405
606.9597, 598.5635
607.4418, 600.2050
607.9239, 600.3790
608.4060, 598.5731
608.8881, 596.0679
609.3702, 594.5703
609.8524, 593.2013
610.3345, 590.4974
610.8166, 584.9774
611.2987, 578.8926
611.7808, 573.5065
612.2629, 568.3923
612.7451, 562.2658
613.2272, 554.1714
613.7093, 545.6921
614.1914, 537.0103
614.6735, 528.1563
615.1556, 520.0885
615.6378, 513.1224
616.1199, 506.3037
616.6020, 498.8516
617.0841, 490.6676
617.5662, 483.5414
618.0483, 477.6054
618.5305, 472.3004
619.0126, 466.8908
619.4947, 461.6039
619.9768, 456.9793
620.4589, 453.3893
620.9410, 449.8860
621.4232, 445.1330
621.9053, 439.8976
622.3874, 435.5520
622.8695, 433.3553
623.3516, 431.4215
623.8337, 428.9977
624.3159, 426.1944
624.7980, 423.5737
625.2801, 420.9961
625.7622, 418.7891
626.2443, 417.1057
626.7264, 415.9513
627.2086, 414.9418
627.6907, 414.2113
628.1728, 413.2147
628.6549, 411.2893
629.1370, 408.5652
629.6191, 406.4723
630.1013, 405.1131
630.5834, 404.2244
631.0655, 403.7614
631.5476, 403.5185
632.0297, 403.0989
632.5118, 402.3535
632.9940, 401.5217
633.4761, 400.5658
633.9582, 399.6764
634.4403, 399.1828
634.9224, 399.7927
635.4045, 400.1571
635.8867, 399.8730
636.3688, 399.0215
636.8509, 397.9323
637.3330, 395.9708
637.8151, 394.8709
638.2972, 395.6933
638.7794, 398.2483
639.2615, 399.0209
639.7436, 397.7791
640.2257, 396.2553
640.7078, 395.7159
641.1899, 395.9070
641.6721, 395.9633
642.1542, 395.7950
642.6363, 395.8658
643.1184, 397.0841
643.6005, 398.5941
644.0826, 399.2222
644.5648, 398.3427
645.0469, 397.3405
645.5290, 396.6473
646.0111, 396.2157
646.4932, 395.9699
646.9753, 395.8682
647.4575, 396.0104
647.9396, 396.4638
648.4217, 397.1585
648.9038, 397.9407
649.3859, 398.9050
649.8680, 399.6243
650.3502, 399.9995
650.8323, 399.9915
651.3144, 399.2096
651.7965, 397.6916
652.2786, 396.4226
652.7607, 396.3316
653.2429, 396.7658
653.7250, 396.7379
654.2071, 396.1946
654.6892, 395.8177
655.1713, 396.0399
655.6534, 396.5677
656.1356, 397.2273
656.6177, 398.1764
657.0998, 398.8070
657.5819, 398.7547
658.0640, 398.5230
658.5461, 398.6142
659.0283, 399.2442
659.5104, 399.5092
659.9925, 399.1454
660.4746, 398.5898
660.9567, 398.7204
661.4388, 399.4879
661.9210, 400.1369
662.4031, 400.4185
662.8852, 400.4294
663.3673, 400.1596
663.8494, 399.7080
664.3315, 399.4097
664.8137, 399.5592
665.2958, 399.8193
665.7779, 399.9320
666.2600, 399.9291
666.7421, 400.1001
667.2242, 401.1604
667.7064, 401.8172
668.1885, 401.2748
668.6706, 399.2437
669.1527, 398.5645
669.6348, 399.8478
670.1169, 401.2953
670.5991, 401.4066
671.0812, 400.2600
671.5633, 399.6880
672.0454, 399.8797
672.5275, 400.1613
673.0096, 399.6483
673.4918, 398.7090
673.9739, 398.0637
674.4560, 397.9302
674.9381, 397.9781
675.4202, 397.8596
675.9023, 397.8128
676.3845, 398.1793
676.8666, 399.6198
677.3487, 400.8114
677.8308, 401.5267
678.3129, 401.8084
678.7950, 401.6784
679.2772, 401.0622
679.7593, 400.1883
680.2414, 398.9157
680.7235, 397.5150
681.2056, 397.1364
681.6877, 397.7637
682.1699, 398.3462
682.6520, 398.0997
683.1341, 397.5038
683.6162, 397.4883
684.0983, 397.9763
684.5804, 398.1374
685.0626, 396.8216
685.5447, 395.4721
686.0268, 395.3124
686.5089, 396.7660
686.9910, 397.6417
687.4731, 397.1278
687.9553, 396.2864
688.4374, 395.7350
688.9195, 395.5804
689.4016, 395.3912
689.8837, 395.1737
690.3658, 394.9170
690.8480, 394.5781
691.3301, 394.1797
691.8122, 393.9155
692.2943, 393.9101
692.7764, 393.7547
693.2585, 392.5130
693.7407, 390.8658
694.2228, 390.1039
694.7049, 391.5065
695.1870, 392.8270
695.6691, 392.9260
696.1512, 392.2430
696.6334, 391.6893
697.1155, 391.4373
697.5976, 391.2724
698.0797, 391.1438
698.5618, 391.0731
699.0439, 391.2790
699.5261, 391.8941
700.0082, 392.0319
700.4903, 391.0046
700.9724, 389.3491
701.4545, 388.6250
701.9366, 388.7511
702.4188, 389.0591
702.9009, 389.2194
703.3830, 389.2927
703.8651, 389.3399
704.3472, 389.3647
704.8293, 389.3299
705.3115, 389.0757
705.7936, 388.8731
706.2757, 389.0229
706.7578, 389.7993
707.2399, 389.6685
707.7220, 388.1463
708.2042, 386.4707
708.6863, 385.6541
709.1684, 385.6971
709.6505, 385.9816
710.1326, 386.5039
710.6147, 387.0686
711.0969, 387.2112
711.5790, 387.2779
712.0611, 388.1900
712.5432, 390.6078
713.0253, 392.5159
713.5074, 392.2916
713.9896, 390.8799
714.4717, 389.4490
714.9538, 387.6730
715.4359, 386.7171
715.9180, 387.3139
716.4001, 388.4932
716.8823, 388.4401
717.3644, 386.6380
717.8465, 385.7336
718.3286, 386.6508
718.8107, 388.3880
719.2928, 388.6389
719.7750, 387.6133
720.2571, 386.5757
720.7392, 385.9267
721.2213, 385.6544
721.7034, 385.9799
722.1855, 386.6999
722.6677, 387.1847
723.1498, 386.7300
723.6319, 386.4135
724.1140, 386.9577
724.5961, 388.2341
725.0782, 388.5804
725.5604, 387.3331
726.0425, 386.3503
726.5246, 386.4641
727.0067, 387.5696
727.4888, 388.7896
727.9709, 390.1274
728.4531, 391.1015
728.9352, 391.1551
729.4173, 390.6803
729.8994, 390.2096
730.3815, 389.7825
730.8636, 389.6522
731.3458, 390.4154
731.8279, 391.2199
732.3100, 391.3370
732.7921, 390.4043
733.2742, 389.9398
733.7563, 390.2653
734.2385, 390.8432
734.7206, 391.3965
735.2027, 391.9985
735.6848, 392.0108
736.1669, 391.2528
736.6490, 390.5781
737.1312, 391.0821
737.6133, 392.4019
738.0954, 393.5504
738.5775, 394.3619
739.0596, 394.9808
739.5417, 395.3285
740.0239, 395.6383
740.5060, 396.2039
740.9881, 397.4333
741.4702, 398.3803
741.9523, 398.5585
742.4344, 398.5340
742.9166, 399.0353
743.3987, 400.3342
743.8808, 401.1336
744.3629, 401.0978
744.8450, 400.7894
745.3271, 401.1762
745.8093, 402.1635
746.2914, 403.2173
746.7735, 404.1259
747.2556, 405.1231
747.7377, 406.8400
748.2198, 408.7576
748.7020, 409.9100
749.1841, 409.0658
749.6662, 408.3933
750.1483, 408.4518
750.6304, 409.1685
751.1125, 410.4063
751.5947, 412.5461
752.0768, 414.2831
752.5589, 415.1908
753.0410, 415.5403
753.5231, 416.0873
754.0052, 416.8076
754.4874, 417.3967
754.9695, 417.5439
755.4516, 417.6003
755.9337, 417.8671
756.4158, 418.3832
756.8979, 419.2676
757.3801, 420.9124
757.8622, 422.6233
758.3443, 424.2037
758.8264, 425.6143
759.3085, 426.6119
759.7906, 426.9038
760.2728, 427.3777
760.7549, 428.5086
761.2370, 430.1173
761.7191, 431.0810
762.2012, 431.4052
762.6833, 431.8025
763.1655, 432.6835
763.6476, 433.9224
764.1297, 435.5435
764.6118, 437.4603
765.0939, 439.0345
765.5760, 440.2573
766.0582, 440.8115
766.5403, 440.0769
767.0224, 437.8622
767.5045, 437.2442
767.9866, 439.1140
768.4688, 441.0735
768.9509, 441.6666
769.4330, 441.0143
769.9151, 441.3358
770.3972, 442.6562
770.8793, 444.0396
771.3615, 444.6638
771.8436, 444.9660
772.3257, 445.6553
772.8078, 446.7789
773.2899, 447.7288
773.7720, 448.2751
774.2542, 448.4761
774.7363, 448.1806
775.2184, 447.1129
775.7005, 447.0093
776.1826, 448.4764
776.6647, 449.8999
777.1469, 449.8311
777.6290, 448.3699
778.1111, 448.2227
778.5932, 449.5239
779.0753, 451.0675
779.5574, 451.9510
780.0396, 452.3461
780.5217, 452.2816
781.0038, 451.6668
781.4859, 451.5558
781.9680, 452.8303
782.4501, 454.4897
782.9323, 455.8469
783.4144, 456.9317
783.8965, 457.4365
784.3785, 457.1549
784.8607, 456.6537
785.3428, 456.3855
785.8249, 456.3353
786.3070, 456.3664
786.7891, 456.4513
787.2712, 456.8092
787.7534, 457.9140
788.2355, 459.2945
788.7176, 460.4229
789.1997, 461.2608
789.6818, 461.5739
790.1639, 460.7210
790.6461, 459.6779
791.1282, 459.2032
791.6103, 459.4461
792.0924, 459.9374
792.5745, 460.8495
793.0566, 461.6143
793.5388, 461.4628
794.0209, 460.6079
794.5030, 460.1679
794.9851, 460.2775
795.4672, 460.6486
795.9493, 461.1435
796.4315, 461.7027
796.9136, 462.3503
797.3957, 463.3223
797.8778, 463.6918
798.3599, 462.4500
798.8420, 461.0876
799.3242, 460.8217
799.8063, 462.0692
800.2884, 462.8969
800.7705, 463.2703
801.2526, 463.2468
801.7347, 462.5848
802.2169, 461.5816
802.6990, 461.2350
803.1811, 461.7780
803.6632, 462.2475
804.1453, 461.8254
804.6274, 461.0096
805.1096, 460.2335
805.5917, 459.5298
806.0738, 458.9732
806.5559, 458.4627
807.0380, 458.1889
807.5201, 458.5057
808.0023, 459.5543
808.4844, 459.6618
808.9665, 458.6442
809.4486, 457.2850
809.9307, 456.3996
810.4128, 455.7459
810.8950, 454.7331
811.3771, 453.1603
811.8592, 452.0546
812.3413, 452.5960
812.8234, 453.4380
813.3055, 453.4155
813.7877, 451.9884
814.2698, 450.8881
814.7519, 450.2009
815.2340, 449.7037
815.7161, 449.3084
816.1982, 448.9903
816.6804, 448.3327
817.1625, 447.2863
817.6446, 446.2539
818.1267, 445.8153
818.6088, 445.4928
819.0909, 444.6351
819.5731, 443.0727
820.0552, 441.4944
820.5373, 439.7603
821.0194, 438.4155
821.5015, 437.9501
821.9836, 438.7062
822.4658, 438.5229
822.9479, 437.2061
823.4300, 435.5610
823.9121, 434.0634
824.3942, 432.7721
824.8763, 432.0715
825.3585, 431.9702
825.8406, 431.7868
826.3227, 430.9244
826.8048, 429.8561
827.2869, 428.9487
827.7690, 428.2498
828.2512, 427.6625
828.7333, 427.4352
829.2154, 426.9805
829.6975, 425.7884
830.1796, 423.8758
830.6617, 423.0465
831.1439, 423.3940
831.6260, 423.6023
832.1081, 422.3759
832.5902, 420.5793
833.0723, 419.5378
833.5544, 419.2532
834.0366, 418.8326
834.5187, 417.2436
835.0008, 415.9484
835.4829, 415.9924
835.9650, 417.3112
836.4471, 418.0784
836.9293, 418.1729
837.4114, 418.0379
837.8935, 417.8412
838.3756, 417.5978
838.8577, 417.4560
839.3398, 417.3686
839.8220, 416.9904
840.3041, 415.7900
840.7862, 414.4797
841.2683, 413.4438
841.7504, 412.7390
842.2325, 412.6127
842.7147, 413.9351
843.1968, 414.7621
843.6789, 414.3987
844.1610, 413.1695
844.6431, 412.6246
845.1252, 412.7893
845.6074, 412.7361
846.0895, 411.8176
846.5716, 410.6999
847.0537, 410.4582
847.5358, 410.8189
848.0179, 411.0191
848.5001, 410.2948
848.9822, 409.8358
849.4643, 410.3987
849.9464, 411.4893
850.4285, 411.9346
850.9106, 411.5676
851.3928, 411.0593
851.8749, 410.4562
852.3570, 409.9382
852.8391, 410.2087
853.3212, 410.9120
853.8033, 410.7650
854.2855, 408.6014
854.7676, 406.6562
855.2497, 406.7280
855.7318, 407.9171
856.2139, 408.8803
856.6960, 409.5369
857.1782, 409.6725
857.6603, 409.0376
858.1424, 408.1674
858.6245, 407.9676
859.1066, 408.3682
859.5887, 408.1915
860.0709, 407.1093
860.5530, 406.0872
861.0351, 406.4586
861.5172, 407.3868
861.9993, 407.7630
862.4814, 407.1559
862.9636, 406.5126
863.4457, 405.7978
863.9278, 405.3367
864.4099, 405.4727
864.8920, 406.3578
865.3741, 406.8789
865.8563, 406.9528
866.3384, 407.0059
866.8205, 407.7159
867.3026, 408.5937
867.7847, 408.5065
868.2668, 407.3154
868.7490, 406.4831
869.2311, 407.4377
869.7132, 408.4427
870.1953, 408.0646
870.6774, 406.1285
871.1595, 405.4587
871.6417, 406.4675
872.1238, 407.6112
872.6059, 407.8865
873.0880, 407.5922
873.5701, 407.8422
874.0522, 408.5576
874.5344, 409.1491
875.0165, 409.3263
875.4986, 409.2074
875.9807, 408.6546
876.4628, 407.7927
876.9449, 407.3878
877.4271, 407.5893
877.9092, 408.0824
878.3913, 408.9789
878.8734, 409.9861
879.3555, 410.0164
879.8376, 409.1748
880.3198, 408.5015
880.8019, 408.4605
881.2840, 408.6990
881.7661, 409.0094
882.2482, 409.3322
882.7303, 409.5511
883.2125, 409.5901
883.6946, 409.5604
884.1767, 409.3008
884.6588, 409.1252
885.1409, 409.6562
885.6230, 410.9234
886.1052, 411.9086
886.5873, 412.4619
887.0694, 412.5401
887.5515, 411.7561
888.0336, 410.5813
888.5157, 409.6414
888.9979, 408.9620
889.4800, 408.8548
889.9621, 409.9005
890.4442, 411.1833
890.9263, 412.0680
891.4084, 412.5042
891.8906, 412.7004
892.3727, 412.6274
892.8548, 412.5027
893.3369, 412.5754
893.8190, 412.7059
894.3011, 412.6183
894.7833, 412.3049
895.2654, 411.9906
895.7475, 411.5880
896.2296, 411.4000
896.7117, 411.8428
897.1938, 412.8132
897.6760, 412.8589
898.1581, 411.7302
898.6402, 410.6724
899.1223, 410.1707
899.6044, 410.2136
900.0865, 411.0211
900.5687, 412.4207
901.0508, 413.7460
901.5329, 415.0024
902.0150, 415.7739
902.4971, 415.4362
902.9792, 414.5024
903.4614, 414.3769
903.9435, 415.6490
904.4256, 416.0771
904.9077, 415.0471
905.3898, 413.4396
905.8719, 412.5002
906.3541, 412.2147
906.8362, 412.6537
907.3183, 414.0679
907.8004, 415.4700
908.2825, 416.3386
908.7646, 416.8315
909.2468, 417.0952
909.7289, 417.0681
910.2110, 417.0229
910.6931, 416.9255
911.1752, 416.9010
911.6573, 417.0162
912.1395, 417.2957
912.6216, 417.9820
913.1037, 419.0753
913.5858, 419.9289
914.0679, 419.6068
914.5500, 419.2510
915.0322, 419.9755
915.5143, 421.8381
915.9964, 422.5129
916.4785, 421.0892
916.9606, 420.2372
917.4427, 421.2999
917.9249, 423.5426
918.4070, 424.6430
918.8891, 424.7191
919.3712, 424.4086
919.8533, 423.6602
920.3354, 423.0109
920.8176, 422.7977
921.2997, 422.9637
921.7818, 423.4216
922.2639, 424.5954
922.7460, 425.1915
923.2281, 424.8512
923.7103, 424.2205
924.1924, 424.1662
924.6745, 424.6763
925.1566, 425.7376
925.6387, 427.4291
926.1208, 429.2274
926.6030, 431.1011
927.0851, 432.6339
927.5672, 433.2999
928.0493, 432.5369
928.5314, 432.5627
929.0135, 433.7099
929.4957, 435.0586
929.9778, 436.0051
930.4599, 436.6104
930.9420, 437.1262
931.4241, 437.5730
931.9063, 438.2125
932.3884, 439.7444
932.8705, 441.0692
933.3526, 441.1195
933.8347, 440.1645
934.3168, 439.8397
934.7990, 440.0598
935.2811, 441.3680
935.7632, 444.3056
936.2453, 447.9446
936.7274, 449.8096
937.2095, 450.3631
937.6917, 451.6024
938.1738, 454.7083
938.6559, 457.4156
939.1380, 457.1746
939.6201, 455.9977
940.1022, 456.4843
940.5844, 460.0495
941.0665, 462.8155
941.5486, 464.4583
942.0307, 465.9420
942.5128, 468.2256
942.9949, 471.1290
943.4771, 474.1038
943.9592, 477.0688
944.4413, 479.8554
944.9234, 481.9788
945.4055, 484.1540
945.8876, 486.6684
946.3698, 489.5920
946.8519, 493.6484
947.3340, 499.2909
947.8161, 504.8493
948.2982, 509.7899
948.7803, 514.2466
949.2625, 517.9435
949.7446, 521.3564
950.2267, 526.0462
950.7088, 533.1933
951.1909, 541.0785
951.6730, 548.8608
952.1552, 556.9192
952.6373, 565.8477
953.1194, 575.9647
953.6015, 585.8160
954.0836, 594.9872
954.5657, 604.5983
955.0479, 616.0147
955.5300, 628.6807
956.0121, 641.6526
956.4942, 654.7982
956.9763, 668.6649
957.4584, 683.0269
957.9406, 698.6751
958.4227, 716.3551
958.9048, 735.6667
959.3869, 755.5121
959.8690, 775.8176
960.3511, 797.1655
960.8333, 819.5412
961.3154, 843.4144
961.7975, 870.5128
962.2796, 900.1558
962.7617, 930.2150
963.2438, 958.2318
963.7260, 988.5659
964.2081, 1022.803
964.6902, 1059.415
965.1723, 1096.761
965.6544, 1134.837
966.1365, 1176.326
966.6187, 1221.694
967.1008, 1269.396
967.5829, 1318.659
968.0650, 1369.355
968.5471, 1421.928
969.0292, 1476.614
969.5114, 1533.192
969.9935, 1593.333
970.4756, 1653.977
970.9577, 1714.527
971.4398, 1775.053
971.9219, 1839.696
972.4041, 1907.997
972.8862, 1977.142
973.3683, 2046.472
973.8504, 2115.952
974.3325, 2188.048
974.8146, 2261.323
975.2968, 2333.184
975.7789, 2406.313
976.2610, 2474.199
976.7431, 2536.287
977.2252, 2593.131
977.7073, 2646.184
978.1895, 2693.594
978.6716, 2728.152
979.1537, 2749.364
979.6358, 2755.779
980.1179, 2748.912
980.6000, 2725.223
981.0822, 2680.068
981.5643, 2613.899
982.0463, 2533.533
982.5284, 2438.384
983.0106, 2330.623
983.4927, 2207.309
983.9748, 2075.917
984.4569, 1946.541
984.9390, 1820.990
985.4211, 1699.544
985.9033, 1577.350
986.3854, 1465.538
986.8675, 1369.846
987.3496, 1285.476
987.8317, 1207.792
988.3138, 1136.656
988.7960, 1073.414
989.2781, 1018.846
989.7602, 971.2440
990.2423, 930.6179
990.7244, 895.2046
991.2065, 863.6805
991.6887, 835.7289
992.1708, 810.4867
992.6529, 788.2938
993.1350, 768.4985
993.6171, 751.1476
994.0992, 735.9619
994.5814, 722.2308
995.0635, 709.9225
995.5456, 699.3113
996.0277, 691.2559
996.5098, 683.8919
996.9919, 675.4298
997.4741, 666.8443
997.9562, 659.5684
998.4383, 654.3576
998.9204, 649.2144
999.4025, 644.0842
999.8846, 639.0435
1000.367, 633.8557
1000.849, 628.8400
1001.331, 625.0896
1001.813, 622.5658
1002.295, 620.4567
1002.777, 618.3201
1003.259, 616.4780
1003.742, 615.4613
1004.224, 614.8630
1004.706, 613.1246
1005.188, 610.0518
1005.670, 607.6224
1006.152, 606.4139
1006.634, 605.9408
1007.116, 605.6470
1007.599, 605.6320
1008.081, 606.1501
1008.563, 607.7734
1009.045, 608.5258
1009.527, 607.7590
1010.009, 606.6921
1010.491, 605.9489
1010.973, 605.5723
1011.455, 606.3881
1011.938, 608.2686
1012.420, 609.9752
1012.902, 610.4034
1013.384, 610.6769
1013.866, 611.7803
1014.348, 613.3242
1014.830, 613.9470
1015.312, 613.0620
1015.794, 612.9760
1016.277, 614.1641
1016.759, 615.8932
1017.241, 617.3386
1017.723, 618.5297
1018.205, 619.4701
1018.687, 620.1224
1019.169, 620.8358
1019.651, 621.5887
1020.134, 622.6429
1020.616, 624.3124
1021.098, 626.4603
1021.580, 627.5865
1022.062, 627.7028
1022.544, 628.2997
1023.026, 630.4535
1023.508, 632.9505
1023.990, 634.3919
1024.473, 635.3655
1024.955, 636.8914
1025.437, 639.9377
1025.919, 642.1038
1026.401, 642.9972
1026.883, 643.6371
1027.365, 644.9949
1027.847, 646.9371
1028.330, 649.3615
1028.812, 652.1663
1029.294, 654.3130
1029.776, 654.5294
1030.258, 654.6283
1030.740, 655.6862
1031.222, 657.3198
1031.704, 658.2989
1032.187, 658.6090
1032.669, 658.3524
1033.151, 657.3751
1033.633, 656.3543
1034.115, 656.4103
1034.597, 656.7526
1035.079, 656.3057
1035.561, 654.6090
1036.043, 652.9379
1036.526, 651.6066
1037.008, 649.9371
1037.490, 647.5280
1037.972, 644.4567
1038.454, 640.9406
1038.936, 637.0060
1039.418, 632.6078
1039.900, 627.3439
1040.382, 622.0711
1040.865, 617.6780
1041.347, 613.3970
1041.829, 607.9928
1042.311, 601.0980
1042.793, 595.1581
1043.275, 590.4347
1043.757, 586.0826
1044.239, 581.1626
1044.722, 576.1740
1045.204, 571.9412
1045.686, 568.4955
1046.168, 564.3138
1046.650, 558.4834
1047.132, 553.0508
1047.614, 548.5833
1048.096, 544.8378
1048.578, 541.1785
1049.061, 537.7289
1049.543, 534.9420
1050.025, 533.1057
1050.507, 531.5974
1050.989, 530.1842
1051.471, 528.8815
1051.953, 527.6702
1052.435, 526.5074
1052.917, 525.8661
1053.400, 525.8032
1053.882, 525.4513
1054.364, 523.4443
1054.846, 521.4771
1055.328, 521.7375
1055.810, 523.5896
1056.292, 525.3638
1056.774, 526.1637
1057.257, 527.7985
1057.739, 530.6194
1058.221, 533.9187
1058.703, 537.1017
1059.185, 540.0477
1059.667, 542.0294
1060.149, 543.0388
1060.631, 544.6126
1061.114, 547.6954
1061.596, 551.4631
1062.078, 555.8422
1062.560, 560.4977
1063.042, 564.0699
1063.524, 566.5256
1064.006, 570.2265
1064.488, 576.1526
1064.970, 582.6076
1065.453, 588.2307
1065.935, 593.3387
1066.417, 598.3688
1066.899, 603.4323
1067.381, 607.7898
1067.863, 611.3530
1068.345, 614.4914
1068.827, 617.7236
1069.309, 620.5457
1069.792, 621.6364
1070.274, 621.3018
1070.756, 620.4262
1071.238, 619.5607
1071.720, 617.9236
1072.202, 615.6569
1072.684, 612.3229
1073.166, 607.0802
1073.649, 600.0643
1074.131, 593.8516
1074.613, 588.5565
1075.095, 582.7295
1075.577, 573.8982
1076.059, 565.4865
1076.541, 560.3652
1077.023, 557.7081
1077.505, 553.3959
1077.988, 547.1229
1078.470, 540.9131
1078.952, 534.9887
1079.434, 529.7115
1079.916, 525.7476
1080.398, 522.4914
1080.880, 519.0389
1081.362, 515.1603
1081.844, 511.8397
1082.327, 509.4471
1082.809, 507.0733
1083.291, 504.3032
1083.773, 501.2823
1084.255, 498.0381
1084.737, 494.8355
1085.219, 492.6982
1085.701, 492.8057
1086.183, 492.3851
1086.666, 489.8803
1087.148, 486.7367
1087.630, 483.9217
1088.112, 481.4169
1088.594, 479.9189
1089.076, 479.4087
1089.558, 478.8615
1090.040, 477.5836
1090.523, 476.0463
1091.005, 474.4796
1091.487, 472.9499
1091.969, 471.5302
1092.451, 470.0335
1092.933, 469.3995
1093.415, 469.9066
1093.897, 470.4360
1094.380, 469.8351
1094.862, 468.5164
1095.344, 466.7844
1095.826, 464.7307
1096.308, 463.2742
1096.790, 462.6239
1097.272, 462.6292
1097.754, 463.6038
1098.236, 464.7349
1098.719, 464.1676
1099.201, 462.4327
1099.683, 461.0692
1100.165, 460.4479
1100.647, 460.1544
1101.129, 460.2208
1101.611, 460.3703
1102.093, 460.5275
1102.575, 460.6476
1103.058, 460.2831
1103.540, 459.4767
1104.022, 458.7414
1104.504, 458.2526
1104.986, 457.9785
1105.468, 458.1257
1105.950, 458.3567
1106.432, 458.1952
1106.915, 457.4430
1107.397, 457.1602
1107.879, 457.3876
1108.361, 457.8098
1108.843, 458.5307
1109.325, 459.0872
1109.807, 458.6949
1110.289, 457.6771
1110.771, 456.9061
1111.254, 456.6304
1111.736, 456.4318
1112.218, 456.1705
1112.700, 456.2419
1113.182, 457.3749
1113.664, 459.0572
1114.146, 460.1372
1114.628, 460.5806
1115.110, 461.0045
1115.593, 461.5722
1116.075, 462.2387
1116.557, 463.0010
1117.039, 463.8425
1117.521, 464.9753
1118.003, 466.2134
1118.485, 466.4505
1118.967, 465.3916
1119.450, 464.6305
1119.932, 465.6230
1120.414, 466.7427
1120.896, 467.0154
1121.378, 466.5894
1121.860, 466.1693
1122.342, 465.7643
1122.824, 465.5132
1123.307, 465.4836
1123.789, 465.5646
1124.271, 465.8837
1124.753, 466.1273
1125.235, 465.8935
1125.717, 465.1132
1126.199, 464.4216
1126.681, 463.8500
1127.163, 463.0750
1127.646, 461.4854
1128.128, 460.0911
1128.610, 461.0674
1129.092, 462.9522
1129.574, 463.0535
1130.056, 459.3528
1130.538, 456.4864
1131.020, 454.5479
1131.502, 453.1735
1131.985, 452.3207
1132.467, 451.7089
1132.949, 450.8000
1133.431, 449.6342
1133.913, 448.4107
1134.395, 447.1826
1134.877, 445.8824
1135.359, 444.3333
1135.842, 442.9575
1136.324, 442.3677
1136.806, 442.3741
1137.288, 442.4447
1137.770, 442.5111
1138.252, 442.2445
1138.734, 441.3102
1139.216, 440.1835
1139.698, 438.8234
1140.181, 437.5409
1140.663, 437.1327
1141.145, 437.4643
1141.627, 437.6755
1142.109, 437.6374
1142.591, 437.3568
1143.073, 436.4533
1143.555, 435.6776
1144.037, 435.7466
1144.520, 436.3313
1145.002, 435.8930
1145.484, 434.4459
1145.966, 433.3927
1146.448, 433.1144
1146.930, 433.4186
1147.412, 435.0145
1147.894, 436.5125
1148.377, 436.3669
1148.859, 434.5365
1149.341, 432.6117
1149.823, 430.5055
1150.305, 429.2346
1150.787, 429.4947
1151.269, 430.3615
1151.751, 431.0155
1152.234, 431.5164
1152.716, 431.9234
1153.198, 432.2307
1153.680, 432.5521
1154.162, 432.9426
1154.644, 433.1207
1155.126, 432.8232
1155.608, 432.2789
1156.090, 431.5415
1156.573, 430.8769
1157.055, 430.8311
1157.537, 432.3647
1158.019, 433.1776
1158.501, 433.0417
1158.983, 432.7154
1159.465, 432.8865
1159.947, 433.2648
1160.429, 433.0946
1160.912, 432.5812
1161.394, 432.5097
1161.876, 433.6714
1162.358, 434.5489
1162.840, 434.8948
1163.322, 435.0273
1163.804, 435.3602
1164.286, 435.7422
1164.769, 435.6205
1165.251, 435.0545
1165.733, 434.7248
1166.215, 435.1710
1166.697, 435.5790
1167.179, 435.7465
1167.661, 435.7862
1168.143, 435.9534
1168.625, 436.1457
1169.108, 435.7490
1169.590, 434.7206
1170.072, 434.3065
1170.554, 436.0736
1171.036, 437.4676
1171.518, 437.4374
1172.000, 436.5374
1172.482, 435.8889
1172.964, 435.4901
1173.447, 435.4023
1173.929, 435.6649
1174.411, 435.9474
1174.893, 436.0667
1175.375, 436.1343
1175.857, 436.1954
1176.339, 436.2599
1176.821, 436.4262
1177.304, 436.6565
1177.786, 436.5969
1178.268, 436.0534
1178.750, 435.6169
1179.232, 435.5531
1179.714, 435.8802
1180.196, 436.8555
1180.678, 438.2893
1181.161, 438.2110
1181.643, 436.7512
1182.125, 435.7944
1182.607, 436.1617
1183.089, 436.8600
1183.571, 437.5908
1184.053, 437.9801
1184.535, 437.5693
1185.017, 436.3713
1185.500, 435.6293
1185.982, 435.3438
1186.464, 435.4240
1186.946, 435.9933
1187.428, 436.6424
1187.910, 437.1153
1188.392, 437.4256
1188.874, 437.5030
1189.356, 437.2527
1189.839, 437.8241
1190.321, 439.2420
1190.803, 440.0977
1191.285, 439.2217
1191.767, 437.8332
1192.249, 436.4163
1192.731, 435.3577
1193.213, 435.2757
1193.696, 436.4141
1194.178, 437.4335
1194.660, 438.3524
1195.142, 438.8478
1195.624, 438.5936
1196.106, 437.9543
1196.588, 437.0539
1197.070, 436.0537
1197.552, 435.2137
1198.035, 434.4596
1198.517, 434.3873
1198.999, 435.0949
1199.481, 435.6384
1199.963, 434.7240
1200.445, 433.8323
1200.927, 434.7661
1201.409, 436.6580
1201.891, 437.1224
1202.374, 435.6125
1202.856, 434.9857
1203.338, 435.5276
1203.820, 436.0646
1204.302, 435.2130
1204.784, 434.2191
1205.266, 434.3542
1205.748, 435.3263
1206.231, 435.8564
1206.713, 435.7314
1207.195, 436.3651
1207.677, 438.0825
1208.159, 439.2606
1208.641, 437.5291
1209.123, 435.3186
1209.605, 435.0602
1210.088, 436.4142
1210.570, 436.9670
1211.052, 436.5159
1211.534, 436.3403
1212.016, 436.6863
1212.498, 436.9341
1212.980, 436.1545
1213.462, 435.2511
1213.944, 435.1584
1214.427, 435.7720
1214.909, 436.1052
1215.391, 436.1451
1215.873, 435.9382
1216.355, 435.4520
1216.837, 434.9731
1217.319, 434.7700
1217.801, 434.7228
1218.283, 434.8565
1218.766, 435.0855
1219.248, 434.7773
1219.730, 433.7935
1220.212, 433.6071
1220.694, 434.6890
1221.176, 435.8644
1221.658, 435.9957
1222.140, 435.7523
1222.623, 435.8632
1223.105, 436.2332
1223.587, 435.6680
1224.069, 434.0440
1224.551, 433.3913
1225.033, 434.3934
1225.515, 435.6158
1225.997, 435.7839
1226.479, 435.5601
1226.962, 435.5449
1227.444, 435.6943
1227.926, 435.4711
1228.408, 434.8704
1228.890, 434.4127
1229.372, 434.2587
1229.854, 434.2068
1230.336, 434.0728
1230.818, 433.9825
1231.301, 434.1060
1231.783, 434.3812
1232.265, 434.3503
1232.747, 434.0269
1233.229, 433.8479
1233.711, 433.9272
1234.193, 434.2243
1234.675, 435.2288
1235.158, 435.9503
1235.640, 435.4832
1236.122, 434.0779
1236.604, 433.3908
1237.086, 433.3432
1237.568, 433.0800
1238.050, 432.1945
1238.532, 431.5174
1239.015, 431.8320
1239.497, 432.3110
1239.979, 432.4111
1240.461, 432.2004
1240.943, 431.9137
1241.425, 431.6018
1241.907, 431.4977
1242.389, 431.6378
1242.871, 432.1414
1243.354, 433.6916
1243.836, 434.9619
1244.318, 435.1194
1244.800, 434.4110
1245.282, 433.6232
1245.764, 432.8895
1246.246, 432.8578
1246.728, 433.9592
1247.210, 435.0417
1247.693, 435.7428
1248.175, 436.2130
1248.657, 436.5219
1249.139, 436.6300
1249.621, 436.0690
1250.103, 435.2169
1250.585, 435.3019
1251.067, 437.3436
1251.550, 438.2236
1252.032, 436.4638
1252.514, 434.9071
1252.996, 435.1287
1253.478, 436.4299
1253.960, 437.5965
1254.442, 438.3669
1254.924, 438.0033
1255.406, 435.6185
1255.889, 434.2958
1256.371, 434.7212
1256.853, 435.1524
1257.335, 434.5721
1257.817, 433.6265
1258.299, 433.5206
1258.781, 433.8669
1259.263, 433.9809
1259.745, 433.5576
1260.228, 433.4332
1260.710, 433.6741
1261.192, 434.0516
1261.674, 434.6810
1262.156, 435.0418
1262.638, 433.8443
1263.120, 432.1807
1263.602, 431.7311
1264.085, 432.9561
1264.567, 433.8490
1265.049, 434.4073
1265.531, 434.6833
1266.013, 434.6854
1266.495, 434.4405
1266.977, 433.6387
1267.459, 432.8173
1267.942, 432.7642
1268.424, 433.5161
1268.906, 433.5551
1269.388, 432.9005
1269.870, 432.7407
1270.352, 433.9722
1270.834, 435.0285
1271.316, 434.7835
1271.798, 433.7685
1272.281, 432.1961
1272.763, 430.2504
1273.245, 430.3643
1273.727, 432.2140
1274.209, 433.5562
1274.691, 433.3903
1275.173, 432.9426
1275.655, 432.5098
1276.137, 432.3281
1276.620, 432.6947
1277.102, 433.3661
1277.584, 433.2048
1278.066, 432.4603
1278.548, 431.9745
1279.030, 432.0276
1279.512, 432.3380
1279.994, 433.1974
1280.476, 433.6973
1280.959, 433.2677
1281.441, 432.3083
1281.923, 431.4313
1282.405, 430.8630
1282.887, 431.2126
1283.369, 432.9945
1283.851, 434.2069
1284.333, 434.5551
1284.816, 434.7207
1285.298, 435.0298
1285.780, 435.2648
1286.262, 434.9270
1286.744, 434.3786
1287.226, 434.1721
1287.708, 434.4565
1288.190, 434.5517
1288.672, 434.4224
1289.155, 434.3348
1289.637, 434.4582
1290.119, 434.4899
1290.601, 434.0639
1291.083, 433.4302
1291.565, 432.6899
1292.047, 431.9141
1292.529, 432.0718
##END=



