##NAMES=Anorthite
##RRUFFID=R040059
##IDEAL CHEMISTRY=CaAl_2_Si_2_O_8_
##LOCALITY=Miyakejima, Japan
##OWNER=RRUFF
##SOURCE=University of Arizona Mineral Museum
##DESCRIPTION=Colorless fragments of crystals
##STATUS=The identification of this mineral has been confirmed by X-ray diffraction and chemical analysis
##URL=rruff.info/R040059
##MEASURED CHEMISTRY=(Ca_0.94_Na_0.04_Fe_0.02_)(Al_0.98_Si_0.02_)_2_Si_2.00_O_8_
##PIN_ID=L00234
##ORIENTATION=Laser parallel to b* (0 1 0). Fiducial mark perpendicular to laser is parallel to c [0 0 1]
121.706, 0.000
123.102, 275.315
124.497, 9.768
125.892, 282.077
127.286, 78.410
128.681, 462.192
130.075, 559.328
131.469, 466.957
132.862, 942.922
134.256, 815.760
135.649, 954.338
137.042, 1008.727
138.435, 1276.658
139.827, 1319.252
141.219, 1164.424
142.611, 1532.561
144.003, 1433.281
145.394, 1236.258
146.786, 861.217
148.177, 707.939
149.567, 436.555
150.958, 12.904
152.348, 329.562
153.738, 73.688
155.128, 359.221
156.517, 14.045
157.907, 243.723
159.296, 182.379
160.685, 281.814
162.073, 371.926
163.462, 432.637
164.850, 773.861
166.237, 755.541
167.625, 1317.621
169.012, 1600.072
170.400, 1962.855
171.786, 2235.953
173.173, 2419.340
174.559, 2843.615
175.946, 3161.350
177.332, 3760.195
178.717, 4259.982
180.103, 4561.701
181.488, 5614.727
182.873, 5877.469
184.258, 6369.861
185.642, 6861.932
187.026, 7043.709
188.410, 7705.213
189.794, 7436.477
191.178, 8237.512
192.561, 7818.338
193.944, 8358.965
195.327, 8309.412
196.709, 7889.686
198.092, 7829.797
199.474, 7209.762
200.856, 7289.584
202.237, 6409.283
203.618, 6178.869
205.000, 5598.320
206.380, 5087.557
207.761, 4526.641
209.142, 3895.619
210.522, 3794.527
211.902, 3543.391
213.281, 2982.225
214.661, 2781.043
216.040, 2369.857
217.419, 2198.678
218.798, 1897.508
220.176, 1726.352
221.554, 1965.221
222.932, 1774.115
224.310, 2133.037
225.688, 1901.990
227.065, 2284.758
228.442, 2213.102
229.819, 2542.115
231.196, 2370.266
232.572, 2667.256
233.948, 3349.361
235.324, 2975.098
236.700, 3879.363
238.075, 4439.855
239.450, 5394.180
240.825, 5976.611
242.200, 6561.664
243.574, 7916.803
244.948, 7692.021
246.322, 8527.320
247.696, 8372.699
249.070, 8428.146
250.443, 8463.668
251.816, 8819.254
253.189, 8754.908
254.561, 8500.623
255.933, 8536.395
257.306, 8132.230
258.677, 8298.105
260.049, 8344.020
261.420, 8159.961
262.791, 8445.930
264.162, 8811.916
265.533, 9457.916
266.903, 9503.930
268.274, 9909.955
269.643, 10475.996
271.013, 10462.045
272.383, 10148.109
273.752, 10294.186
275.121, 10560.277
276.490, 10486.387
277.858, 10812.574
279.226, 10958.855
280.595, 11305.211
281.962, 11471.598
283.330, 11718.129
284.697, 11504.770
286.064, 11321.551
287.431, 10764.549
288.798, 10588.281
290.164, 9782.568
291.530, 9267.887
292.896, 8343.750
294.262, 7220.121
295.627, 6306.904
296.993, 5224.066
298.358, 4651.518
299.722, 3699.234
301.087, 3297.189
302.451, 2735.348
303.815, 2323.725
305.179, 2142.264
306.543, 1450.953
307.906, 1539.781
309.269, 1118.738
310.632, 1117.812
311.995, 826.992
313.357, 466.273
314.719, 755.656
316.081, 785.039
317.443, 1044.652
318.804, 1134.326
320.166, 1304.059
321.527, 1383.783
322.887, 1263.641
324.248, 953.535
325.608, 623.467
326.968, 393.426
328.328, 283.416
329.688, 226.568
331.047, 186.596
332.406, 182.768
333.765, 316.832
335.124, 177.076
336.482, 207.361
337.840, 77.637
339.198, 87.934
340.556, 61.734
341.913, 141.391
343.271, 168.969
344.628, 29.398
345.984, 279.881
347.341, 119.521
348.697, 431.105
350.053, 11.887
351.409, 182.711
352.765, 223.625
354.120, 244.641
355.475, 95.756
356.830, 31.180
358.185, 211.832
359.539, 390.584
360.894, 719.314
362.248, 1228.029
363.601, 1456.725
364.955, 1565.400
366.308, 1934.061
367.661, 1942.703
369.014, 2011.330
370.367, 1849.938
371.719, 1388.533
373.071, 1367.115
374.423, 1135.680
375.775, 1114.230
377.126, 1032.768
378.478, 1121.289
379.828, 1469.797
381.179, 1248.287
382.530, 1706.764
383.880, 1555.223
385.230, 1723.666
386.580, 2022.094
387.929, 1890.502
389.279, 2958.896
390.628, 3237.074
391.977, 4124.893
393.325, 5172.518
394.674, 6200.031
396.022, 7327.533
397.370, 8584.906
398.718, 9912.143
400.065, 10479.162
401.413, 9705.977
402.760, 9342.613
404.106, 8359.209
405.453, 7535.805
406.799, 6552.395
408.146, 5438.982
409.491, 4825.564
410.837, 3752.145
412.182, 3128.717
413.528, 2715.283
414.873, 2541.846
416.217, 2678.398
417.562, 2384.943
418.906, 3101.480
420.250, 3438.012
421.594, 4434.533
422.938, 5101.043
424.281, 5317.912
425.624, 5805.139
426.967, 5241.621
428.310, 5088.945
429.652, 4295.406
430.994, 4225.191
432.336, 3583.752
433.678, 3260.619
435.020, 3204.250
436.361, 2830.648
437.702, 3199.598
439.043, 2856.049
440.383, 2179.682
441.724, 2521.957
443.064, 1860.461
444.404, 1691.391
445.743, 1628.857
447.083, 1118.605
448.422, 1393.975
449.761, 1244.215
451.100, 1260.645
452.438, 1458.195
453.777, 1558.258
455.115, 1958.770
456.453, 1972.289
457.790, 2248.867
459.128, 2285.867
460.465, 2182.715
461.802, 2150.779
463.139, 2006.820
464.475, 2119.262
465.811, 2105.238
467.147, 2191.180
468.483, 2547.086
469.819, 2812.957
471.154, 3239.832
472.489, 3495.629
473.824, 4512.584
475.159, 4691.141
476.493, 5747.445
477.827, 6721.186
479.161, 8046.982
480.495, 9563.789
481.829, 11015.988
483.162, 13091.477
484.495, 14447.020
485.828, 14252.434
487.161, 15517.789
488.493, 14103.098
489.825, 13248.492
491.157, 13219.172
492.489, 13101.656
493.820, 14346.852
495.151, 16162.270
496.482, 18724.912
497.813, 22209.133
499.144, 26777.713
500.474, 30716.189
501.804, 33421.844
503.134, 34136.656
504.464, 34461.750
505.793, 31942.664
507.123, 29267.775
508.451, 24872.926
509.780, 22588.227
511.109, 19719.717
512.437, 17350.383
513.765, 15768.338
515.093, 13284.836
516.421, 12050.539
517.748, 9840.215
519.075, 8785.191
520.402, 7920.180
521.729, 7305.121
523.055, 7790.029
524.382, 6694.895
525.708, 6399.711
527.034, 6394.490
528.359, 5239.229
529.685, 4743.922
531.010, 3908.629
532.335, 3513.289
533.659, 3017.912
534.984, 2792.488
536.308, 2387.021
537.632, 2311.512
538.956, 2035.955
540.279, 2230.355
541.603, 1844.711
542.926, 2229.020
544.249, 1993.283
545.571, 2837.502
546.894, 2781.674
548.216, 3065.801
549.538, 4169.883
550.860, 3985.582
552.181, 5109.572
553.503, 5144.484
554.824, 6028.389
556.145, 6302.250
557.465, 6166.070
558.786, 5860.230
560.106, 5934.271
561.426, 5387.965
562.746, 4951.637
564.065, 4465.248
565.385, 3788.818
566.704, 2992.348
568.023, 2885.836
569.341, 2309.283
570.660, 2112.688
571.978, 1616.049
573.296, 1219.367
574.614, 1172.645
575.931, 1175.881
577.248, 769.074
578.565, 462.225
579.882, 595.330
581.199, 498.393
582.515, 321.414
583.831, 234.387
585.147, 427.309
586.463, 220.188
587.779, 543.014
589.094, 114.205
590.409, 118.412
591.724, 310.965
593.038, 16.531
594.353, 435.859
595.667, 98.207
596.981, 400.484
598.295, 17.285
599.608, 155.168
600.922, 116.764
602.235, 28.629
603.547, 79.596
604.860, 62.033
606.172, 206.414
607.485, 44.924
608.797, 223.820
610.108, 82.787
611.420, 48.096
612.731, 131.100
614.042, 20.473
615.353, 69.961
616.664, 220.412
617.974, 240.730
619.284, 120.994
620.594, 741.191
621.904, 8.652
623.213, 891.393
624.523, 611.391
625.832, 451.340
627.141, 681.244
628.449, 191.102
629.758, 530.902
631.066, 170.660
632.374, 70.355
633.681, 260.631
634.989, 199.797
636.296, 359.668
637.603, 162.641
638.910, 18.098
640.217, 551.605
641.523, 380.711
642.829, 400.213
644.135, 509.225
645.441, 468.396
646.747, 546.365
648.052, 295.236
649.357, 568.008
650.662, 322.314
651.967, 161.291
653.271, 626.412
654.575, 110.105
655.879, 632.865
657.183, 291.121
658.486, 310.197
659.790, 563.473
661.093, 142.252
662.396, 511.803
663.698, 900.887
665.001, 779.660
666.303, 1028.383
667.605, 1157.928
668.907, 1656.699
670.209, 1815.602
671.510, 2216.508
672.811, 2796.781
674.112, 2808.510
675.413, 4227.312
676.713, 3947.721
678.013, 4476.418
679.313, 4985.381
680.613, 4894.008
681.913, 4622.547
683.212, 4311.031
684.511, 3690.219
685.810, 3528.598
687.109, 2828.703
688.407, 2656.979
689.706, 2195.766
691.004, 1943.936
692.302, 1672.051
693.599, 1370.115
694.897, 1118.127
696.194, 1176.088
697.491, 943.994
698.788, 1111.852
700.084, 559.660
701.380, 957.414
702.677, 535.117
703.972, 722.768
705.268, 900.371
706.564, 207.922
707.859, 555.408
709.154, 272.844
710.449, 730.223
711.743, 787.549
713.037, 674.826
714.332, 392.057
715.626, 409.232
716.919, 846.357
718.213, 473.432
719.506, 740.461
720.799, 567.439
722.092, 924.369
723.384, 611.254
724.677, 1298.088
725.969, 734.875
727.261, 1051.615
728.553, 1508.311
729.844, 1464.957
731.136, 1581.557
732.427, 2468.109
733.718, 3304.617
735.008, 3431.080
736.299, 3307.496
737.589, 4193.869
738.879, 3912.338
740.169, 5135.375
741.458, 4111.611
742.748, 3766.953
744.037, 4313.102
745.326, 3315.873
746.614, 3469.812
747.903, 3185.391
749.191, 2524.152
750.479, 3080.094
751.767, 2453.430
753.055, 3189.211
754.342, 2887.754
755.629, 2917.605
756.916, 3221.164
758.203, 3812.250
759.490, 3656.742
760.776, 3678.898
762.062, 3575.375
763.348, 4176.945
764.634, 3392.289
765.919, 3506.469
767.204, 3818.090
768.489, 2789.219
769.774, 2937.281
771.059, 2652.238
772.343, 2416.719
773.627, 2141.297
774.911, 1634.605
776.195, 1529.879
777.479, 1348.691
778.762, 1043.914
780.045, 1109.109
781.328, 734.285
782.611, 759.434
783.893, 833.516
785.175, 528.613
786.457, 672.496
787.739, 44.715
789.021, 579.117
790.302, 156.023
791.583, 29.191
792.864, 624.504
794.145, 32.746
795.425, 287.633
796.706, 52.398
797.986, 417.230
799.266, 102.055
800.545, 443.137
801.825, 381.398
803.104, 44.613
804.383, 70.148
805.662, 303.809
806.940, 243.254
808.219, 59.027
809.497, 58.496
810.775, 144.387
812.053, 58.945
813.330, 387.652
814.608, 126.113
815.885, 332.496
817.162, 11.062
818.438, 344.598
819.715, 108.121
820.991, 338.367
822.267, 324.949
823.543, 38.246
824.818, 38.461
826.094, 25.211
827.369, 221.988
828.644, 241.105
829.919, 205.809
831.193, 227.156
832.468, 0.109
833.742, 23.047
835.016, 135.973
836.289, 208.891
837.563, 18.203
838.836, 234.684
840.109, 222.438
841.382, 16.762
842.654, 16.910
843.927, 275.824
845.199, 118.562
846.471, 201.285
847.743, 424.008
849.014, 166.730
850.286, 289.438
851.557, 402.168
852.828, 414.887
854.099, 507.605
855.369, 430.316
856.639, 403.027
857.909, 725.738
859.179, 490.207
860.449, 610.405
861.718, 688.989
862.988, 728.230
864.257, 610.203
865.525, 695.211
866.794, 698.863
868.062, 699.159
869.331, 812.766
870.599, 717.590
871.866, 829.361
873.134, 858.534
874.401, 925.500
875.668, 910.587
876.935, 920.964
878.202, 1013.246
879.468, 1060.156
880.735, 1035.817
882.001, 1105.166
883.267, 1007.091
884.532, 1055.912
885.798, 1168.142
887.063, 1115.316
888.328, 818.176
889.593, 1111.043
890.857, 1213.918
892.122, 1306.805
893.386, 1477.070
894.650, 1152.633
895.913, 1525.570
897.177, 1678.512
898.440, 1331.586
899.703, 1914.684
900.966, 1487.809
902.229, 1880.984
903.491, 1614.176
904.754, 1747.391
906.016, 1790.629
907.278, 1383.910
908.539, 1717.285
909.801, 2190.680
911.062, 1794.121
912.323, 2117.629
913.584, 2021.176
914.844, 2004.840
916.105, 2318.547
917.365, 1722.359
918.625, 1786.246
919.885, 2000.164
921.144, 1744.172
922.404, 2488.234
923.663, 1512.367
924.922, 2436.539
926.180, 2580.742
927.439, 2304.980
928.697, 2949.238
929.955, 3203.555
931.213, 3037.895
932.471, 3592.258
933.728, 3286.648
934.985, 4201.070
936.242, 3825.516
937.499, 4099.992
938.756, 4474.500
940.012, 4148.398
941.269, 4762.969
942.525, 4257.555
943.780, 3848.609
945.036, 4783.363
946.291, 4377.629
947.546, 4782.469
948.801, 5076.953
950.056, 5261.898
951.311, 5726.676
952.565, 6122.641
953.819, 6067.684
955.073, 6308.875
956.327, 5458.578
957.580, 6233.719
958.834, 5232.797
960.087, 4733.555
961.339, 5154.820
962.592, 4770.812
963.845, 4386.008
965.097, 4686.988
966.349, 4142.449
967.601, 4907.176
968.852, 4852.371
970.104, 4457.957
971.355, 5763.570
972.606, 5148.484
973.857, 5684.176
975.107, 5499.793
976.358, 5493.465
977.608, 6077.816
978.858, 5590.738
980.108, 5966.598
981.357, 5550.840
982.607, 5386.785
983.856, 5042.445
985.105, 5138.426
986.353, 4144.492
987.602, 4760.602
988.850, 3935.992
990.098, 3902.188
991.346, 3676.648
992.594, 3352.930
993.841, 3818.691
995.089, 3035.062
996.336, 3471.484
997.583, 3978.352
998.829, 3194.859
1000.076, 3971.418
1001.322, 3851.703
1002.568, 3848.359
1003.814, 3755.062
1005.060, 2551.812
1006.305, 2978.617
1007.550, 2735.469
1008.795, 2362.367
1010.040, 3119.320
1011.285, 2386.332
1012.529, 2313.398
1013.773, 2950.516
1015.017, 2007.684
1016.261, 3114.910
1017.505, 2302.199
1018.748, 2609.531
1019.991, 3086.914
1021.234, 1874.352
1022.477, 2691.844
1023.719, 2349.391
1024.962, 1976.996
1026.204, 2464.652
1027.446, 1655.246
1028.688, 2093.016
1029.929, 2060.836
1031.170, 1518.715
1032.411, 2236.652
1033.652, 1761.215
1034.893, 1449.266
1036.134, 2047.375
1037.374, 1109.719
1038.614, 1877.945
1039.854, 1456.227
1041.094, 1644.570
1042.333, 2002.977
1043.572, 1271.938
1044.811, 1660.457
1046.050, 1569.043
1047.289, 1209.766
1048.527, 2098.469
1049.766, 1480.523
1051.004, 1459.348
1052.241, 2098.234
1053.479, 1197.188
1054.717, 1526.199
1055.954, 1355.281
1057.191, 1434.492
1058.428, 1193.703
1059.664, 1262.973
1060.901, 1192.793
1062.137, 1652.195
1063.373, 1125.867
1064.609, 1465.359
1065.844, 1454.922
1067.080, 834.555
1068.315, 1824.246
1069.550, 1074.012
1070.785, 1633.844
1072.019, 1483.750
1073.254, 807.473
1074.488, 1427.516
1075.722, 1467.629
1076.955, 1117.887
1078.189, 1948.102
1079.422, 1359.234
1080.656, 1369.500
1081.889, 1649.770
1083.121, 1110.215
1084.354, 1780.629
1085.586, 1231.098
1086.818, 1141.441
1088.050, 1881.789
1089.282, 702.199
1090.514, 1382.805
1091.745, 1073.344
1092.976, 1056.805
1094.207, 1247.473
1095.438, 378.113
1096.668, 520.965
1097.899, 1451.719
1099.129, 262.523
1100.359, 883.285
1101.588, 1084.219
1102.818, 405.656
1104.047, 1296.668
1105.276, 357.746
1106.505, 1530.148
1107.734, 1111.398
1108.962, 472.711
1110.191, 1023.980
1111.419, 444.797
1112.647, 666.301
1113.874, 1127.199
1115.102, 508.047
1116.329, 1029.340
1117.556, 1150.918
1118.783, 981.547
1120.010, 1793.027
1121.236, 1023.469
1122.463, 1486.715
1123.689, 1777.586
1124.914, 1192.480
1126.140, 1353.391
1127.366, 1774.504
1128.591, 805.754
1129.816, 1977.094
1131.041, 748.531
1132.266, 880.117
1133.490, 1591.852
1134.714, 843.688
1135.938, 1375.609
1137.162, 1287.609
1138.386, 509.691
1139.609, 1631.871
1140.833, 664.145
1142.056, 526.516
1143.279, 1678.980
1144.501, 38.453
1145.724, 1354.207
1146.946, 756.965
1148.168, 160.180
1149.390, 1392.766
1150.612, 345.785
1151.833, 718.902
1153.054, 962.082
1154.275, 155.320
1155.496, 988.621
1156.717, 462.008
1157.937, 385.492
1159.158, 849.074
1160.378, 462.613
1161.598, 656.215
1162.817, 859.910
1164.037, 3.695
1165.256, 1097.574
1166.475, 461.547
1167.694, 315.586
1168.913, 1009.688
1170.131, 433.887
1171.349, 298.180
1172.567, 1072.539
1173.785, 103.031
1175.003, 911.484
1176.220, 86.082
1177.438, 210.773
1178.655, 995.559
1179.872, 169.555
1181.088, 855.430
1182.305, 450.492
1183.521, 114.355
1184.737, 1140.719
1185.953, 85.891
1187.169, 341.164
1188.384, 846.535
1189.599, 8.016
1190.814, 77.539
1192.029, 503.199
1193.244, 221.020
1194.459, 514.879
1195.673, 69.102
1196.887, 467.039
1198.101, 923.355
1199.314, 149.875
1200.528, 386.547
1201.741, 983.383
1202.954, 150.367
1204.167, 827.504
1205.380, 634.805
1206.592, 82.258
1207.805, 1108.938
1209.017, 43.316
1210.229, 405.691
1211.440, 813.574
1212.652, 301.613
1213.863, 1049.812
1215.074, 498.164
1216.285, 816.688
1217.496, 975.336
1218.707, 5.801
1219.917, 1123.238
1221.127, 962.461
1222.337, 293.145
1223.547, 1502.516
1224.756, 142.070
1225.966, 610.305
1227.175, 1405.562
1228.384, 324.645
1229.592, 843.871
1230.801, 1381.398
1232.009, 645.023
1233.217, 1050.250
1234.425, 807.945
1235.633, 335.625
1236.841, 1622.957
1238.048, 30.500
1239.255, 985.715
1240.462, 1482.637
1241.669, 120.789
1242.876, 1105.492
1244.082, 941.406
1245.288, 564.980
1246.494, 1368.289
1247.700, 316.270
1248.906, 800.254
1250.111, 1383.102
1251.316, 187.359
1252.521, 1083.418
1253.726, 747.863
1254.931, 525.625
1256.135, 1723.289
1257.339, 224.418
1258.543, 564.746
1259.747, 1385.289
1260.951, 266.699
1262.154, 167.562
1263.357, 952.344
1264.560, 143.395
1265.763, 1110.457
1266.966, 1.922
1268.168, 135.262
1269.371, 0.000
##END=



