##NAMES=Atelisite-(Y)
##RRUFFID=R130043
##IDEAL CHEMISTRY=Y_4_Si_3_O_8_(OH)_8_
##LOCALITY=Stetind quarry, Tysfjord, Norway
##OWNER=Thomas Malcherek
##SOURCE=Thomas Malcherek
##DESCRIPTION=Pale brown to colourless, transparent crystals of dipyramidally terminated. Associated with xenotime-( Y), calcioancylite-(Nd) and La-dominant calcioancylite. Data from Malcherek et al (2012)
##STATUS=The identification of this mineral has been confirmed by X-ray diffraction and chemical analysis
##URL=rruff.info/R130043
##MEASURED CHEMISTRY=(Y_3.11_Yb_0.46_Er_0.19_Dy_0.11_Gd_0.09_Ho_0.01_Tb_0.02_)_Î£=3.99_Si_2.40_O_16_H_10.43_
##ORIENTATION=Laser parallel to -a [-1 0 0]. Fiducial mark perpendicular to laser is parallel to c [0 0 1]
15.00000, 0.0000000E+00
15.50031, 4.704468
16.00063, 5.337585
16.50094, 3.516785
17.00126, 0.3291020
17.50157, 0.1218260
18.00188, 1.205566
18.50220, 2.040039
19.00251, 3.734497
19.50282, 6.098389
20.00314, 6.532654
20.50345, 3.834595
21.00377, 0.2015990
21.50408, 0.3281250
22.00439, 1.429993
22.50471, 2.312988
23.00502, 1.817383
23.50534, 2.102844
24.00565, 4.099121
24.50596, 5.138855
25.00628, 6.533447
25.50659, 8.909241
26.00690, 11.10406
26.50722, 12.67365
27.00753, 13.33112
27.50785, 13.26208
28.00816, 13.79944
28.50847, 14.18512
29.00879, 14.68262
29.50910, 14.35114
30.00942, 13.37463
30.50973, 13.30847
31.01004, 12.36176
31.51036, 11.43842
32.01067, 8.896240
32.51099, 6.277527
33.01130, 4.495300
33.51161, 3.316589
34.01193, 3.400452
34.51224, 6.382507
35.01255, 11.92578
35.51287, 15.10840
36.01318, 14.77979
36.51350, 13.43109
37.01381, 11.89288
37.51413, 12.08997
38.01444, 12.75043
38.51475, 15.01776
39.01506, 15.24683
39.51538, 12.86182
40.01569, 9.907898
40.51601, 8.218140
41.01632, 7.504639
41.51664, 7.396790
42.01695, 7.218750
42.51726, 7.998779
43.01758, 8.898865
43.51789, 9.774292
44.01820, 10.24420
44.51852, 10.62897
45.01883, 9.779480
45.51915, 7.897156
46.01946, 6.043884
46.51978, 5.476746
47.02009, 4.375488
47.52040, 1.706116
48.02071, 2.227478
48.52103, 0.8768920
49.02134, 3.015686
49.52166, 7.024414
50.02197, 4.987976
50.52229, 2.678040
51.02260, 0.9511110
51.52291, 1.412415
52.02323, 3.185730
52.52354, 4.564880
53.02385, 4.754700
53.52417, 1.991150
54.02448, 0.6298220
54.52480, 0.8327640
55.02511, 0.4281620
55.52542, 1.0437000E-02
56.02574, 0.8107910
56.52605, 1.327332
57.02637, 2.905334
57.52668, 3.079041
58.02699, 1.092957
58.52731, 0.1637570
59.02762, 0.2832640
59.52794, 5.482910
60.02825, 9.268982
60.52856, 11.81335
61.02888, 12.65985
61.52919, 13.11053
62.02950, 11.79327
62.52982, 9.664673
63.03013, 7.530762
63.53045, 5.657593
64.03076, 4.174622
64.53107, 6.081665
65.03139, 10.29010
65.53170, 13.94171
66.03201, 13.49146
66.53233, 11.68433
67.03265, 11.71320
67.53296, 14.64136
68.03327, 17.58429
68.53358, 19.55432
69.03390, 19.69580
69.53421, 18.44391
70.03452, 17.80957
70.53484, 18.39227
71.03516, 22.19189
71.53547, 29.43774
72.03578, 34.25269
72.53609, 36.06195
73.03641, 33.34949
73.53672, 32.54376
74.03704, 33.26514
74.53735, 34.26422
75.03767, 35.90240
75.53798, 39.43597
76.03829, 42.43018
76.53860, 44.10803
77.03892, 42.52612
77.53923, 40.52765
78.03955, 40.85114
78.53986, 42.55640
79.04018, 45.06879
79.54049, 46.10168
80.04080, 45.80286
80.54111, 45.23407
81.04143, 44.09155
81.54175, 42.14954
82.04206, 42.11328
82.54237, 42.29102
83.04269, 43.23230
83.54300, 45.33783
84.04331, 51.20233
84.54362, 57.05371
85.04395, 56.50989
85.54426, 52.10699
86.04457, 47.85260
86.54488, 47.35480
87.04520, 47.53528
87.54551, 46.97504
88.04582, 48.70239
88.54614, 49.63538
89.04646, 49.31262
89.54677, 49.40948
90.04708, 49.11285
90.54739, 50.98547
91.04771, 50.78137
91.54802, 52.40118
92.04834, 54.59607
92.54865, 54.47351
93.04897, 50.46912
93.54928, 45.96381
94.04959, 44.37305
94.54990, 46.46631
95.05022, 48.68359
95.55054, 49.22632
96.05085, 46.91327
96.55116, 42.51221
97.05148, 36.50311
97.55179, 32.40277
98.05210, 30.81934
98.55241, 31.33582
99.05273, 32.09320
99.55305, 33.97021
100.0534, 34.87976
100.5537, 34.60376
101.0540, 32.61768
101.5543, 32.02502
102.0546, 32.23578
102.5549, 31.54535
103.0552, 27.88373
103.5556, 22.80310
104.0559, 20.46753
104.5562, 21.43573
105.0565, 22.78729
105.5568, 23.12720
106.0571, 23.64819
106.5574, 26.18243
107.0578, 28.25098
107.5581, 29.76770
108.0584, 29.06445
108.5587, 27.65771
109.0590, 26.49927
109.5593, 25.15070
110.0596, 23.90808
110.5600, 21.83667
111.0603, 21.35095
111.5606, 18.21497
112.0609, 16.47418
112.5612, 15.64600
113.0615, 16.30145
113.5618, 16.34418
114.0621, 13.72327
114.5625, 12.42633
115.0628, 12.76898
115.5631, 15.57751
116.0634, 16.70758
116.5637, 14.32074
117.0640, 12.91541
117.5643, 12.62390
118.0647, 14.74603
118.5650, 14.95117
119.0653, 13.32178
119.5656, 11.34247
120.0659, 9.782104
120.5662, 11.11401
121.0665, 11.12244
121.5669, 12.72003
122.0672, 13.67816
122.5675, 14.12567
123.0678, 12.93201
123.5681, 14.65881
124.0684, 17.67450
124.5687, 19.74335
125.0691, 18.65021
125.5694, 16.27094
126.0697, 14.84955
126.5700, 14.59851
127.0703, 14.23132
127.5706, 13.35455
128.0709, 14.74109
128.5712, 18.24542
129.0716, 19.87695
129.5719, 19.53271
130.0722, 18.59259
130.5725, 19.93024
131.0728, 20.74561
131.5731, 20.37848
132.0734, 18.87396
132.5738, 17.67688
133.0741, 18.99414
133.5744, 23.48248
134.0747, 26.17126
134.5750, 26.04749
135.0753, 24.64215
135.5756, 25.16260
136.0760, 26.59174
136.5763, 26.55890
137.0766, 25.96991
137.5769, 27.97443
138.0772, 29.45905
138.5775, 31.87604
139.0778, 35.18408
139.5782, 38.35699
140.0785, 41.79828
140.5788, 42.23816
141.0791, 42.82526
141.5794, 42.75922
142.0797, 43.20880
142.5800, 45.45734
143.0804, 47.91669
143.5807, 48.72467
144.0810, 48.42017
144.5813, 47.59821
145.0816, 47.98059
145.5819, 49.42645
146.0822, 51.24005
146.5826, 51.59131
147.0829, 49.07812
147.5832, 46.15393
148.0835, 44.79761
148.5838, 44.04028
149.0841, 41.14587
149.5844, 38.97656
150.0847, 37.95776
150.5851, 38.75818
151.0854, 37.49634
151.5857, 33.34174
152.0860, 30.78790
152.5863, 27.76678
153.0866, 25.54041
153.5869, 23.44373
154.0872, 21.07465
154.5876, 20.94556
155.0879, 20.57025
155.5882, 23.28369
156.0885, 24.70453
156.5888, 24.17682
157.0891, 21.72888
157.5894, 19.86664
158.0898, 19.14062
158.5901, 17.80664
159.0904, 16.27759
159.5907, 15.19745
160.0910, 14.69250
160.5913, 14.77765
161.0916, 14.51208
161.5920, 16.71027
162.0923, 19.72168
162.5926, 22.28381
163.0929, 21.27191
163.5932, 16.36517
164.0935, 17.25458
164.5938, 19.54834
165.0942, 22.76099
165.5945, 17.81915
166.0948, 15.94965
166.5951, 17.78613
167.0954, 21.13397
167.5957, 19.31244
168.0960, 17.09192
168.5964, 16.22473
169.0967, 18.99329
169.5970, 22.42798
170.0973, 20.72040
170.5976, 16.56384
171.0979, 10.73895
171.5982, 9.550293
172.0986, 10.59955
172.5989, 13.90833
173.0992, 15.55579
173.5995, 12.55426
174.0998, 9.808594
174.6001, 7.844788
175.1004, 8.448303
175.6008, 5.687134
176.1011, 1.376953
176.6014, 0.9602660
177.1017, 1.299194
177.6020, 1.497314
178.1023, 4.403870
178.6026, 4.373657
179.1030, 3.867188
179.6033, 3.464111
180.1036, 5.282959
180.6039, 4.695618
181.1042, 2.827576
181.6045, 1.189392
182.1048, 0.9453130
182.6051, 1.457275
183.1055, 4.549561
183.6058, 6.953857
184.1061, 7.966797
184.6064, 6.647766
185.1067, 5.262695
185.6070, 4.675354
186.1073, 8.336182
186.6077, 9.318909
187.1080, 9.808655
187.6083, 8.496216
188.1086, 8.580872
188.6089, 8.398987
189.1092, 6.814026
189.6095, 6.566528
190.1098, 6.492493
190.6102, 6.526855
191.1105, 5.210144
191.6108, 3.073730
192.1111, 2.797302
192.6114, 3.127930
193.1117, 3.981140
193.6120, 4.414917
194.1124, 5.997681
194.6127, 7.744263
195.1130, 8.453796
195.6133, 8.442505
196.1136, 7.976746
196.6139, 9.532166
197.1142, 11.30347
197.6146, 9.736511
198.1149, 5.207336
198.6152, 3.395264
199.1155, 3.601624
199.6158, 6.430664
200.1161, 6.864563
200.6164, 6.662964
201.1168, 6.147644
201.6171, 4.589233
202.1174, 3.496338
202.6177, 1.188049
203.1180, 2.068909
203.6183, 2.516602
204.1186, 2.108032
204.6190, 0.6704100
205.1193, 0.2691040
205.6196, 2.237488
206.1199, 3.144470
206.6202, 0.4002690
207.1205, 6.312256
207.6208, 9.229309
208.1212, 9.829041
208.6215, 9.205994
209.1218, 7.548157
209.6221, 6.444885
210.1224, 8.156860
210.6227, 13.75696
211.1230, 15.75293
211.6234, 16.60132
212.1237, 15.89764
212.6240, 18.14362
213.1243, 19.93268
213.6246, 20.38550
214.1249, 20.42883
214.6252, 20.15247
215.1255, 23.24701
215.6259, 27.44873
216.1262, 33.30371
216.6265, 38.17676
217.1268, 41.99451
217.6271, 45.76624
218.1274, 46.68512
218.6277, 44.74475
219.1281, 38.89832
219.6284, 38.82294
220.1287, 44.08801
220.6290, 53.58398
221.1293, 60.32245
221.6296, 61.69250
222.1299, 60.82709
222.6303, 60.47864
223.1306, 64.42511
223.6309, 68.05157
224.1312, 69.46832
224.6315, 68.66846
225.1318, 68.22272
225.6321, 70.46851
226.1325, 72.02698
226.6328, 75.35034
227.1331, 77.88983
227.6334, 83.00946
228.1337, 91.08527
228.6340, 93.84467
229.1343, 93.96100
229.6347, 88.54279
230.1350, 86.53400
230.6353, 85.92255
231.1356, 86.19220
231.6359, 86.55432
232.1362, 83.74878
232.6365, 85.17328
233.1369, 87.38251
233.6372, 92.56348
234.1375, 93.19482
234.6378, 93.80701
235.1381, 98.16296
235.6384, 101.4027
236.1387, 101.3087
236.6391, 101.3740
237.1394, 98.41418
237.6397, 97.89758
238.1400, 95.20013
238.6403, 95.20929
239.1406, 95.84790
239.6409, 98.84766
240.1412, 104.3303
240.6416, 104.5565
241.1419, 104.0144
241.6422, 100.6452
242.1425, 102.3934
242.6428, 103.6172
243.1431, 102.3778
243.6434, 100.1644
244.1438, 95.02997
244.6441, 93.09302
245.1444, 92.39203
245.6447, 87.93701
246.1450, 84.02716
246.6453, 83.18188
247.1456, 86.76624
247.6460, 91.13165
248.1463, 91.07898
248.6466, 89.49890
249.1469, 87.65668
249.6472, 87.03601
250.1475, 86.98267
250.6478, 86.10510
251.1481, 86.35065
251.6485, 87.05975
252.1488, 86.37268
252.6491, 83.91711
253.1494, 82.06213
253.6497, 81.27844
254.1500, 78.84265
254.6503, 77.29590
255.1507, 78.97797
255.6510, 83.29767
256.1513, 88.27997
256.6516, 91.15735
257.1519, 93.66675
257.6522, 94.18408
258.1526, 94.33344
258.6529, 96.50848
259.1532, 99.91333
259.6535, 102.4684
260.1538, 106.1719
260.6541, 109.0765
261.1544, 111.3323
261.6548, 109.1591
262.1551, 107.4347
262.6554, 104.5386
263.1557, 103.9501
263.6560, 105.1121
264.1563, 108.8571
264.6566, 114.1988
265.1569, 117.0739
265.6573, 121.0058
266.1576, 126.8938
266.6579, 133.3510
267.1582, 137.6530
267.6585, 136.3481
268.1588, 133.8370
268.6591, 131.5378
269.1595, 134.1151
269.6598, 140.2858
270.1601, 148.5282
270.6604, 153.7936
271.1607, 157.7590
271.6610, 162.6657
272.1613, 168.8152
272.6617, 174.6411
273.1620, 181.0381
273.6623, 184.1613
274.1626, 187.6622
274.6629, 193.1670
275.1632, 198.2459
275.6635, 204.2421
276.1638, 208.5737
276.6642, 217.0388
277.1645, 223.3021
277.6648, 228.9949
278.1651, 234.7423
278.6654, 244.0380
279.1657, 256.4668
279.6660, 264.1857
280.1664, 271.9174
280.6667, 275.8453
281.1670, 280.2484
281.6673, 285.4264
282.1676, 289.9238
282.6679, 299.5186
283.1682, 309.5432
283.6685, 321.1384
284.1689, 328.3374
284.6692, 333.5321
285.1695, 340.3170
285.6698, 350.8157
286.1701, 359.0502
286.6704, 367.0864
287.1707, 375.9495
287.6711, 385.5455
288.1714, 393.6420
288.6717, 401.9384
289.1720, 410.4846
289.6723, 417.3556
290.1726, 425.2253
290.6729, 430.7889
291.1732, 436.3741
291.6736, 440.1257
292.1739, 448.6930
292.6742, 457.5771
293.1745, 465.6338
293.6748, 472.0052
294.1751, 479.7017
294.6754, 487.9189
295.1758, 493.1482
295.6761, 497.0504
296.1764, 500.8427
296.6767, 505.6394
297.1770, 504.4365
297.6773, 498.1793
298.1776, 492.8653
298.6780, 497.9082
299.1783, 503.2452
299.6786, 499.9735
300.1789, 486.7816
300.6792, 475.7554
301.1795, 469.2045
301.6798, 465.7656
302.1802, 460.7032
302.6805, 455.1436
303.1808, 445.4435
303.6811, 429.6954
304.1814, 412.8655
304.6817, 400.0413
305.1820, 395.7835
305.6824, 394.3919
306.1827, 388.6802
306.6830, 376.9767
307.1833, 363.3544
307.6836, 354.4927
308.1839, 347.3628
308.6842, 342.0814
309.1846, 335.6661
309.6849, 327.6241
310.1852, 318.8927
310.6855, 309.2192
311.1858, 304.0122
311.6861, 302.1902
312.1864, 298.7159
312.6868, 290.4133
313.1871, 278.1876
313.6874, 270.8138
314.1877, 271.4979
314.6880, 268.8817
315.1883, 261.2400
315.6886, 248.0005
316.1890, 239.4844
316.6893, 236.3586
317.1896, 238.1309
317.6899, 241.0401
318.1902, 241.4990
318.6905, 240.4195
319.1908, 235.3899
319.6912, 230.3815
320.1915, 223.5725
320.6918, 217.1458
321.1921, 213.7689
321.6924, 211.6276
322.1927, 211.7028
322.6930, 207.7745
323.1934, 200.1271
323.6937, 194.2798
324.1940, 192.4583
324.6943, 195.7567
325.1946, 199.5580
325.6949, 195.8473
326.1952, 187.1646
326.6956, 179.2983
327.1959, 183.2310
327.6962, 185.3055
328.1965, 183.5673
328.6968, 176.9083
329.1971, 178.3217
329.6974, 183.2072
330.1978, 182.2629
330.6981, 176.9772
331.1984, 170.6793
331.6987, 169.7402
332.1990, 168.0487
332.6993, 166.2148
333.1996, 163.4202
333.7000, 162.0753
334.2003, 162.7284
334.7006, 163.0532
335.2009, 162.8098
335.7012, 157.9200
336.2015, 150.2905
336.7018, 142.4006
337.2021, 139.4058
337.7025, 141.0670
338.2028, 142.5605
338.7031, 138.8453
339.2034, 134.7022
339.7037, 133.2778
340.2040, 134.0330
340.7043, 130.9485
341.2047, 127.1938
341.7050, 120.2399
342.2053, 113.6041
342.7056, 106.6385
343.2059, 103.4972
343.7062, 105.9694
344.2065, 109.0507
344.7068, 110.2618
345.2072, 106.8389
345.7075, 100.1292
346.2078, 95.73608
346.7081, 93.88135
347.2084, 93.53204
347.7087, 89.39337
348.2090, 86.64630
348.7094, 84.36469
349.2097, 82.49304
349.7100, 78.59021
350.2103, 75.33850
350.7106, 76.81958
351.2109, 77.22052
351.7112, 73.02625
352.2115, 71.20813
352.7119, 70.52448
353.2122, 75.18719
353.7125, 76.51440
354.2128, 78.39526
354.7131, 78.38788
355.2134, 75.67438
355.7137, 71.92358
356.2141, 70.26428
356.7144, 66.66791
357.2147, 64.35944
357.7150, 64.95679
358.2153, 70.98474
358.7156, 70.08209
359.2159, 68.30792
359.7162, 67.53595
360.2166, 72.58508
360.7169, 71.20227
361.2172, 67.57812
361.7175, 63.95496
362.2178, 63.72998
362.7181, 62.55396
363.2184, 61.38373
363.7188, 62.05902
364.2191, 62.63800
364.7194, 61.90625
365.2197, 58.24652
365.7200, 56.84515
366.2203, 57.86108
366.7206, 57.62238
367.2210, 52.73315
367.7213, 49.60675
368.2216, 52.07568
368.7219, 54.47662
369.2222, 51.40070
369.7225, 45.16394
370.2228, 41.34552
370.7232, 41.21039
371.2235, 41.60791
371.7238, 41.87531
372.2241, 39.98181
372.7244, 37.44727
373.2247, 34.58472
373.7250, 30.96802
374.2254, 25.65259
374.7257, 23.85114
375.2260, 23.76007
375.7263, 23.97748
376.2266, 19.69983
376.7269, 14.94159
377.2272, 11.88159
377.7276, 9.269043
378.2279, 7.145752
378.7282, 5.963562
379.2285, 6.132019
379.7288, 7.839722
380.2291, 7.102417
380.7294, 4.417236
381.2298, 0.3915410
381.7301, 0.4789430
382.2304, 0.5024410
382.7307, 0.8789060
383.2310, 3.006775
383.7313, 6.549316
384.2316, 6.558350
384.7320, 9.220398
385.2323, 10.07544
385.7326, 9.106384
386.2329, 7.776062
386.7332, 5.065002
387.2335, 7.269470
387.7338, 7.317993
388.2342, 6.790344
388.7345, 8.472168
389.2348, 9.848206
389.7351, 12.23718
390.2354, 13.27368
390.7357, 16.27234
391.2360, 16.46277
391.7364, 15.58118
392.2367, 13.58386
392.7370, 13.30328
393.2373, 11.91260
393.7376, 8.274597
394.2379, 4.379089
394.7382, 1.228210
395.2386, 2.294800
395.7389, 4.846069
396.2392, 8.239258
396.7395, 8.933289
397.2398, 9.313477
397.7401, 10.60022
398.2404, 11.03815
398.7408, 9.218506
399.2411, 4.294739
399.7414, 2.509888
400.2417, 0.9617920
400.7420, 1.327026
401.2423, 0.6502080
401.7426, 1.238098
402.2430, 3.734741
402.7433, 5.582886
403.2436, 5.471252
403.7439, 4.843933
404.2442, 10.44983
404.7445, 16.69849
405.2448, 22.73846
405.7451, 24.15332
406.2455, 25.67346
406.7458, 24.55792
407.2461, 21.98456
407.7464, 21.06573
408.2467, 24.81989
408.7470, 32.53046
409.2473, 37.09259
409.7477, 37.68890
410.2480, 36.83093
410.7483, 40.22107
411.2486, 44.67499
411.7489, 47.55084
412.2492, 48.17334
412.7495, 50.99792
413.2498, 57.08740
413.7502, 62.08301
414.2505, 63.57001
414.7508, 59.94269
415.2511, 56.51617
415.7514, 55.06647
416.2517, 55.14661
416.7520, 57.15991
417.2523, 58.71326
417.7527, 59.58887
418.2530, 58.09015
418.7533, 58.22125
419.2536, 56.06519
419.7539, 55.03857
420.2542, 55.55756
420.7545, 57.80640
421.2549, 57.55823
421.7552, 52.77289
422.2555, 49.83057
422.7558, 50.98737
423.2561, 51.53430
423.7564, 52.47815
424.2567, 49.98322
424.7570, 46.41113
425.2574, 43.18085
425.7577, 41.09399
426.2580, 43.33160
426.7583, 45.13733
427.2586, 47.41095
427.7589, 48.73389
428.2592, 48.66235
428.7596, 48.88062
429.2599, 48.05096
429.7602, 46.67633
430.2605, 46.48718
430.7608, 45.60651
431.2611, 45.99323
431.7614, 45.91321
432.2618, 45.88110
432.7621, 45.64301
433.2624, 43.70953
433.7627, 43.33905
434.2630, 44.70288
434.7633, 47.07581
435.2636, 48.68268
435.7640, 46.98834
436.2643, 44.75684
436.7646, 44.29517
437.2649, 46.88037
437.7652, 50.02502
438.2655, 49.58136
438.7658, 45.46820
439.2662, 41.50586
439.7665, 42.07562
440.2668, 42.19891
440.7671, 43.79053
441.2674, 46.53918
441.7677, 48.08856
442.2680, 47.67627
442.7684, 43.76379
443.2687, 43.79156
443.7690, 44.33258
444.2693, 45.86243
444.7696, 43.96259
445.2699, 42.35364
445.7702, 39.65253
446.2706, 36.61749
446.7709, 36.69244
447.2712, 35.15887
447.7715, 37.16602
448.2718, 36.31665
448.7721, 35.25720
449.2724, 30.68341
449.7728, 24.95862
450.2731, 21.09882
450.7734, 20.17413
451.2737, 18.57379
451.7740, 20.31934
452.2743, 18.96576
452.7746, 16.72205
453.2750, 13.53418
453.7753, 11.98193
454.2756, 13.75745
454.7759, 14.12335
455.2762, 15.23254
455.7765, 11.52930
456.2768, 8.876648
456.7772, 6.299133
457.2775, 7.621216
457.7778, 7.524719
458.2781, 7.022034
458.7784, 7.186584
459.2787, 4.558838
459.7790, 4.546143
460.2794, 6.303406
460.7797, 7.701843
461.2800, 6.328674
461.7803, 1.479126
462.2806, 0.8839110
462.7809, 1.243713
463.2812, 0.2800290
463.7816, 2.423462
464.2819, 5.406250
464.7822, 6.515442
465.2825, 4.439697
465.7828, 5.758301
466.2831, 7.285645
466.7834, 8.158203
467.2838, 3.177490
467.7841, 1.893921
468.2844, 1.693176
468.7847, 2.040588
469.2850, 2.266968
469.7853, 4.541443
470.2856, 3.532043
470.7859, 1.166443
471.2863, 0.6939090
471.7866, 2.894897
472.2869, 5.288269
472.7872, 5.718140
473.2875, 5.681946
473.7878, 2.758911
474.2881, 0.2383420
474.7885, 1.632935
475.2888, 2.454346
475.7891, 0.2471310
476.2894, 2.670776
476.7897, 5.789185
477.2900, 5.037231
477.7903, 1.703369
478.2906, 0.2312620
478.7910, 1.206116
479.2913, 2.927612
479.7916, 0.2296750
480.2919, 0.4658810
480.7922, 4.034241
481.2925, 9.288086
481.7928, 7.532288
482.2932, 2.606995
482.7935, 2.290161
483.2938, 3.818848
483.7941, 5.201721
484.2944, 3.462891
484.7947, 3.002380
485.2950, 3.389404
485.7953, 3.778381
486.2957, 3.075684
486.7960, 1.639587
487.2963, 2.643616
487.7966, 2.881958
488.2969, 2.451904
488.7972, 0.3817750
489.2975, 2.631348
489.7979, 5.828308
490.2982, 6.920837
490.7985, 5.981628
491.2988, 5.951233
491.7991, 6.384277
492.2994, 6.967590
492.7997, 8.507690
493.3000, 9.719971
493.8004, 9.441528
494.3007, 8.997375
494.8010, 7.014404
495.3013, 6.709473
495.8016, 6.141663
496.3019, 8.619019
496.8022, 10.11841
497.3026, 8.875366
497.8029, 7.536499
498.3032, 6.801941
498.8035, 7.573242
499.3038, 6.186340
499.8041, 4.539246
500.3044, 4.609192
500.8048, 7.917603
501.3051, 10.78052
501.8054, 9.319092
502.3057, 8.091797
502.8060, 7.774536
503.3063, 11.06073
503.8066, 13.24835
504.3070, 14.63910
504.8073, 11.48944
505.3076, 7.959839
505.8079, 3.964111
506.3082, 2.292664
506.8085, 0.7926030
507.3088, 0.9592900
507.8092, 5.200500
508.3095, 8.183228
508.8098, 6.663696
509.3101, 4.687012
509.8104, 6.929260
510.3107, 11.82343
510.8110, 13.68268
511.3114, 12.84979
511.8117, 14.44263
512.3120, 15.40570
512.8123, 14.83496
513.3126, 12.07483
513.8129, 10.47479
514.3132, 8.333435
514.8135, 10.23041
515.3138, 11.48969
515.8142, 12.54132
516.3145, 10.92761
516.8148, 13.49921
517.3151, 15.69055
517.8154, 18.67950
518.3157, 19.78510
518.8160, 20.78156
519.3164, 18.22864
519.8167, 14.68176
520.3170, 15.81647
520.8173, 20.72076
521.3176, 25.15802
521.8179, 25.88080
522.3182, 22.56781
522.8186, 18.59338
523.3189, 16.67059
523.8192, 18.48938
524.3195, 19.18964
524.8198, 20.58832
525.3201, 20.83398
525.8204, 22.27997
526.3208, 20.30518
526.8211, 15.45239
527.3214, 14.59863
527.8217, 18.56659
528.3220, 25.82117
528.8223, 28.10370
529.3226, 25.00391
529.8230, 23.37439
530.3233, 20.93378
530.8236, 18.36505
531.3239, 16.32446
531.8242, 18.12988
532.3245, 20.37384
532.8248, 19.90039
533.3252, 19.17188
533.8255, 19.84937
534.3258, 20.11945
534.8261, 17.75391
535.3264, 17.16608
535.8267, 19.13873
536.3270, 23.68030
536.8274, 25.08026
537.3277, 24.07068
537.8280, 22.37555
538.3283, 23.50580
538.8286, 25.86487
539.3289, 25.85858
539.8292, 24.24121
540.3296, 22.72498
540.8299, 23.74243
541.3302, 23.60785
541.8305, 24.64319
542.3308, 23.46094
542.8311, 23.51642
543.3314, 20.97083
543.8318, 19.93915
544.3321, 23.31714
544.8324, 26.64893
545.3327, 30.05878
545.8330, 29.10602
546.3333, 26.78644
546.8336, 24.23151
547.3340, 21.87488
547.8343, 20.86121
548.3346, 20.32141
548.8349, 20.84149
549.3352, 23.39691
549.8355, 26.13116
550.3358, 27.89270
550.8362, 28.14722
551.3365, 28.94800
551.8368, 27.62531
552.3371, 29.13544
552.8374, 28.89905
553.3377, 29.08264
553.8380, 25.71631
554.3384, 23.57959
554.8387, 25.56012
555.3390, 27.59998
555.8393, 29.23022
556.3396, 29.89081
556.8399, 29.92761
557.3402, 28.86206
557.8406, 27.03394
558.3409, 26.31940
558.8412, 26.40387
559.3415, 27.51465
559.8418, 28.33807
560.3421, 29.15936
560.8424, 29.15033
561.3428, 30.39935
561.8431, 31.28369
562.3434, 32.52570
562.8437, 30.61371
563.3440, 29.19543
563.8443, 28.56384
564.3446, 29.60834
564.8450, 30.54431
565.3453, 31.33234
565.8456, 31.48425
566.3459, 30.25934
566.8462, 30.66913
567.3465, 29.75006
567.8468, 31.60345
568.3472, 31.86694
568.8475, 34.28125
569.3478, 32.29010
569.8481, 29.32111
570.3484, 30.19806
570.8487, 34.13593
571.3490, 34.90045
571.8494, 31.91431
572.3497, 31.67596
572.8500, 33.51990
573.3503, 34.16577
573.8506, 31.87958
574.3509, 30.81549
574.8512, 29.00476
575.3516, 27.37103
575.8519, 26.97437
576.3522, 30.02924
576.8525, 32.22949
577.3528, 31.34924
577.8531, 29.12701
578.3534, 28.59479
578.8538, 29.59564
579.3541, 30.70490
579.8544, 31.52557
580.3547, 30.00513
580.8550, 29.39789
581.3553, 29.72754
581.8556, 31.52600
582.3560, 31.10181
582.8563, 28.87634
583.3566, 26.97369
583.8569, 27.65338
584.3572, 30.96509
584.8575, 34.07410
585.3578, 34.40814
585.8582, 32.43622
586.3585, 30.31689
586.8588, 29.43591
587.3591, 30.26367
587.8594, 32.02966
588.3597, 34.24445
588.8600, 35.06177
589.3604, 34.70453
589.8607, 32.62994
590.3610, 31.24487
590.8613, 30.77795
591.3616, 31.32642
591.8619, 30.54108
592.3622, 29.15063
592.8625, 28.41650
593.3629, 27.19196
593.8632, 28.35632
594.3635, 30.62946
594.8638, 33.46948
595.3641, 35.86157
595.8644, 34.45752
596.3647, 32.72205
596.8651, 31.68542
597.3654, 34.45642
597.8657, 30.88654
598.3660, 31.03424
598.8663, 29.19098
599.3666, 33.11566
599.8669, 31.13385
600.3672, 30.69482
600.8676, 30.38470
601.3679, 32.59595
601.8682, 33.33630
602.3685, 33.55975
602.8688, 31.45331
603.3691, 29.45996
603.8694, 30.30322
604.3698, 30.81091
604.8701, 31.14209
605.3704, 30.20520
605.8707, 27.07776
606.3710, 27.05115
606.8713, 27.46832
607.3716, 30.92114
607.8719, 32.89227
608.3723, 31.58179
608.8726, 30.64124
609.3729, 29.16412
609.8732, 30.46130
610.3735, 30.17340
610.8738, 28.99005
611.3741, 27.44843
611.8745, 27.03314
612.3748, 26.58722
612.8751, 25.47540
613.3754, 22.81934
613.8757, 22.45111
614.3760, 23.20831
614.8763, 25.82440
615.3766, 26.55835
615.8770, 25.79547
616.3773, 24.25208
616.8776, 21.45807
617.3779, 17.27954
617.8782, 13.61761
618.3785, 15.15491
618.8788, 18.77771
619.3792, 22.63501
619.8795, 21.31403
620.3798, 19.78772
620.8801, 17.81512
621.3804, 16.80908
621.8807, 16.27789
622.3810, 14.24542
622.8813, 11.73798
623.3817, 10.23792
623.8820, 11.14276
624.3823, 13.44397
624.8826, 13.87763
625.3829, 13.28192
625.8832, 12.59436
626.3835, 12.17822
626.8839, 10.81445
627.3842, 9.885803
627.8845, 10.35327
628.3848, 11.17365
628.8851, 10.68164
629.3854, 9.188721
629.8857, 9.179626
630.3860, 9.625549
630.8864, 9.702454
631.3867, 7.211121
631.8870, 4.656738
632.3873, 5.773926
632.8876, 8.312195
633.3879, 10.10541
633.8882, 8.601318
634.3885, 7.947632
634.8889, 7.525391
635.3892, 7.743103
635.8895, 6.304443
636.3898, 5.072876
636.8901, 3.406616
637.3904, 2.033447
637.8907, 1.578857
638.3911, 0.9171750
638.8914, 1.537781
639.3917, 1.373962
639.8920, 1.536377
640.3923, 2.221008
640.8926, 3.776184
641.3929, 3.689758
641.8933, 1.855652
642.3936, 0.3494260
642.8939, 0.2240600
643.3942, 2.334839
643.8945, 2.555664
644.3948, 2.747986
644.8951, 1.380249
645.3955, 0.2010500
645.8958, 2.043274
646.3961, 3.111755
646.8964, 2.302612
647.3967, 1.513184
647.8970, 0.8588870
648.3973, 1.3306000E-02
648.8977, 1.324341
649.3980, 1.682373
649.8983, 2.490112
650.3986, 3.167786
650.8989, 1.745178
651.3992, 0.3750610
651.8995, 2.393677
652.3999, 1.927979
652.9002, 1.205017
653.4005, 1.033508
653.9008, 1.703735
654.4011, 3.245117
654.9014, 4.223816
655.4017, 2.695618
655.9021, 0.1193240
656.4024, 1.131775
656.9027, 0.5155030
657.4030, 0.6648560
657.9033, 0.5446780
658.4036, 9.0576001E-02
658.9039, 0.6837160
659.4043, 0.9802860
659.9046, 1.791809
660.4049, 3.465454
660.9052, 2.690857
661.4055, 2.038696
661.9058, 1.248474
662.4061, 4.118591
662.9065, 5.462891
663.4068, 4.867065
663.9071, 7.072021
664.4074, 8.042908
664.9077, 9.005737
665.4080, 6.468628
665.9083, 4.213379
666.4087, 6.589050
666.9090, 8.205017
667.4093, 9.700317
667.9096, 8.042847
668.4099, 10.52936
668.9102, 9.047546
669.4105, 5.944763
669.9109, 1.2146000E-02
670.4112, 9.9914998E-02
670.9115, 1.670898
671.4118, 4.037537
671.9121, 6.179932
672.4124, 7.690308
672.9127, 8.308838
673.4131, 8.960449
673.9134, 6.252197
674.4137, 4.349426
674.9140, 2.878723
675.4143, 5.472351
675.9146, 8.279724
676.4149, 11.47516
676.9153, 13.81232
677.4156, 14.79034
677.9159, 13.72632
678.4162, 12.26208
678.9165, 15.85669
679.4168, 17.35785
679.9171, 18.35846
680.4175, 14.45453
680.9178, 13.74786
681.4181, 15.67419
681.9184, 18.65125
682.4187, 19.88953
682.9190, 19.34961
683.4193, 19.49872
683.9197, 21.78400
684.4200, 23.34753
684.9203, 21.33490
685.4206, 19.01477
685.9209, 19.29230
686.4212, 20.92188
686.9215, 22.32111
687.4219, 23.06183
687.9222, 23.94940
688.4225, 23.91895
688.9228, 23.62048
689.4231, 22.47223
689.9234, 22.70276
690.4237, 22.98602
690.9241, 23.95905
691.4244, 22.19684
691.9247, 21.14844
692.4250, 19.44324
692.9253, 20.11725
693.4256, 19.30341
693.9259, 18.50671
694.4263, 18.80469
694.9266, 20.39441
695.4269, 21.68237
695.9272, 20.82324
696.4275, 19.46271
696.9278, 18.12268
697.4281, 17.67407
697.9285, 16.38190
698.4288, 16.85516
698.9291, 18.01971
699.4294, 20.15881
699.9297, 20.10864
700.4300, 20.47223
700.9303, 19.59515
701.4307, 20.30969
701.9310, 23.15466
702.4313, 23.40021
702.9316, 22.34448
703.4319, 18.68365
703.9322, 19.68396
704.4325, 23.08929
704.9329, 22.03113
705.4332, 20.11359
705.9335, 17.66388
706.4338, 19.74622
706.9341, 23.21851
707.4344, 28.76678
707.9347, 28.46973
708.4351, 24.21014
708.9354, 18.51617
709.4357, 19.34314
709.9360, 22.00415
710.4363, 26.16455
710.9366, 28.55731
711.4369, 31.19885
711.9373, 31.83575
712.4376, 30.18463
712.9379, 30.07495
713.4382, 29.12646
713.9385, 30.27191
714.4388, 30.00885
714.9391, 31.47876
715.4394, 32.84528
715.9398, 32.20605
716.4401, 29.52130
716.9404, 27.57770
717.4407, 27.41937
717.9410, 28.00189
718.4413, 30.02936
718.9416, 32.74628
719.4420, 35.42548
719.9423, 35.36725
720.4426, 30.68671
720.9429, 30.06885
721.4432, 32.51105
721.9435, 38.51935
722.4438, 39.75928
722.9442, 39.87433
723.4445, 40.79303
723.9448, 40.84045
724.4451, 40.68298
724.9454, 41.22205
725.4457, 43.76453
725.9460, 48.67896
726.4464, 51.24585
726.9467, 51.97675
727.4470, 49.58508
727.9473, 48.76154
728.4476, 48.23883
728.9479, 47.82550
729.4482, 46.65002
729.9485, 46.44128
730.4489, 46.55603
730.9492, 46.82629
731.4495, 47.49774
731.9498, 49.69147
732.4501, 52.67963
732.9504, 55.28949
733.4507, 56.58087
733.9510, 56.99738
734.4514, 53.60400
734.9517, 49.72644
735.4520, 47.61670
735.9523, 49.46442
736.4526, 48.80817
736.9529, 48.32404
737.4532, 46.58484
737.9536, 47.50305
738.4539, 47.18152
738.9542, 43.88904
739.4545, 42.30139
739.9548, 40.99585
740.4551, 44.19971
740.9554, 46.45093
741.4557, 49.17096
741.9561, 49.02710
742.4564, 49.12140
742.9567, 49.06012
743.4570, 51.20770
743.9573, 50.92450
744.4576, 49.28412
744.9579, 45.05200
745.4583, 44.71173
745.9586, 44.24847
746.4589, 43.70184
746.9592, 42.19031
747.4595, 42.21698
747.9598, 45.50012
748.4601, 47.23889
748.9604, 48.44501
749.4608, 50.05261
749.9611, 48.20569
750.4614, 45.12042
750.9617, 41.19781
751.4620, 39.26514
751.9623, 36.56104
752.4626, 37.44653
752.9630, 39.29645
753.4633, 41.60254
753.9636, 40.43561
754.4639, 39.29022
754.9642, 36.34082
755.4645, 33.50726
755.9648, 33.61554
756.4651, 36.17322
756.9655, 37.86249
757.4658, 37.71887
757.9661, 36.91571
758.4664, 35.14349
758.9667, 31.23132
759.4670, 28.65717
759.9673, 28.90033
760.4677, 29.67236
760.9680, 27.90479
761.4683, 26.13245
761.9686, 25.28564
762.4689, 24.34485
762.9692, 19.08301
763.4695, 15.32562
763.9698, 12.95160
764.4702, 14.08142
764.9705, 15.63220
765.4708, 19.32489
765.9711, 18.71051
766.4714, 16.87061
766.9717, 15.22760
767.4720, 17.20776
767.9724, 16.11060
768.4727, 11.19525
768.9730, 10.39960
769.4733, 10.62799
769.9736, 13.47968
770.4739, 11.69574
770.9742, 8.317810
771.4745, 2.896118
771.9749, 1.631836
772.4752, 3.860474
772.9755, 6.412231
773.4758, 3.064697
773.9761, 2.616272
774.4764, 1.013916
774.9767, 1.220947
775.4771, 3.804871
775.9774, 0.2561650
776.4777, 1.491699
776.9780, 3.089417
777.4783, 4.849670
777.9786, 7.496826
778.4789, 8.850647
778.9793, 9.567444
779.4796, 10.42853
779.9799, 9.798035
780.4802, 10.46759
780.9805, 11.99609
781.4808, 15.53503
781.9811, 15.96637
782.4815, 11.73804
782.9818, 11.72296
783.4821, 11.61957
783.9824, 12.55579
784.4827, 8.578857
784.9830, 6.066528
785.4833, 8.052246
785.9837, 7.300720
786.4840, 8.371277
786.9843, 9.247620
787.4846, 14.04388
787.9849, 16.16119
788.4852, 13.18219
788.9855, 8.445496
789.4859, 6.627136
789.9862, 9.206543
790.4865, 12.83276
790.9868, 13.44165
791.4871, 11.91101
791.9874, 12.75781
792.4877, 15.87122
792.9881, 16.35358
793.4884, 11.56567
793.9887, 8.713135
794.4890, 8.431458
794.9893, 10.89148
795.4896, 9.604248
795.9899, 5.018921
796.4903, 0.5604860
796.9906, 1.512146
797.4909, 5.884888
797.9912, 8.066467
798.4915, 4.938721
798.9918, 3.452759
799.4921, 3.683594
799.9925, 6.367432
800.4928, 7.112488
800.9931, 7.925354
801.4934, 8.399048
801.9937, 6.905151
802.4940, 4.270447
802.9943, 2.256348
803.4947, 1.523560
803.9950, 0.6232910
804.4953, 1.531433
804.9956, 1.581787
805.4959, 4.902527
805.9962, 11.48596
806.4965, 11.66534
806.9969, 9.979126
807.4972, 13.24872
807.9975, 9.587585
808.4978, 10.31842
808.9981, 9.845581
809.4984, 17.17780
809.9987, 18.22430
810.4991, 16.33258
810.9994, 18.01086
811.4997, 21.82367
812.0000, 24.18652
812.5003, 23.92383
813.0006, 26.76672
813.5009, 34.71503
814.0013, 41.48700
814.5016, 43.98572
815.0019, 41.21210
815.5022, 38.46039
816.0025, 38.72766
816.5028, 44.04700
817.0031, 48.79211
817.5035, 52.72253
818.0038, 54.55243
818.5041, 55.93671
819.0044, 59.11328
819.5047, 62.08691
820.0050, 66.83777
820.5053, 69.05920
821.0057, 71.34668
821.5060, 76.20935
822.0063, 79.17969
822.5066, 83.98645
823.0069, 86.38147
823.5072, 88.52051
824.0075, 87.53467
824.5079, 93.58789
825.0082, 97.43872
825.5085, 106.0479
826.0088, 111.3633
826.5091, 121.5841
827.0094, 127.1696
827.5097, 128.7927
828.0101, 133.0201
828.5104, 138.5690
829.0107, 145.9733
829.5110, 153.6289
830.0113, 165.8594
830.5116, 173.4479
831.0119, 176.2722
831.5123, 175.2533
832.0126, 182.4967
832.5129, 196.9680
833.0132, 213.5176
833.5135, 227.4832
834.0138, 233.2666
834.5141, 235.7377
835.0145, 241.1785
835.5148, 255.7291
836.0151, 269.4548
836.5154, 279.9525
837.0157, 289.5898
837.5160, 300.7833
838.0163, 308.9943
838.5167, 315.2108
839.0170, 320.9552
839.5173, 335.2327
840.0176, 345.9380
840.5179, 356.4468
841.0182, 365.0522
841.5185, 379.1335
842.0189, 393.6410
842.5192, 409.1534
843.0195, 424.6575
843.5198, 443.6511
844.0201, 461.0804
844.5204, 478.7732
845.0207, 493.4122
845.5211, 506.3552
846.0214, 524.1431
846.5217, 550.8884
847.0220, 577.7400
847.5223, 598.8276
848.0226, 613.0863
848.5229, 634.1123
849.0233, 656.7006
849.5236, 678.4037
850.0239, 696.5284
850.5242, 720.3428
851.0245, 755.2272
851.5248, 787.7416
852.0251, 813.8038
852.5255, 839.5023
853.0258, 878.8760
853.5261, 911.5151
854.0264, 942.9700
854.5267, 968.3064
855.0270, 1006.409
855.5273, 1044.341
856.0276, 1081.166
856.5280, 1124.910
857.0283, 1174.106
857.5286, 1225.239
858.0289, 1271.651
858.5292, 1318.740
859.0295, 1367.490
859.5298, 1412.500
860.0302, 1462.366
860.5305, 1518.742
861.0308, 1584.807
861.5311, 1650.002
862.0314, 1709.156
862.5317, 1773.940
863.0320, 1829.866
863.5323, 1894.529
864.0327, 1963.478
864.5330, 2041.645
865.0333, 2119.416
865.5336, 2196.250
866.0339, 2283.749
866.5342, 2374.557
867.0345, 2459.762
867.5349, 2542.193
868.0352, 2624.341
868.5355, 2717.822
869.0358, 2816.223
869.5361, 2920.375
870.0364, 3018.084
870.5367, 3109.317
871.0370, 3208.044
871.5374, 3294.687
872.0377, 3387.235
872.5380, 3476.395
873.0383, 3578.454
873.5386, 3678.016
874.0389, 3767.773
874.5392, 3865.715
875.0396, 3956.969
875.5399, 4046.971
876.0402, 4127.620
876.5405, 4202.784
877.0408, 4277.595
877.5411, 4344.141
878.0414, 4408.953
878.5417, 4467.589
879.0421, 4523.617
879.5424, 4574.367
880.0427, 4621.471
880.5430, 4652.342
881.0433, 4673.838
881.5436, 4693.042
882.0439, 4725.534
882.5443, 4751.811
883.0446, 4754.157
883.5449, 4746.227
884.0452, 4740.565
884.5455, 4747.484
885.0458, 4751.218
885.5461, 4732.452
886.0464, 4698.258
886.5468, 4656.901
887.0471, 4619.007
887.5474, 4578.306
888.0477, 4537.772
888.5480, 4498.441
889.0483, 4445.068
889.5486, 4380.657
890.0490, 4319.315
890.5493, 4272.720
891.0496, 4223.208
891.5499, 4161.614
892.0502, 4095.385
892.5505, 4010.200
893.0508, 3924.729
893.5511, 3836.652
894.0515, 3755.863
894.5518, 3673.007
895.0521, 3589.265
895.5524, 3513.345
896.0527, 3441.127
896.5530, 3366.570
897.0533, 3287.223
897.5536, 3198.200
898.0540, 3117.272
898.5543, 3036.442
899.0546, 2958.677
899.5549, 2871.663
900.0552, 2789.261
900.5555, 2707.223
901.0558, 2623.555
901.5562, 2547.495
902.0565, 2483.708
902.5568, 2427.721
903.0571, 2362.444
903.5574, 2275.453
904.0577, 2198.631
904.5580, 2123.325
905.0584, 2066.455
905.5587, 2001.041
906.0590, 1939.699
906.5593, 1879.438
907.0596, 1822.281
907.5599, 1769.677
908.0602, 1721.836
908.5606, 1674.405
909.0609, 1624.210
909.5612, 1565.766
910.0615, 1519.306
910.5618, 1478.570
911.0621, 1442.173
911.5624, 1395.646
912.0627, 1351.887
912.5631, 1303.642
913.0634, 1257.742
913.5637, 1210.203
914.0640, 1170.254
914.5643, 1126.281
915.0646, 1081.359
915.5649, 1038.937
916.0653, 990.1930
916.5656, 953.6284
917.0659, 928.8865
917.5662, 910.4722
918.0665, 872.3378
918.5668, 831.5867
919.0671, 802.2898
919.5675, 785.3826
920.0678, 774.2310
920.5681, 760.5344
921.0684, 743.7545
921.5687, 724.8706
922.0690, 701.1462
922.5693, 678.6257
923.0697, 652.1287
923.5700, 633.5752
924.0703, 619.2776
924.5706, 602.6757
925.0709, 582.5273
925.5712, 555.7405
926.0715, 538.5090
926.5719, 529.2352
927.0722, 527.7583
927.5725, 518.6782
928.0728, 501.5675
928.5731, 480.4110
929.0734, 459.9095
929.5737, 442.6678
930.0741, 429.2133
930.5744, 416.3369
931.0747, 400.8568
931.5750, 374.9528
932.0753, 357.6775
932.5756, 340.8514
933.0759, 330.2739
933.5763, 314.4451
934.0766, 305.8171
934.5769, 297.2355
935.0772, 287.1511
935.5775, 271.9592
936.0778, 262.2535
936.5781, 253.4921
937.0785, 244.6846
937.5788, 244.1112
938.0791, 238.7716
938.5794, 234.1848
939.0797, 217.3297
939.5800, 200.3193
940.0803, 185.7212
940.5807, 175.8618
941.0810, 170.7856
941.5813, 165.9308
942.0816, 159.9561
942.5819, 152.6414
943.0822, 145.0789
943.5825, 141.8342
944.0829, 142.3813
944.5832, 140.9891
945.0835, 136.9636
945.5838, 132.5797
946.0841, 129.5382
946.5844, 122.7179
947.0847, 121.2412
947.5851, 117.8656
948.0854, 114.7391
948.5857, 102.3186
949.0860, 90.88708
949.5863, 82.92273
950.0866, 77.43762
950.5869, 70.96143
951.0873, 59.28003
951.5876, 45.81897
952.0879, 32.67944
952.5882, 19.93005
953.0885, 14.60205
953.5888, 8.543213
954.0891, 8.042480
954.5895, 0.2772220
955.0898, 8.733765
955.5901, 17.43945
956.0904, 21.39478
956.5907, 24.72888
957.0910, 23.15759
957.5913, 24.56030
958.0917, 23.83228
958.5920, 26.95117
959.0923, 32.43481
959.5926, 33.54626
960.0929, 35.20642
960.5932, 33.86230
961.0935, 35.26526
961.5939, 36.88269
962.0942, 39.89111
962.5945, 38.41052
963.0948, 38.16016
963.5951, 37.09521
964.0954, 41.66211
964.5957, 42.25244
965.0961, 36.02246
965.5964, 25.31409
966.0967, 20.11707
966.5970, 22.08643
967.0973, 21.36633
967.5976, 15.80042
968.0979, 12.72717
968.5983, 16.88074
969.0986, 24.65454
969.5989, 20.87134
970.0992, 16.06360
970.5995, 8.615479
971.0998, 8.554443
971.6001, 11.89331
972.1005, 13.50330
972.6008, 5.583496
973.1011, 2.535278
973.6014, 5.574707
974.1017, 2.532227
974.6020, 7.724365
975.1023, 4.891113
975.6027, 1.382202
976.1030, 2.176758
976.6033, 5.863159
977.1036, 3.978394
977.6039, 3.649780
978.1042, 7.125000
978.6045, 8.283813
979.1049, 12.02454
979.6052, 14.86646
980.1055, 17.62427
980.6058, 17.83740
981.1061, 17.93445
981.6064, 14.80298
982.1067, 15.02295
982.6071, 9.387573
983.1074, 6.630615
983.6077, 3.736450
984.1080, 10.43616
984.6083, 12.99524
985.1086, 13.34009
985.6089, 10.27075
986.1093, 12.45166
986.6096, 11.10535
987.1099, 10.21594
987.6102, 8.281006
988.1105, 11.71069
988.6108, 18.24719
989.1111, 25.37573
989.6115, 27.57300
990.1118, 26.95850
990.6121, 24.76794
991.1124, 26.87244
991.6127, 31.25720
992.1130, 30.11292
992.6133, 32.83582
993.1136, 36.06592
993.6140, 43.43250
994.1143, 44.87939
994.6146, 43.43555
995.1149, 41.39221
995.6152, 38.20837
996.1155, 38.73096
996.6158, 43.93335
997.1161, 51.63806
997.6165, 58.50269
998.1168, 62.33008
998.6171, 64.63623
999.1174, 67.13513
999.6177, 71.65918
1000.118, 74.80591
1000.618, 75.78479
1001.119, 77.93469
1001.619, 80.70740
1002.119, 95.08154
1002.620, 101.8418
1003.120, 104.8495
1003.620, 98.76941
1004.121, 98.01172
1004.621, 97.10022
1005.121, 100.5956
1005.621, 105.7252
1006.122, 111.9382
1006.622, 113.5712
1007.122, 116.0217
1007.623, 118.7100
1008.123, 120.3258
1008.623, 122.8817
1009.124, 127.7764
1009.624, 133.1779
1010.124, 136.3394
1010.625, 141.6700
1011.125, 147.3306
1011.625, 146.7832
1012.126, 147.8539
1012.626, 147.3710
1013.126, 148.4993
1013.626, 145.0468
1014.127, 143.4808
1014.627, 140.8485
1015.127, 140.8779
1015.628, 140.8920
1016.128, 148.0956
1016.628, 150.5117
1017.129, 145.8254
1017.629, 138.8711
1018.129, 136.8461
1018.630, 144.0060
1019.130, 146.6226
1019.630, 146.7383
1020.131, 144.2076
1020.631, 142.3523
1021.131, 135.1990
1021.632, 129.1458
1022.132, 124.6628
1022.632, 122.5510
1023.132, 119.8071
1023.633, 118.8702
1024.133, 117.0841
1024.633, 114.5916
1025.134, 114.2719
1025.634, 116.6559
1026.134, 119.5791
1026.635, 120.4069
1027.135, 120.3191
1027.635, 114.7847
1028.136, 111.0881
1028.636, 105.4731
1029.136, 102.2965
1029.636, 97.25818
1030.137, 97.29456
1030.637, 98.22949
1031.137, 95.62915
1031.638, 92.63074
1032.138, 91.01892
1032.638, 92.56860
1033.139, 97.66626
1033.639, 105.3861
1034.139, 111.3868
1034.640, 110.9668
1035.140, 106.1891
1035.640, 102.6162
1036.141, 103.5020
1036.641, 105.5428
1037.141, 109.2263
1037.642, 114.6553
1038.142, 116.5901
1038.642, 117.4274
1039.142, 120.0127
1039.643, 125.7708
1040.143, 133.9635
1040.643, 142.0187
1041.144, 152.8922
1041.644, 161.8983
1042.144, 161.0619
1042.645, 160.2999
1043.145, 161.7493
1043.645, 170.4415
1044.146, 178.3551
1044.646, 182.9146
1045.146, 183.7747
1045.647, 183.7313
1046.147, 190.3890
1046.647, 194.0350
1047.147, 195.8842
1047.648, 196.6029
1048.148, 203.6135
1048.648, 209.8413
1049.149, 210.7212
1049.649, 211.5656
1050.149, 215.9513
1050.650, 218.2284
1051.150, 216.5516
1051.650, 218.5974
1052.151, 225.2095
1052.651, 228.2900
1053.151, 225.5083
1053.652, 223.1504
1054.152, 228.1840
1054.652, 232.6998
1055.153, 231.3550
1055.653, 228.1351
1056.153, 218.4863
1056.653, 217.8855
1057.154, 217.5660
1057.654, 224.4308
1058.154, 229.6345
1058.655, 239.0388
1059.155, 250.4192
1059.655, 253.1910
1060.156, 250.7904
1060.656, 244.1097
1061.156, 242.6990
1061.657, 245.0610
1062.157, 246.1755
1062.657, 250.0439
1063.158, 251.6827
1063.658, 263.1327
1064.158, 269.1765
1064.658, 272.6886
1065.159, 271.4753
1065.659, 267.0149
1066.159, 267.2615
1066.660, 270.8566
1067.160, 280.7611
1067.660, 284.3499
1068.161, 282.6320
1068.661, 279.8219
1069.161, 274.7736
1069.662, 283.1816
1070.162, 295.9302
1070.662, 312.9900
1071.163, 320.4110
1071.663, 324.1605
1072.163, 327.7246
1072.664, 333.8031
1073.164, 341.4810
1073.664, 344.1782
1074.164, 345.4733
1074.665, 350.2417
1075.165, 360.5126
1075.665, 362.6716
1076.166, 362.5990
1076.666, 370.6456
1077.166, 387.8064
1077.667, 399.0695
1078.167, 402.1509
1078.667, 400.5426
1079.168, 403.1628
1079.668, 411.0044
1080.168, 418.1327
1080.669, 426.6252
1081.169, 431.9667
1081.669, 437.3093
1082.169, 436.1945
1082.670, 430.9181
1083.170, 427.0684
1083.670, 428.5605
1084.171, 435.1853
1084.671, 445.3022
1085.171, 453.1692
1085.672, 460.6740
1086.172, 464.3052
1086.672, 463.3748
1087.173, 460.8823
1087.673, 459.4207
1088.173, 464.9735
1088.674, 470.2026
1089.174, 474.0303
1089.674, 473.0795
1090.175, 466.0516
1090.675, 456.7743
1091.175, 454.0012
1091.675, 449.4868
1092.176, 454.7021
1092.676, 455.0721
1093.176, 456.9185
1093.677, 450.1935
1094.177, 448.1721
1094.677, 452.2556
1095.178, 456.1992
1095.678, 455.8925
1096.178, 452.9525
1096.679, 447.3794
1097.179, 438.5127
1097.679, 428.7317
1098.180, 426.7081
1098.680, 412.4332
1099.180, 410.7100
1099.680, 408.7504
1100.181, 418.9363
1100.681, 414.1135
1101.181, 401.4302
1101.682, 394.7422
1102.182, 394.1553
1102.682, 388.9147
1103.183, 385.3419
1103.683, 377.0205
1104.183, 370.9946
1104.684, 365.5438
1105.184, 363.1935
1105.684, 367.9104
1106.185, 363.3894
1106.685, 354.9729
1107.185, 344.8168
1107.686, 337.9805
1108.186, 332.1915
1108.686, 325.4307
1109.186, 323.5172
1109.687, 321.2028
1110.187, 318.1487
1110.687, 309.8606
1111.188, 307.1262
1111.688, 306.5011
1112.188, 303.2361
1112.689, 297.8333
1113.189, 283.9854
1113.689, 273.5712
1114.190, 258.2504
1114.690, 253.3643
1115.190, 251.7856
1115.691, 250.1980
1116.191, 244.1323
1116.691, 236.7709
1117.191, 234.9463
1117.692, 227.8011
1118.192, 220.7638
1118.692, 217.9312
1119.193, 220.5985
1119.693, 217.7181
1120.193, 212.3544
1120.694, 198.4996
1121.194, 192.2615
1121.694, 186.5833
1122.195, 189.2850
1122.695, 187.1384
1123.195, 184.3459
1123.696, 178.9226
1124.196, 170.3282
1124.696, 164.4688
1125.197, 161.2892
1125.697, 161.1953
1126.197, 156.7762
1126.697, 152.2899
1127.198, 145.7090
1127.698, 139.1461
1128.198, 130.4110
1128.699, 127.6030
1129.199, 126.4373
1129.699, 126.5756
1130.200, 119.7285
1130.700, 111.4879
1131.200, 110.1580
1131.701, 107.7865
1132.201, 111.5605
1132.701, 107.2332
1133.202, 105.0343
1133.702, 97.42090
1134.202, 96.13770
1134.702, 99.80188
1135.203, 101.6244
1135.703, 98.02991
1136.203, 87.48157
1136.704, 79.24414
1137.204, 77.47839
1137.704, 77.43164
1138.205, 69.61047
1138.705, 67.87683
1139.205, 70.47974
1139.706, 77.69507
1140.206, 71.87866
1140.706, 63.37952
1141.207, 57.62231
1141.707, 56.99097
1142.207, 57.74377
1142.708, 55.30115
1143.208, 54.93115
1143.708, 53.38269
1144.208, 52.76147
1144.709, 51.53271
1145.209, 51.34509
1145.709, 48.21130
1146.210, 47.74182
1146.710, 51.86609
1147.210, 49.77625
1147.711, 45.31787
1148.211, 34.06738
1148.711, 33.23230
1149.212, 32.15674
1149.712, 32.05359
1150.212, 30.82068
1150.713, 35.01294
1151.213, 33.17651
1151.713, 30.60291
1152.213, 19.57532
1152.714, 17.06787
1153.214, 18.73901
1153.714, 21.92590
1154.215, 20.91931
1154.715, 21.49768
1155.215, 19.49451
1155.716, 21.68372
1156.216, 19.47791
1156.716, 15.71509
1157.217, 9.346680
1157.717, 6.081787
1158.217, 11.22314
1158.718, 10.19934
1159.218, 9.200073
1159.718, 4.648926
1160.219, 6.272705
1160.719, 4.106201
1161.219, 0.6826170
1161.719, 3.718994
1162.220, 1.328125
1162.720, 1.417480
1163.220, 0.6219480
1163.721, 1.786621
1164.221, 1.466919
1164.721, 1.805908
1165.222, 3.921997
1165.722, 6.459839
1166.222, 7.263794
1166.723, 11.59375
1167.223, 15.30273
1167.723, 15.39368
1168.224, 14.43970
1168.724, 16.04688
1169.224, 18.57971
1169.724, 22.38464
1170.225, 16.23035
1170.725, 13.83130
1171.225, 7.761353
1171.726, 8.472046
1172.226, 8.657471
1172.726, 13.30103
1173.227, 13.79639
1173.727, 13.62573
1174.227, 9.427612
1174.728, 14.78796
1175.228, 15.69104
1175.728, 14.58850
1176.229, 10.00647
1176.729, 7.715820
1177.229, 9.329468
1177.729, 5.044189
1178.230, 1.945190
1178.730, 0.9512940
1179.230, 4.578857
1179.731, 7.656128
1180.231, 9.467407
1180.731, 9.979858
1181.232, 7.435913
1181.732, 3.558472
1182.232, 6.541748
1182.733, 3.686646
1183.233, 0.5131840
1183.733, 3.320435
1184.234, 7.035889
1184.734, 6.332031
1185.234, 6.447144
1185.734, 8.989258
1186.235, 10.76392
1186.735, 12.42114
1187.235, 14.51660
1187.736, 16.58911
1188.236, 21.64368
1188.736, 25.50317
1189.237, 28.03210
1189.737, 31.27075
1190.237, 30.13501
1190.738, 32.80298
1191.238, 33.53271
1191.738, 38.04919
1192.239, 38.58655
1192.739, 39.93066
1193.239, 44.80249
1193.740, 48.77307
1194.240, 48.32751
1194.740, 46.91077
1195.240, 49.73743
1195.741, 56.24011
1196.241, 61.46741
1196.741, 66.16345
1197.242, 73.06018
1197.742, 79.04578
1198.242, 81.85107
1198.743, 79.67603
1199.243, 77.92078
1199.743, 80.02722
1200.244, 85.96143
1200.744, 92.66040
1201.244, 97.11621
1201.745, 100.1746
1202.245, 101.0099
1202.745, 105.9150
1203.245, 109.5408
1203.746, 113.8125
1204.246, 114.1219
1204.746, 115.1033
1205.247, 120.1432
1205.747, 121.6600
1206.247, 124.8168
1206.748, 124.4824
1207.248, 130.4968
1207.748, 139.0452
1208.249, 149.0645
1208.749, 150.6908
1209.249, 148.9188
1209.750, 151.3079
1210.250, 159.8141
1210.750, 167.3342
1211.250, 169.5894
1211.751, 171.7585
1212.251, 173.8109
1212.751, 173.1604
1213.252, 177.3739
1213.752, 178.0535
1214.252, 178.0024
1214.753, 172.9055
1215.253, 173.4048
1215.753, 179.6582
1216.254, 176.6823
1216.754, 174.0376
1217.254, 162.9020
1217.755, 159.4653
1218.255, 165.9436
1218.755, 182.8054
1219.255, 198.0189
1219.756, 205.2766
1220.256, 208.0632
1220.756, 204.9547
1221.257, 195.0859
1221.757, 188.7523
1222.257, 193.2654
1222.758, 197.9481
1223.258, 200.4241
1223.758, 201.8264
1224.259, 205.0891
1224.759, 207.1165
1225.259, 203.6810
1225.760, 199.4176
1226.260, 196.2933
1226.760, 190.8707
1227.260, 188.4950
1227.761, 183.9456
1228.261, 182.1542
1228.761, 177.7152
1229.262, 173.4695
1229.762, 174.5072
1230.262, 181.5110
1230.763, 184.1954
1231.263, 184.4844
1231.763, 174.5339
1232.264, 168.4885
1232.764, 163.1213
1233.264, 163.8682
1233.765, 167.7517
1234.265, 171.5051
1234.765, 165.7074
1235.266, 160.4579
1235.766, 154.9095
1236.266, 158.3962
1236.766, 158.0693
1237.267, 157.4075
1237.767, 158.2805
1238.267, 156.6353
1238.768, 153.2336
1239.268, 148.2683
1239.768, 147.2900
1240.269, 137.3191
1240.769, 121.7633
1241.269, 112.3014
1241.770, 116.0107
1242.270, 127.1483
1242.770, 129.2424
1243.271, 129.0789
1243.771, 125.9401
1244.271, 124.8740
1244.771, 123.3188
1245.272, 121.3136
1245.772, 119.3563
1246.272, 110.9473
1246.773, 107.8893
1247.273, 105.5011
1247.773, 112.5170
1248.274, 112.3195
1248.774, 109.0975
1249.274, 108.3318
1249.775, 104.2620
1250.275, 97.05457
1250.775, 87.07251
1251.276, 84.96582
1251.776, 83.47144
1252.276, 75.94153
1252.776, 70.15320
1253.277, 74.81226
1253.777, 81.80005
1254.277, 83.20361
1254.778, 79.23206
1255.278, 78.65833
1255.778, 81.36963
1256.279, 81.33594
1256.779, 75.59521
1257.279, 72.70374
1257.780, 64.59741
1258.280, 64.87769
1258.780, 55.84827
1259.281, 54.68030
1259.781, 51.74902
1260.281, 55.23828
1260.781, 58.66724
1261.282, 58.63025
1261.782, 54.86292
1262.282, 55.18066
1262.783, 51.63159
1263.283, 49.00745
1263.783, 42.76257
1264.284, 39.04700
1264.784, 34.78589
1265.284, 35.57727
1265.785, 37.34692
1266.285, 42.37036
1266.785, 38.28455
1267.286, 34.86365
1267.786, 31.24829
1268.286, 28.46411
1268.787, 21.28308
1269.287, 21.07886
1269.787, 20.13708
1270.287, 25.02454
1270.788, 16.34534
1271.288, 11.31946
1271.788, 9.425293
1272.289, 13.94836
1272.789, 16.42419
1273.289, 12.51477
1273.790, 10.33423
1274.290, 10.31775
1274.790, 9.030151
1275.291, 4.583740
1275.791, 1.366577
1276.291, 0.5179440
1276.792, 1.660400
1277.292, 4.302002
1277.792, 3.478027
1278.292, 9.081787
1278.793, 15.30334
1279.293, 20.46423
1279.793, 15.29419
1280.294, 7.893921
1280.794, 0.8122560
1281.294, 1.361938
1281.795, 1.241455
1282.295, 0.4038090
1282.795, 0.5899660
1283.296, 4.687012
1283.796, 11.62659
1284.296, 14.61218
1284.797, 9.841675
1285.297, 1.171753
1285.797, 3.269897
1286.298, 0.9903560
1286.798, 10.40479
1287.298, 11.59192
1287.798, 12.67944
1288.299, 16.66028
1288.799, 20.46008
1289.299, 21.92749
1289.800, 19.98767
1290.300, 16.44141
1290.800, 14.21851
1291.301, 12.07422
1291.801, 11.75244
1292.301, 11.89673
1292.802, 6.139648
1293.302, 9.835938
1293.802, 6.210449
1294.303, 8.092041
1294.803, 1.911743
1295.303, 1.613037
1295.803, 2.791138
1296.304, 2.437378
1296.804, 7.321289
1297.304, 12.40576
1297.805, 13.06628
1298.305, 4.070190
1298.805, 3.912354
1299.306, 8.890991
1299.806, 13.39575
1300.306, 13.64844
1300.807, 7.334106
1301.307, 8.603638
1301.807, 10.24036
1302.308, 22.87671
1302.808, 27.45251
1303.308, 29.02759
1303.809, 24.83948
1304.309, 24.53552
1304.809, 30.63989
1305.309, 33.19812
1305.810, 40.46069
1306.310, 39.23108
1306.810, 44.57764
1307.311, 42.29248
1307.811, 45.58289
1308.311, 50.13904
1308.812, 56.10144
1309.312, 66.21216
1309.812, 63.74365
1310.313, 65.62732
1310.813, 69.26660
1311.313, 81.11450
1311.814, 86.08521
1312.314, 85.11877
1312.814, 84.38501
1313.314, 94.01025
1313.815, 98.77625
1314.315, 105.9746
1314.815, 105.8239
1315.316, 112.6395
1315.816, 118.8712
1316.316, 123.0906
1316.817, 125.9042
1317.317, 131.6042
1317.817, 126.5529
1318.318, 124.4351
1318.818, 132.5042
1319.318, 148.7629
1319.819, 158.0093
1320.319, 157.7018
1320.819, 163.2261
1321.320, 166.5734
1321.820, 174.5009
1322.320, 177.3785
1322.820, 182.8923
1323.321, 179.3102
1323.821, 185.8887
1324.321, 197.4193
1324.822, 205.2223
1325.322, 211.3500
1325.822, 217.0699
1326.323, 222.7634
1326.823, 231.4518
1327.323, 245.5516
1327.824, 258.2924
1328.324, 259.6858
1328.824, 257.1350
1329.325, 259.0760
1329.825, 263.6823
1330.325, 268.1432
1330.825, 274.2421
1331.326, 272.2531
1331.826, 269.7860
1332.326, 265.8943
1332.827, 268.3535
1333.327, 273.1223
1333.827, 282.2031
1334.328, 286.6952
1334.828, 292.6566
1335.328, 295.2745
1335.829, 303.6915
1336.329, 303.0613
1336.829, 299.7915
1337.330, 296.8079
1337.830, 296.1400
1338.330, 295.0137
1338.831, 301.3386
1339.331, 305.3077
1339.831, 307.7789
1340.331, 300.3339
1340.832, 295.1925
1341.332, 295.4246
1341.832, 299.1437
1342.333, 300.3219
1342.833, 297.3539
1343.333, 304.6583
1343.834, 309.6165
1344.334, 316.2385
1344.834, 312.7438
1345.335, 311.7903
1345.835, 308.5925
1346.335, 307.9355
1346.836, 312.7572
1347.336, 313.0104
1347.836, 305.7175
1348.336, 301.3008
1348.837, 305.0140
1349.337, 312.2621
1349.837, 312.8864
1350.338, 310.2859
1350.838, 307.9087
1351.338, 310.4663
1351.839, 310.7426
1352.339, 309.9736
1352.839, 307.2698
1353.340, 311.9486
1353.840, 311.2390
1354.340, 305.5042
1354.841, 304.7930
1355.341, 310.8643
1355.841, 321.4043
1356.342, 319.1804
1356.842, 315.7454
1357.342, 312.4755
1357.842, 318.4680
1358.343, 325.8202
1358.843, 331.2833
1359.343, 334.5266
1359.844, 332.5463
1360.344, 327.3340
1360.844, 326.8896
1361.345, 325.1793
1361.845, 330.1946
1362.345, 332.9937
1362.846, 340.0093
1363.346, 339.4674
1363.846, 333.5754
1364.347, 330.8923
1364.847, 334.9629
1365.347, 337.5323
1365.847, 335.3662
1366.348, 328.1211
1366.848, 324.8038
1367.348, 327.1591
1367.849, 332.5504
1368.349, 335.6575
1368.849, 336.4348
1369.350, 339.4194
1369.850, 345.6113
1370.350, 349.7539
1370.851, 349.3099
1371.351, 345.3820
1371.851, 343.3884
1372.352, 344.9010
1372.852, 348.2540
1373.352, 348.6071
1373.853, 340.2928
1374.353, 336.6331
1374.853, 334.8981
1375.353, 342.1182
1375.854, 341.9609
1376.354, 339.6353
1376.854, 337.8658
1377.355, 340.8553
1377.855, 345.8827
1378.355, 353.1721
1378.856, 355.8638
1379.356, 355.7734
1379.856, 346.8857
1380.357, 341.4772
1380.857, 344.0774
1381.357, 349.0055
1381.858, 345.5719
1382.358, 344.9028
1382.858, 353.5568
1383.358, 356.6792
1383.859, 352.6636
1384.359, 344.2139
1384.859, 347.4856
1385.360, 352.9377
1385.860, 359.4012
1386.360, 359.8251
1386.861, 356.3071
1387.361, 345.7612
1387.861, 350.8062
1388.362, 350.8597
1388.862, 355.1388
1389.362, 353.9991
1389.863, 360.4827
1390.363, 365.1653
1390.863, 364.0360
1391.364, 359.9236
1391.864, 351.3722
1392.364, 351.5819
1392.864, 355.3402
1393.365, 361.9351
1393.865, 362.7104
1394.365, 362.5311
1394.866, 362.0490
1395.366, 358.7594
1395.866, 350.1248
1396.367, 340.3035
1396.867, 336.9912
1397.367, 336.4166
1397.868, 344.8615
1398.368, 343.6492
1398.868, 339.2953
1399.369, 332.1367
1399.869, 330.9371
1400.369, 338.6608
1400.869, 339.6273
1401.370, 333.5703
1401.870, 322.3523
1402.370, 313.2935
1402.871, 313.9896
1403.371, 316.6427
1403.871, 318.0969
1404.372, 316.3954
1404.872, 315.1713
1405.372, 321.8986
1405.873, 326.4346
1406.373, 330.7786
1406.873, 326.8524
1407.374, 320.3639
1407.874, 312.7043
1408.374, 311.3998
1408.875, 315.2670
1409.375, 316.0760
1409.875, 312.4537
1410.375, 307.1377
1410.876, 306.1818
1411.376, 307.8457
1411.876, 304.7063
1412.377, 300.5490
1412.877, 295.8846
1413.377, 293.1331
1413.878, 290.8228
1414.378, 292.3619
1414.878, 294.7834
1415.379, 290.5828
1415.879, 282.2384
1416.379, 282.4758
1416.880, 288.1586
1417.380, 287.7825
1417.880, 279.2974
1418.380, 273.2701
1418.881, 271.3037
1419.381, 275.7683
1419.881, 275.5935
1420.382, 278.6194
1420.882, 273.0552
1421.382, 267.2267
1421.883, 260.2584
1422.383, 256.5682
1422.883, 250.8892
1423.384, 240.8665
1423.884, 235.2084
1424.384, 238.6346
1424.885, 242.6323
1425.385, 240.9482
1425.885, 235.5376
1426.385, 235.0266
1426.886, 234.7766
1427.386, 231.5775
1427.886, 226.3542
1428.387, 219.5318
1428.887, 212.4283
1429.387, 209.4364
1429.888, 207.5841
1430.388, 207.0254
1430.888, 201.4170
1431.389, 197.4407
1431.889, 192.6493
1432.389, 187.0430
1432.890, 181.3787
1433.390, 172.5542
1433.890, 168.3586
1434.391, 163.7365
1434.891, 162.2221
1435.391, 159.2510
1435.891, 154.6933
1436.392, 152.4415
1436.892, 148.6326
1437.392, 143.9000
1437.893, 137.2000
1438.393, 129.2798
1438.893, 127.2197
1439.394, 126.1161
1439.894, 124.2080
1440.394, 119.7794
1440.895, 117.1768
1441.395, 115.0145
1441.895, 110.1443
1442.396, 104.0471
1442.896, 100.6099
1443.396, 98.56854
1443.896, 100.1655
1444.397, 98.34698
1444.897, 96.39014
1445.397, 90.85962
1445.898, 84.91693
1446.398, 80.08899
1446.898, 77.45477
1447.399, 76.59137
1447.899, 73.16302
1448.399, 72.19574
1448.900, 70.15149
1449.400, 66.45673
1449.900, 59.26001
1450.401, 55.58618
1450.901, 56.97205
1451.401, 55.47369
1451.901, 49.96313
1452.402, 44.23926
1452.902, 42.79236
1453.402, 41.38434
1453.903, 41.40448
1454.403, 34.55231
1454.903, 30.85809
1455.404, 31.38007
1455.904, 36.49115
1456.404, 36.85016
1456.905, 30.31909
1457.405, 26.00873
1457.905, 25.18701
1458.406, 23.95435
1458.906, 21.32269
1459.406, 15.15198
1459.906, 13.13519
1460.407, 11.20905
1460.907, 12.17426
1461.407, 8.583069
1461.908, 4.687561
1462.408, 3.870361
1462.908, 2.861633
1463.409, 1.824951
1463.909, 1.930969
1464.409, 2.988159
1464.910, 3.872192
1465.410, 1.893372
1465.910, 3.870544
1466.411, 5.202454
1466.911, 4.513916
1467.411, 0.2520140
1467.911, 4.687622
1468.412, 4.911377
1468.912, 3.095703
1469.412, 3.0701000E-02
1469.913, 8.996338
1470.413, 14.62756
1470.913, 18.87067
1471.414, 12.24487
1471.914, 9.003052
1472.414, 7.322998
1472.915, 6.719727
1473.415, 10.47638
1473.915, 12.85974
1474.416, 15.79108
1474.916, 13.54846
1475.416, 12.27429
1475.917, 11.15662
1476.417, 10.39801
1476.917, 8.403625
1477.417, 7.298950
1477.918, 10.11005
1478.418, 12.76337
1478.918, 14.31961
1479.419, 13.12921
1479.919, 12.08047
1480.419, 11.52414
1480.920, 7.511627
1481.420, 6.326904
1481.920, 6.669800
1482.421, 9.688568
1482.921, 10.65845
1483.421, 10.57315
1483.922, 5.938507
1484.422, 2.856415
1484.922, 0.4984130
1485.422, 3.544922
1485.923, 5.137939
1486.423, 5.772766
1486.923, 6.128967
1487.424, 5.675171
1487.924, 3.640961
1488.424, 1.915009
1488.925, 0.7807010
1489.425, 4.290741
1489.925, 4.586761
1490.426, 0.9826970
1490.926, 4.282043
1491.426, 5.191711
1491.927, 1.549225
1492.427, 1.498199
1492.927, 3.267273
1493.427, 4.393127
1493.928, 3.294464
1494.428, 1.570526
1494.928, 3.458252
1495.429, 5.536102
1495.929, 4.421173
1496.429, 2.852142
1496.930, 2.977478
1497.430, 5.539307
1497.930, 5.990967
1498.431, 7.058197
1498.931, 9.281586
1499.431, 12.73822
1499.932, 18.08685
1500.432, 15.67682
1500.932, 10.78857
1501.432, 8.960815
1501.933, 13.94983
1502.433, 16.34155
1502.933, 13.78107
1503.434, 13.63550
1503.934, 16.59506
1504.434, 17.90152
1504.935, 16.91180
1505.435, 17.42136
1505.935, 17.82275
1506.436, 19.35419
1506.936, 21.63928
1507.436, 24.63425
1507.937, 25.78046
1508.437, 27.15002
1508.937, 28.90967
1509.438, 29.68292
1509.938, 29.08594
1510.438, 29.35529
1510.938, 27.69055
1511.439, 29.48187
1511.939, 28.72598
1512.439, 31.13666
1512.940, 32.29953
1513.440, 34.65445
1513.940, 35.63110
1514.441, 33.62506
1514.941, 32.83258
1515.441, 33.71851
1515.942, 35.11118
1516.442, 36.26080
1516.942, 39.62454
1517.443, 41.46097
1517.943, 41.38446
1518.443, 41.67938
1518.943, 41.79095
1519.444, 43.08133
1519.944, 42.65393
1520.444, 43.17850
1520.945, 44.69046
1521.445, 46.27570
1521.945, 45.81949
1522.446, 47.13046
1522.946, 45.09845
1523.446, 44.49194
1523.947, 42.11523
1524.447, 44.90005
1524.947, 48.20804
1525.448, 50.05399
1525.948, 50.36673
1526.448, 51.59525
1526.948, 53.02939
1527.449, 51.36960
1527.949, 49.56165
1528.449, 49.05930
1528.950, 54.57358
1529.450, 60.40256
1529.950, 61.01291
1530.451, 57.47244
1530.951, 53.45694
1531.451, 52.61163
1531.952, 52.08804
1532.452, 52.62823
1532.952, 53.78947
1533.453, 54.23288
1533.953, 57.40555
1534.453, 57.30215
1534.953, 58.21523
1535.454, 55.35551
1535.954, 53.02608
1536.454, 52.47412
1536.955, 53.30011
1537.455, 54.57556
1537.955, 51.87761
1538.456, 49.17287
1538.956, 48.57834
1539.456, 49.59740
1539.957, 46.76482
1540.457, 48.03531
1540.957, 50.38556
1541.458, 53.87709
1541.958, 54.06631
1542.458, 52.22382
1542.959, 50.17073
1543.459, 47.68347
1543.959, 46.63359
1544.459, 48.65573
1544.960, 47.19768
1545.460, 45.65956
1545.960, 43.91629
1546.461, 46.61066
1546.961, 47.34650
1547.461, 48.19730
1547.962, 46.05347
1548.462, 45.86264
1548.962, 44.11565
1549.463, 42.14932
1549.963, 40.58482
1550.463, 40.73611
1550.964, 44.45248
1551.464, 45.76175
1551.964, 43.43355
1552.464, 40.48889
1552.965, 39.75372
1553.465, 42.31529
1553.965, 42.75351
1554.466, 40.56711
1554.966, 37.37508
1555.466, 36.73596
1555.967, 37.10823
1556.467, 38.88159
1556.967, 39.58925
1557.468, 41.99727
1557.968, 39.45219
1558.468, 37.44765
1558.969, 34.01451
1559.469, 33.15297
1559.969, 32.77872
1560.470, 34.26421
1560.970, 37.23825
1561.470, 39.53275
1561.970, 39.44882
1562.471, 40.62112
1562.971, 40.07642
1563.471, 42.13560
1563.972, 39.08841
1564.472, 35.54601
1564.972, 29.95988
1565.473, 30.06349
1565.973, 33.93030
1566.473, 39.61296
1566.974, 41.43175
1567.474, 40.66486
1567.974, 39.49432
1568.475, 36.59325
1568.975, 37.05566
1569.475, 38.08559
1569.975, 38.87241
1570.476, 36.89149
1570.976, 32.73560
1571.476, 32.29163
1571.977, 30.59761
1572.477, 29.49516
1572.977, 27.93439
1573.478, 28.31058
1573.978, 29.16878
1574.478, 28.04453
1574.979, 27.97272
1575.479, 29.62459
1575.979, 30.99655
1576.480, 32.16647
1576.980, 31.41232
1577.480, 32.65288
1577.981, 31.47128
1578.481, 31.20529
1578.981, 31.03972
1579.481, 29.59262
1579.982, 26.51009
1580.482, 26.54829
1580.982, 29.17346
1581.483, 29.59962
1581.983, 30.09233
1582.483, 27.32948
1582.984, 28.83003
1583.484, 25.53635
1583.984, 24.93259
1584.485, 25.13734
1584.985, 25.32832
1585.485, 26.70389
1585.986, 27.75517
1586.486, 27.17268
1586.986, 26.53905
1587.486, 26.89613
1587.987, 29.63092
1588.487, 31.16486
1588.987, 29.26970
1589.488, 27.35966
1589.988, 25.50154
1590.488, 24.33432
1590.989, 22.69841
1591.489, 22.97032
1591.989, 24.51089
1592.490, 26.75691
1592.990, 27.23373
1593.490, 23.01247
1593.991, 22.63994
1594.491, 20.16324
1594.991, 25.29453
1595.492, 23.76167
1595.992, 26.80486
1596.492, 24.55516
1596.992, 25.31708
1597.493, 23.39566
1597.993, 24.03383
1598.493, 26.52454
1598.994, 27.92856
1599.494, 25.15775
1599.994, 21.79596
1600.495, 20.84538
1600.995, 19.66924
1601.495, 19.97046
1601.996, 20.35080
1602.496, 21.40007
1602.996, 20.29138
1603.497, 20.06488
1603.997, 22.21031
1604.497, 22.77492
1604.997, 20.89781
1605.498, 19.67221
1605.998, 19.49194
1606.498, 18.22363
1606.999, 18.77826
1607.499, 17.52324
1607.999, 18.40579
1608.500, 13.15231
1609.000, 13.83568
1609.500, 13.43253
1610.001, 17.31340
1610.501, 16.27640
1611.001, 17.08098
1611.502, 17.61884
1612.002, 16.88924
1612.502, 14.69534
1613.003, 13.23247
1613.503, 14.02670
1614.003, 15.97765
1614.503, 17.63184
1615.004, 19.07288
1615.504, 20.82196
1616.004, 22.94083
1616.505, 22.87375
1617.005, 21.73112
1617.505, 19.59619
1618.006, 18.16727
1618.506, 16.22720
1619.006, 14.89790
1619.507, 15.21681
1620.007, 16.49951
1620.507, 14.61217
1621.008, 15.03749
1621.508, 13.97501
1622.008, 13.93518
1622.508, 14.00392
1623.009, 12.25163
1623.509, 11.86557
1624.009, 10.17683
1624.510, 10.18092
1625.010, 10.29387
1625.510, 9.951019
1626.011, 10.24617
1626.511, 11.41937
1627.011, 13.15218
1627.512, 12.84898
1628.012, 13.97519
1628.512, 9.848236
1629.013, 11.27875
1629.513, 8.984665
1630.013, 11.28082
1630.514, 11.44608
1631.014, 13.25633
1631.514, 12.94479
1632.014, 11.63907
1632.515, 11.37691
1633.015, 12.09413
1633.515, 11.07843
1634.016, 7.945526
1634.516, 7.855301
1635.016, 8.330582
1635.517, 10.09999
1636.017, 9.802948
1636.517, 12.17053
1637.018, 13.65131
1637.518, 14.95868
1638.018, 14.64278
1638.519, 15.13318
1639.019, 13.89539
1639.519, 11.75928
1640.019, 10.00117
1640.520, 8.869781
1641.020, 7.621384
1641.520, 6.704132
1642.021, 7.759079
1642.521, 8.790955
1643.021, 7.646774
1643.522, 6.684082
1644.022, 6.360886
1644.522, 7.242188
1645.023, 7.680862
1645.523, 10.24281
1646.023, 11.11147
1646.524, 9.756958
1647.024, 8.087479
1647.524, 7.253998
1648.025, 5.638275
1648.525, 4.694550
1649.025, 7.076843
1649.525, 9.028275
1650.026, 7.896591
1650.526, 6.010330
1651.026, 6.634491
1651.527, 8.097229
1652.027, 8.636230
1652.527, 8.783646
1653.028, 8.746780
1653.528, 7.610886
1654.028, 6.851868
1654.529, 6.895844
1655.029, 6.974762
1655.529, 6.338577
1656.030, 4.784988
1656.530, 6.457123
1657.030, 7.897552
1657.530, 9.163391
1658.031, 7.873993
1658.531, 6.794724
1659.031, 6.012360
1659.532, 5.447250
1660.032, 6.005661
1660.532, 6.562729
1661.033, 6.009842
1661.533, 5.786316
1662.033, 7.126495
1662.534, 8.012939
1663.034, 6.733337
1663.534, 4.628639
1664.035, 1.546783
1664.535, 0.7058870
1665.035, 0.3125920
1665.536, 2.298477
1666.036, 2.679298
1666.536, 3.181404
1667.036, 2.344643
1667.537, 2.171402
1668.037, 2.524940
1668.537, 5.413689
1669.038, 7.924164
1669.538, 6.784492
1670.038, 3.731628
1670.539, 3.138130
1671.039, 3.674805
1671.539, 5.285568
1672.040, 5.012711
1672.540, 4.692680
1673.040, 3.495155
1673.541, 2.642975
1674.041, 1.470757
1674.541, 0.4850690
1675.041, 0.5354540
1675.542, 1.831978
1676.042, 2.833984
1676.542, 2.906258
1677.043, 2.524818
1677.543, 1.098686
1678.043, 0.3077010
1678.544, 1.4091000E-02
1679.044, 2.795769
1679.544, 3.601692
1680.045, 3.351593
1680.545, 0.4692840
1681.045, 1.199242
1681.546, 0.3734970
1682.046, 0.3690570
1682.546, 2.158730
1683.047, 0.7182010
1683.547, 2.472984
1684.047, 3.402710
1684.547, 2.586517
1685.048, 1.378136
1685.548, 1.026581
1686.048, 1.314850
1686.549, 2.723305
1687.049, 3.091393
1687.549, 2.558411
1688.050, 0.7493060
1688.550, 0.4055250
1689.050, 0.3102190
1689.551, 0.1596300
1690.051, 1.013153
1690.551, 1.265404
1691.052, 0.5787580
1691.552, 4.152885
1692.052, 6.563744
1692.552, 5.958954
1693.053, 3.173134
1693.553, 0.2501910
1694.053, 0.1246190
1694.554, 0.5993270
1695.054, 1.360855
1695.554, 1.487488
1696.055, 1.952301
1696.555, 0.3186110
1697.055, 0.5130920
1697.556, 0.2974930
1698.056, 0.4119190
1698.556, 1.438553
1699.057, 2.068993
1699.557, 1.193611
1700.057, 0.2239230
1700.557, 1.032532
1701.058, 1.612823
1701.558, 3.658554
1702.058, 3.587105
1702.559, 2.945396
1703.059, 0.3645020
1703.559, 1.496811
1704.060, 0.2962720
1704.560, 2.169579
1705.060, 1.957123
1705.561, 0.5149000
1706.061, 0.9155430
1706.561, 1.667854
1707.062, 1.234917
1707.562, 2.045570
1708.062, 1.015251
1708.562, 0.9515760
1709.063, 0.2624820
1709.563, 0.3141480
1710.063, 0.4981160
1710.564, 0.4189830
1711.064, 2.401100
1711.564, 2.911865
1712.065, 0.1020130
1712.565, 0.2733080
1713.065, 1.089104
1713.566, 1.967369
1714.066, 1.116142
1714.566, 2.217896
1715.067, 4.1763000E-02
1715.567, 1.575348
1716.067, 2.219460
1716.568, 0.1828380
1717.068, 2.956963
1717.568, 3.680260
1718.068, 1.527229
1718.569, 2.017067
1719.069, 3.721024
1719.569, 6.186775
1720.070, 6.755447
1720.570, 5.101555
1721.070, 4.367012
1721.571, 3.703171
1722.071, 4.657845
1722.571, 6.193634
1723.072, 6.666237
1723.572, 6.140747
1724.072, 4.977303
1724.573, 5.876442
1725.073, 9.243484
1725.573, 9.329643
1726.073, 5.779099
1726.574, 1.942543
1727.074, 2.213219
1727.574, 4.347244
1728.075, 6.665199
1728.575, 7.016815
1729.075, 7.429237
1729.576, 7.331581
1730.076, 7.222824
1730.576, 6.897484
1731.077, 7.077988
1731.577, 7.645836
1732.077, 8.046249
1732.578, 5.769386
1733.078, 4.639145
1733.578, 5.249413
1734.078, 6.695770
1734.579, 4.535500
1735.079, 5.656151
1735.579, 6.387283
1736.080, 8.367599
1736.580, 6.286224
1737.080, 5.738434
1737.581, 6.449158
1738.081, 5.956245
1738.581, 4.078026
1739.082, 3.165833
1739.582, 3.669426
1740.082, 5.203201
1740.583, 5.756935
1741.083, 5.790833
1741.583, 6.779099
1742.083, 8.980148
1742.584, 8.647057
1743.084, 8.961243
1743.584, 9.050957
1744.085, 10.40261
1744.585, 10.01659
1745.085, 8.592163
1745.586, 7.371414
1746.086, 6.542206
1746.586, 5.439529
1747.087, 6.010071
1747.587, 5.289993
1748.087, 6.337227
1748.588, 7.142769
1749.088, 9.254105
1749.588, 11.27586
1750.089, 11.99084
1750.589, 12.21784
1751.089, 10.79018
1751.589, 9.592621
1752.090, 8.922470
1752.590, 8.310623
1753.090, 7.277321
1753.591, 6.209656
1754.091, 5.461090
1754.591, 4.149956
1755.092, 3.487495
1755.592, 6.191269
1756.092, 8.269737
1756.593, 6.593323
1757.093, 3.979912
1757.593, 3.961815
1758.094, 6.225426
1758.594, 5.901588
1759.094, 5.010811
1759.594, 5.389618
1760.095, 6.651466
1760.595, 7.502609
1761.095, 7.055061
1761.596, 5.793076
1762.096, 4.734612
1762.596, 6.199585
1763.097, 5.849770
1763.597, 6.935829
1764.097, 5.367493
1764.598, 7.670303
1765.098, 6.810608
1765.598, 6.841187
1766.099, 5.603386
1766.599, 6.474167
1767.099, 6.797363
1767.599, 4.839828
1768.100, 3.223740
1768.600, 4.571449
1769.100, 5.405838
1769.601, 5.393211
1770.101, 1.636703
1770.601, 2.616501
1771.102, 5.418114
1771.602, 7.436745
1772.102, 6.919724
1772.603, 3.294708
1773.103, 2.681770
1773.603, 1.723778
1774.104, 2.901169
1774.604, 5.074600
1775.104, 7.677391
1775.604, 8.274857
1776.105, 6.182777
1776.605, 4.801346
1777.105, 4.917427
1777.606, 4.803268
1778.106, 2.558617
1778.606, 2.592712
1779.107, 3.621017
1779.607, 6.566246
1780.107, 6.805595
1780.608, 6.105934
1781.108, 4.614014
1781.608, 4.299149
1782.109, 5.430984
1782.609, 6.249550
1783.109, 6.943687
1783.609, 8.197319
1784.110, 7.220230
1784.610, 6.172028
1785.110, 5.605278
1785.611, 6.898262
1786.111, 10.30863
1786.611, 6.307426
1787.112, 4.331779
1787.612, 2.853485
1788.112, 5.822800
1788.613, 7.389366
1789.113, 2.792145
1789.613, 0.5281750
1790.114, 0.5334320
1790.614, 3.193115
1791.114, 5.630867
1791.615, 4.262260
1792.115, 2.059975
1792.615, 1.373108
1793.115, 1.651382
1793.616, 4.324791
1794.116, 6.805229
1794.616, 6.283646
1795.117, 3.296005
1795.617, 2.802742
1796.117, 2.995567
1796.618, 4.494034
1797.118, 2.508545
1797.618, 1.805099
1798.119, 1.849236
1798.619, 3.736946
1799.119, 5.882492
1799.620, 6.199509
1800.120, 4.531136
1800.620, 1.678436
1801.120, 0.3590550
1801.621, 0.2087330
1802.121, 3.212219
1802.621, 5.572197
1803.122, 6.848595
1803.622, 5.256828
1804.122, 4.845322
1804.623, 5.319695
1805.123, 6.452263
1805.623, 5.230537
1806.124, 4.646576
1806.624, 4.696220
1807.124, 4.760712
1807.625, 3.474007
1808.125, 2.796761
1808.625, 3.901291
1809.125, 3.871422
1809.626, 3.572456
1810.126, 3.640373
1810.626, 3.418442
1811.127, 3.421310
1811.627, 2.190773
1812.127, 2.694084
1812.628, 2.304955
1813.128, 2.430267
1813.628, 1.662018
1814.129, 1.832611
1814.629, 2.641380
1815.129, 4.308762
1815.630, 5.780594
1816.130, 5.492012
1816.630, 4.332497
1817.131, 3.964508
1817.631, 4.115982
1818.131, 5.444595
1818.631, 3.713066
1819.132, 3.616539
1819.632, 3.089981
1820.132, 4.830742
1820.633, 5.247864
1821.133, 2.147469
1821.633, 6.7024000E-02
1822.134, 0.9738540
1822.634, 3.982971
1823.134, 5.682358
1823.635, 4.758194
1824.135, 4.245262
1824.635, 3.174873
1825.136, 1.389725
1825.636, 0.2640530
1826.136, 0.1342390
1826.636, 3.666565
1827.137, 4.998871
1827.637, 2.025925
1828.137, 8.4266998E-02
1828.638, 0.4963530
1829.138, 3.266167
1829.638, 4.128708
1830.139, 5.134941
1830.639, 5.728127
1831.139, 3.870529
1831.640, 0.5298540
1832.140, 1.071503
1832.640, 1.046867
1833.141, 0.6227260
1833.641, 1.255615
1834.141, 0.5266420
1834.642, 0.1024930
1835.142, 4.9750999E-02
1835.642, 0.2421570
1836.142, 1.959961
1836.643, 5.685585
1837.143, 6.039566
1837.643, 4.154449
1838.144, 0.9233020
1838.644, 1.700623
1839.144, 4.373978
1839.645, 5.391502
1840.145, 5.692535
1840.645, 3.770279
1841.146, 2.760201
1841.646, 1.153450
1842.146, 0.9363780
1842.647, 0.6934130
1843.147, 0.5289690
1843.647, 1.732391
1844.147, 2.879967
1844.648, 1.906044
1845.148, 0.7031860
1845.648, 0.5891040
1846.149, 0.8702850
1846.649, 0.3645550
1847.149, 1.813828
1847.650, 4.280106
1848.150, 4.457184
1848.650, 5.417397
1849.151, 3.176750
1849.651, 3.918030
1850.151, 2.191696
1850.652, 1.892670
1851.152, 2.299652
1851.652, 3.975739
1852.153, 5.882019
1852.653, 8.789474
1853.153, 10.92677
1853.653, 9.239479
1854.154, 5.771004
1854.654, 5.116356
1855.154, 6.706551
1855.655, 7.125626
1856.155, 4.318314
1856.655, 3.491310
1857.156, 4.650513
1857.656, 4.577484
1858.156, 1.999237
1858.657, 0.7922590
1859.157, 3.900993
1859.657, 6.745720
1860.158, 6.942924
1860.658, 5.089401
1861.158, 5.734573
1861.658, 7.722656
1862.159, 9.788857
1862.659, 10.52734
1863.159, 8.935463
1863.660, 6.360580
1864.160, 5.096542
1864.660, 6.009590
1865.161, 7.391472
1865.661, 5.815109
1866.161, 2.139931
1866.662, 2.524849
1867.162, 3.579117
1867.662, 5.193138
1868.163, 2.789070
1868.663, 1.369598
1869.163, 0.7285920
1869.664, 0.2301710
1870.164, 0.1360090
1870.664, 0.2660680
1871.164, 0.3854900
1871.665, 0.7660600
1872.165, 2.062836
1872.665, 2.765480
1873.166, 2.658958
1873.666, 3.356529
1874.166, 5.515190
1874.667, 6.903275
1875.167, 6.776680
1875.667, 7.150803
1876.168, 6.598152
1876.668, 4.873650
1877.168, 4.028236
1877.669, 3.257957
1878.169, 4.451180
1878.669, 2.034248
1879.169, 3.648903
1879.670, 2.324028
1880.170, 1.978951
1880.670, 4.0709998E-02
1881.171, 1.395950
1881.671, 3.783798
1882.171, 6.070778
1882.672, 5.423340
1883.172, 4.245842
1883.672, 3.437309
1884.173, 4.571777
1884.673, 5.668190
1885.173, 5.481567
1885.674, 5.264015
1886.174, 4.222206
1886.674, 4.409142
1887.175, 4.406693
1887.675, 4.223900
1888.175, 1.993996
1888.675, 1.247734
1889.176, 0.5954360
1889.676, 3.482269
1890.176, 3.151161
1890.677, 4.361092
1891.177, 1.970528
1891.677, 3.258095
1892.178, 3.457626
1892.678, 3.978844
1893.178, 1.550148
1893.679, 0.1672970
1894.179, 0.4715580
1894.679, 7.6362997E-02
1895.180, 0.7184980
1895.680, 0.5509410
1896.180, 2.769127
1896.680, 6.145393
1897.181, 6.337440
1897.681, 5.100990
1898.181, 3.235016
1898.682, 3.360878
1899.182, 2.494568
1899.682, 3.243896
1900.183, 4.047424
1900.683, 4.441116
1901.183, 4.061409
1901.684, 3.801277
1902.184, 1.880295
1902.684, 3.263084
1903.185, 2.121208
1903.685, 3.748451
1904.185, 2.940048
1904.686, 4.655128
1905.186, 6.362503
1905.686, 6.529739
1906.186, 7.201431
1906.687, 7.226944
1907.187, 5.485008
1907.687, 2.122131
1908.188, 0.8725740
1908.688, 0.7689820
1909.188, 2.617226
1909.689, 4.858376
1910.189, 5.257698
1910.689, 3.534096
1911.190, 3.289566
1911.690, 4.457527
1912.190, 9.440941
1912.691, 10.40471
1913.191, 10.34447
1913.691, 3.780609
1914.191, 3.400909
1914.692, 4.430084
1915.192, 7.663994
1915.692, 6.920212
1916.193, 6.188866
1916.693, 5.029053
1917.193, 4.718803
1917.694, 3.774445
1918.194, 3.639557
1918.694, 3.511444
1919.195, 3.056160
1919.695, 1.622726
1920.195, 0.4152220
1920.696, 0.9054950
1921.196, 8.0570001E-03
1921.696, 1.009102
1922.197, 1.765984
1922.697, 1.861191
1923.197, 2.276100
1923.697, 2.786469
1924.198, 1.587273
1924.698, 2.833542
1925.198, 2.073914
1925.699, 3.339355
1926.199, 5.222267
1926.699, 5.000847
1927.200, 7.074615
1927.700, 4.065895
1928.200, 3.823555
1928.701, 2.574577
1929.201, 3.787880
1929.701, 4.656319
1930.202, 5.370415
1930.702, 4.813751
1931.202, 4.759018
1931.702, 4.273338
1932.203, 5.511963
1932.703, 6.403038
1933.203, 5.116333
1933.704, 3.776390
1934.204, 2.731796
1934.704, 2.975197
1935.205, 3.619034
1935.705, 3.122627
1936.205, 3.168205
1936.706, 3.723824
1937.206, 3.767143
1937.706, 4.430229
1938.207, 3.414955
1938.707, 2.628616
1939.207, 4.447319
1939.708, 5.171730
1940.208, 6.516487
1940.708, 6.125938
1941.208, 4.129311
1941.709, 3.975304
1942.209, 3.335190
1942.709, 3.883575
1943.210, 4.370819
1943.710, 2.266579
1944.210, 2.213829
1944.711, 1.850540
1945.211, 2.063896
1945.711, 0.8874740
1946.212, 1.096107
1946.712, 0.2264020
1947.212, 3.739220
1947.713, 5.089043
1948.213, 4.763634
1948.713, 4.981140
1949.213, 6.684883
1949.714, 5.840691
1950.214, 4.628441
1950.714, 4.298584
1951.215, 7.289635
1951.715, 9.610695
1952.215, 11.02841
1952.716, 9.487450
1953.216, 9.839539
1953.716, 4.360527
1954.217, 4.889763
1954.717, 1.4488000E-02
1955.217, 0.9208830
1955.718, 0.1408920
1956.218, 0.4104610
1956.718, 2.782043
1957.219, 2.183266
1957.719, 3.263573
1958.219, 3.217110
1958.719, 2.476120
1959.220, 1.323021
1959.720, 1.456543
1960.220, 2.426987
1960.721, 3.635948
1961.221, 3.673729
1961.721, 3.249260
1962.222, 3.433601
1962.722, 4.988029
1963.222, 6.661888
1963.723, 4.195808
1964.223, 1.176453
1964.723, 1.420082
1965.224, 4.610680
1965.724, 7.005943
1966.224, 6.981750
1966.724, 5.764603
1967.225, 5.870461
1967.725, 3.714531
1968.225, 4.590096
1968.726, 4.551369
1969.226, 4.727203
1969.726, 1.030350
1970.227, 1.475044
1970.727, 2.613289
1971.227, 5.238632
1971.728, 3.300064
1972.228, 2.955833
1972.728, 4.563934
1973.229, 3.480003
1973.729, 1.594154
1974.229, 0.8781200
1974.729, 2.115227
1975.230, 2.836777
1975.730, 2.273911
1976.230, 3.094162
1976.731, 4.712883
1977.231, 4.266838
1977.731, 2.523041
1978.232, 1.996346
1978.732, 2.629478
1979.232, 3.236374
1979.733, 2.474281
1980.233, 1.328796
1980.733, 3.427803
1981.234, 4.525703
1981.734, 5.924187
1982.234, 4.243019
1982.734, 2.555252
1983.235, 1.010300
1983.735, 0.3123930
1984.235, 2.095284
1984.736, 2.982986
1985.236, 2.782387
1985.736, 1.728134
1986.237, 3.700020
1986.737, 4.230766
1987.237, 5.477623
1987.738, 4.557777
1988.238, 4.251801
1988.738, 0.4832990
1989.239, 0.5995560
1989.739, 0.2963710
1990.239, 3.439095
1990.740, 3.877350
1991.240, 4.252724
1991.740, 4.889908
1992.240, 3.486763
1992.741, 3.168098
1993.241, 1.136452
1993.741, 1.990898
1994.242, 2.155411
1994.742, 3.020294
1995.242, 2.940239
1995.743, 1.156990
1996.243, 0.2546310
1996.743, 0.5015340
1997.244, 1.006767
1997.744, 2.821091
1998.244, 3.788681
1998.745, 3.748009
1999.245, 2.143288
1999.745, 1.891296
2000.245, 2.366844
2000.746, 4.118225
2001.246, 4.027664
2001.746, 2.526443
2002.247, 2.270439
2002.747, 0.9401930
2003.247, 3.141258
2003.748, 3.488716
2004.248, 4.118797
2004.748, 1.585083
2005.249, 0.1475750
2005.749, 0.6198200
2006.249, 4.7065999E-02
2006.750, 1.330704
2007.250, 0.7514340
2007.750, 8.1886001E-02
2008.250, 2.758003
2008.751, 0.6054530
2009.251, 0.4151990
2009.751, 2.257957
2010.252, 0.7292100
2010.752, 2.382576
2011.252, 5.975403
2011.753, 7.467896
2012.253, 7.566376
2012.753, 5.401726
2013.254, 3.979477
2013.754, 1.899681
2014.254, 0.8529430
2014.755, 0.5939940
2015.255, 1.520370
2015.755, 2.796722
2016.255, 4.074860
2016.756, 5.742668
2017.256, 5.800346
2017.756, 5.322922
2018.257, 5.399765
2018.757, 4.618523
2019.257, 2.884033
2019.758, 0.5550460
2020.258, 1.474236
2020.758, 2.831268
2021.259, 4.580292
2021.759, 1.933151
2022.259, 0.1730800
2022.760, 0.3866730
2023.260, 4.059441
2023.760, 3.460152
2024.260, 1.726486
2024.761, 0.3336640
2025.261, 2.505680
2025.761, 4.279175
2026.262, 6.675068
2026.762, 5.716652
2027.262, 5.942909
2027.763, 4.579388
2028.263, 5.412685
2028.763, 6.684547
2029.264, 7.733414
2029.764, 6.362564
2030.264, 4.720325
2030.765, 1.769920
2031.265, 2.873341
2031.765, 1.663258
2032.266, 1.098797
2032.766, 1.933475
2033.266, 1.361626
2033.766, 4.592094
2034.267, 3.673576
2034.767, 6.776646
2035.267, 5.809975
2035.768, 5.991245
2036.268, 3.158463
2036.768, 0.8561710
2037.269, 4.0424000E-02
2037.769, 0.6060980
2038.269, 1.007919
2038.770, 1.387848
2039.270, 0.5927470
2039.770, 2.386280
2040.271, 5.712181
2040.771, 7.950111
2041.271, 6.437233
2041.771, 2.909370
2042.272, 0.7796520
2042.772, 0.4030150
2043.272, 1.054592
2043.773, 2.042549
2044.273, 3.074184
2044.773, 3.289322
2045.274, 3.282097
2045.774, 2.873852
2046.274, 2.274132
2046.775, 3.069473
2047.275, 4.697952
2047.775, 5.827660
2048.276, 5.105263
2048.776, 3.601593
2049.276, 2.210423
2049.777, 2.282585
2050.277, 3.723499
2050.777, 4.408195
2051.277, 2.289825
2051.778, 1.891834
2052.278, 0.7554280
2052.778, 2.192867
2053.279, 1.102463
2053.779, 0.5756490
2054.279, 1.612656
2054.780, 1.233086
2055.280, 2.517948
2055.780, 3.035305
2056.281, 5.409260
2056.781, 6.302185
2057.281, 5.027138
2057.781, 3.446552
2058.282, 3.028622
2058.782, 2.975750
2059.282, 5.888401
2059.783, 6.778091
2060.283, 7.213272
2060.783, 5.075748
2061.284, 5.347000
2061.784, 7.306179
2062.284, 7.547020
2062.785, 4.378357
2063.285, 1.425045
2063.785, 1.157246
2064.286, 2.3902999E-02
2064.786, 0.4976880
2065.286, 2.938789
2065.787, 2.915413
2066.287, 2.007267
2066.787, 1.053547
2067.288, 1.673809
2067.788, 3.489899
2068.288, 3.031151
2068.788, 2.581551
2069.289, 1.567459
2069.789, 0.9126890
2070.289, 0.8927840
2070.790, 1.448730
2071.290, 2.863522
2071.790, 4.425159
2072.291, 3.575916
2072.791, 0.9053270
2073.291, 0.9141880
2073.792, 1.350288
2074.292, 0.1216200
2074.792, 9.6729003E-02
2075.292, 0.4421730
2075.793, 0.1102370
2076.293, 1.035435
2076.793, 2.304726
2077.294, 2.465698
2077.794, 2.546066
2078.294, 3.757637
2078.795, 4.702484
2079.295, 5.657162
2079.795, 5.743469
2080.296, 4.299511
2080.796, 1.824913
2081.296, 0.9739150
2081.797, 2.773697
2082.297, 3.884754
2082.797, 3.780987
2083.298, 2.675896
2083.798, 3.767513
2084.298, 5.065678
2084.799, 4.681965
2085.299, 3.561737
2085.799, 3.582535
2086.299, 4.408596
2086.800, 3.327152
2087.300, 2.293888
2087.800, 3.111500
2088.301, 4.411346
2088.801, 3.048065
2089.301, 2.583305
2089.802, 4.026310
2090.302, 4.233829
2090.802, 5.021038
2091.302, 5.456524
2091.803, 7.890759
2092.303, 7.100883
2092.803, 5.624966
2093.304, 4.666142
2093.804, 5.217941
2094.304, 5.452930
2094.805, 4.981564
2095.305, 5.439663
2095.805, 7.786903
2096.306, 7.893757
2096.806, 7.534569
2097.306, 5.641918
2097.807, 4.905533
2098.307, 2.470924
2098.807, 0.2363430
2099.308, 0.3093910
2099.808, 1.962212
2100.308, 3.962341
2100.809, 4.789940
2101.309, 3.727814
2101.809, 2.880356
2102.310, 4.413589
2102.810, 5.212776
2103.310, 7.376583
2103.810, 5.341553
2104.311, 4.971489
2104.811, 2.510323
2105.311, 3.200863
2105.812, 2.967667
2106.312, 2.996277
2106.812, 5.622486
2107.312, 5.024853
2107.813, 8.408916
2108.313, 2.752590
2108.813, 4.280537
2109.314, 1.143810
2109.814, 4.698246
2110.314, 1.813313
2110.815, 2.420334
2111.315, 7.499001
2111.815, 9.846294
2112.316, 10.04634
2112.816, 6.846630
2113.316, 10.52762
2113.817, 9.575150
2114.317, 7.152752
2114.817, 5.087887
2115.318, 7.328281
2115.818, 9.848969
2116.318, 9.096020
2116.819, 8.380672
2117.319, 7.409088
2117.819, 5.976494
2118.320, 5.381916
2118.820, 4.250423
2119.320, 4.946651
2119.821, 4.991756
2120.321, 3.878281
2120.821, 4.226006
2121.321, 5.682201
2121.822, 8.579269
2122.322, 7.396576
2122.822, 6.549774
2123.323, 6.746876
2123.823, 6.253910
2124.323, 5.208405
2124.823, 3.936714
2125.324, 4.283627
2125.824, 7.137047
2126.324, 9.980042
2126.825, 12.26622
2127.325, 10.13789
2127.825, 7.999886
2128.326, 8.014297
2128.826, 8.509537
2129.326, 8.697029
2129.827, 10.40014
2130.327, 10.73296
2130.827, 11.55426
2131.328, 9.701843
2131.828, 8.999203
2132.328, 8.149673
2132.829, 7.380924
2133.329, 7.635227
2133.829, 6.351665
2134.330, 7.436626
2134.830, 6.859192
2135.330, 10.55725
2135.831, 11.48812
2136.331, 11.99835
2136.831, 10.07894
2137.332, 7.769470
2137.832, 5.057175
2138.332, 3.285172
2138.832, 3.279270
2139.333, 6.526047
2139.833, 8.172607
2140.333, 6.271599
2140.834, 3.973846
2141.334, 2.795902
2141.834, 4.960651
2142.334, 5.320061
2142.835, 4.964115
2143.335, 3.262005
2143.835, 3.596928
2144.336, 0.7457010
2144.836, 1.933296
2145.336, 1.228146
2145.837, 3.715290
2146.337, 4.267849
2146.837, 3.270702
2147.338, 3.169903
2147.838, 2.341530
2148.338, 5.453377
2148.839, 6.508495
2149.339, 6.672913
2149.839, 3.668453
2150.340, 4.261482
2150.840, 3.580582
2151.340, 4.748188
2151.841, 3.663929
2152.341, 5.360760
2152.841, 4.213593
2153.342, 4.099804
2153.842, 2.033672
2154.342, 1.908878
2154.843, 0.9363170
2155.343, 2.746895
2155.843, 4.015305
2156.343, 3.645512
2156.844, 1.965706
2157.344, 0.6467250
2157.844, 2.934174
2158.345, 2.904720
2158.845, 2.673801
2159.345, 0.4760970
2159.845, 0.6050030
2160.346, 1.762951
2160.846, 2.263817
2161.346, 2.579830
2161.847, 0.4231220
2162.347, 0.7372630
2162.847, 0.5196840
2163.348, 1.197136
2163.848, 1.528862
2164.348, 0.7953530
2164.849, 2.910393
2165.349, 1.131424
2165.849, 0.8404270
2166.350, 0.5024340
2166.850, 2.207928
2167.350, 2.044544
2167.851, 0.2316510
2168.351, 0.7780720
2168.851, 0.8025740
2169.352, 1.663681
2169.852, 1.139347
2170.352, 0.7488940
2170.853, 1.859505
2171.353, 1.976555
2171.853, 1.123974
2172.354, 0.5969770
2172.854, 1.292984
2173.354, 0.6160810
2173.854, 0.4566570
2174.355, 1.0178000E-02
2174.855, 0.1262820
2175.355, 0.2517090
2175.856, 1.167675
2176.356, 1.649094
2176.856, 1.500614
2177.356, 0.2578280
2177.857, 1.197487
2178.357, 1.145409
2178.857, 1.448959
2179.358, 0.8245660
2179.858, 0.5481530
2180.358, 0.1888960
2180.859, 0.3943140
2181.359, 0.2440220
2181.859, 0.4129790
2182.360, 1.797810
2182.860, 3.292133
2183.360, 2.967098
2183.861, 1.787121
2184.361, 2.045784
2184.861, 2.782303
2185.362, 2.666870
2185.862, 2.029381
2186.362, 1.628876
2186.863, 2.639648
2187.363, 1.645012
2187.863, 1.510281
2188.364, 0.2083820
2188.864, 1.014988
2189.364, 0.7455100
2189.865, 0.8774070
2190.365, 2.3724001E-02
2190.865, 1.287430
2191.365, 2.554192
2191.866, 4.204906
2192.366, 3.050816
2192.866, 1.989021
2193.367, 1.731247
2193.867, 1.661087
2194.367, 1.797844
2194.867, 1.017673
2195.368, 1.094986
2195.868, 3.217834
2196.368, 4.860138
2196.869, 5.268261
2197.369, 3.395367
2197.869, 5.196407
2198.370, 7.977463
2198.870, 7.968117
2199.370, 6.136204
2199.871, 3.436325
2200.371, 3.884663
2200.871, 3.113461
2201.372, 3.435345
2201.872, 3.436543
2202.372, 2.498508
2202.873, 1.586979
2203.373, 2.550392
2203.873, 2.085560
2204.374, 3.753242
2204.874, 3.420418
2205.374, 5.173077
2205.875, 5.627506
2206.375, 6.462151
2206.875, 9.938343
2207.375, 8.606392
2207.876, 6.813938
2208.376, 1.915512
2208.876, 0.8265190
2209.377, 2.999855
2209.877, 3.596058
2210.377, 4.112766
2210.878, 4.831600
2211.378, 6.104000
2211.878, 7.094284
2212.378, 3.385277
2212.879, 4.517879
2213.379, 5.904716
2213.879, 8.781498
2214.380, 8.114937
2214.880, 5.743813
2215.380, 7.903305
2215.881, 9.210869
2216.381, 9.725399
2216.881, 4.323429
2217.382, 4.993431
2217.882, 6.450020
2218.382, 9.164959
2218.883, 6.650536
2219.383, 5.679100
2219.883, 5.891624
2220.384, 5.453888
2220.884, 5.645603
2221.384, 5.082153
2221.885, 3.747829
2222.385, 7.655148
2222.885, 7.452930
2223.385, 9.915596
2223.886, 6.739925
2224.386, 7.823776
2224.886, 7.358932
2225.387, 10.13311
2225.887, 9.897125
2226.387, 10.48529
2226.888, 6.815922
2227.388, 7.591373
2227.888, 6.650715
2228.389, 7.902126
2228.889, 7.888660
2229.389, 6.611076
2229.889, 4.654678
2230.390, 3.293678
2230.890, 4.702904
2231.390, 6.091511
2231.891, 7.189209
2232.391, 6.760567
2232.891, 8.378483
2233.392, 5.161461
2233.892, 5.717030
2234.392, 2.855579
2234.893, 6.297844
2235.393, 7.252056
2235.893, 6.564697
2236.394, 4.143898
2236.894, 2.846405
2237.394, 2.860126
2237.895, 3.644764
2238.395, 5.154678
2238.895, 6.236565
2239.396, 4.904037
2239.896, 3.487080
2240.396, 3.208511
2240.896, 5.072918
2241.397, 3.565159
2241.897, 1.975670
2242.397, 0.3852540
2242.898, 2.250607
2243.398, 5.575851
2243.898, 7.821354
2244.399, 5.876259
2244.899, 3.121326
2245.399, 0.5632820
2245.900, 0.9015310
2246.400, 3.085907
2246.900, 6.881466
2247.400, 7.433876
2247.901, 4.153255
2248.401, 1.226891
2248.901, 0.6656340
2249.402, 3.026031
2249.902, 4.112404
2250.402, 2.491928
2250.903, 1.186932
2251.403, 0.6392360
2251.903, 0.7236940
2252.404, 0.6862950
2252.904, 0.6409910
2253.404, 4.3269999E-02
2253.905, 2.548904
2254.405, 0.7660870
2254.905, 0.4603810
2255.406, 0.5834660
2255.906, 3.306702
2256.406, 6.998173
2256.906, 6.412605
2257.407, 5.907970
2257.907, 4.929626
2258.407, 6.233601
2258.908, 6.383240
2259.408, 7.444942
2259.908, 6.535702
2260.409, 6.714741
2260.909, 4.359715
2261.409, 5.179298
2261.910, 4.919613
2262.410, 7.214108
2262.910, 6.359531
2263.411, 7.770100
2263.911, 8.532566
2264.411, 9.208294
2264.911, 8.670399
2265.412, 4.312794
2265.912, 4.512562
2266.412, 2.194668
2266.913, 3.966694
2267.413, 2.741367
2267.913, 3.547279
2268.414, 3.815144
2268.914, 3.162529
2269.414, 3.546791
2269.915, 2.883636
2270.415, 5.668137
2270.915, 6.091789
2271.416, 6.836182
2271.916, 4.093304
2272.416, 3.394485
2272.917, 2.732853
2273.417, 3.366932
2273.917, 1.613335
2274.417, 1.753323
2274.918, 3.579235
2275.418, 4.803089
2275.918, 4.567181
2276.419, 4.533958
2276.919, 5.132439
2277.419, 4.439857
2277.920, 3.567902
2278.420, 4.221474
2278.920, 5.344730
2279.421, 4.532146
2279.921, 3.909191
2280.421, 3.905640
2280.922, 4.284271
2281.422, 3.986912
2281.922, 3.813881
2282.422, 3.376450
2282.923, 1.761841
2283.423, 1.685997
2283.923, 0.3673360
2284.424, 2.999081
2284.924, 4.185963
2285.424, 6.222828
2285.925, 6.734421
2286.425, 5.672085
2286.925, 4.685196
2287.426, 2.662941
2287.926, 1.416172
2288.426, 0.6287120
2288.927, 0.4463880
2289.427, 1.764065
2289.927, 4.204102
2290.427, 5.350925
2290.928, 5.327923
2291.428, 4.108067
2291.928, 2.867825
2292.429, 2.418674
2292.929, 1.886059
2293.429, 2.172081
2293.930, 3.137150
2294.430, 3.665169
2294.930, 3.947819
2295.431, 3.617817
2295.931, 2.228977
2296.431, 0.7262340
2296.932, 0.5834960
2297.432, 0.2807310
2297.932, 2.754326
2298.433, 3.642338
2298.933, 3.323368
2299.433, 3.072849
2299.933, 1.796467
2300.434, 3.013462
2300.934, 1.359894
2301.434, 2.107048
2301.935, 1.359989
2302.435, 2.444973
2302.935, 2.375603
2303.436, 0.6999440
2303.936, 1.164391
2304.436, 1.116611
2304.937, 4.873722
2305.437, 5.555702
2305.937, 3.918888
2306.438, 1.065025
2306.938, 1.641197
2307.438, 4.420212
2307.938, 7.730701
2308.439, 6.819778
2308.939, 3.683613
2309.439, 0.1985550
2309.940, 0.1353910
2310.440, 0.2108760
2310.940, 1.343330
2311.441, 0.5375900
2311.941, 0.9575160
2312.441, 2.059059
2312.942, 0.2296600
2313.442, 1.659595
2313.942, 2.976871
2314.443, 3.175682
2314.943, 0.9004400
2315.443, 0.2744520
2315.944, 0.3307000
2316.444, 1.049717
2316.944, 2.629025
2317.444, 3.417053
2317.945, 4.323120
2318.445, 3.653889
2318.945, 3.220211
2319.446, 0.1176450
2319.946, 1.056965
2320.446, 0.6793210
2320.947, 2.153511
2321.447, 3.673344
2321.947, 3.750637
2322.448, 1.844677
2322.948, 1.227573
2323.448, 1.684612
2323.948, 2.179585
2324.449, 1.483154
2324.949, 1.103432
2325.449, 1.970592
2325.950, 3.036037
2326.450, 4.001263
2326.950, 3.734833
2327.451, 2.926468
2327.951, 2.095757
2328.451, 3.232334
2328.952, 4.455902
2329.452, 5.060467
2329.952, 3.378036
2330.453, 0.7379340
2330.953, 0.1241490
2331.453, 2.033344
2331.954, 4.662857
2332.454, 6.739605
2332.954, 5.428616
2333.455, 3.880669
2333.955, 3.292656
2334.455, 4.376396
2334.955, 4.591473
2335.456, 2.309200
2335.956, 2.401924
2336.456, 1.708054
2336.957, 3.779312
2337.457, 4.413944
2337.957, 3.108826
2338.458, 0.2378200
2338.958, 1.686161
2339.458, 1.758827
2339.958, 3.245205
2340.459, 4.410770
2340.959, 2.550011
2341.459, 1.796879
2341.960, 0.5081940
2342.460, 0.2514340
2342.960, 1.662159
2343.461, 1.902615
2343.961, 3.638783
2344.461, 2.449364
2344.962, 2.511021
2345.462, 2.368286
2345.962, 3.415867
2346.463, 5.613903
2346.963, 7.522690
2347.463, 9.148445
2347.964, 9.413425
2348.464, 8.163628
2348.964, 6.392048
2349.465, 4.322792
2349.965, 2.681396
2350.465, 1.649899
2350.966, 2.987312
2351.466, 3.785942
2351.966, 3.023705
2352.466, 1.238289
2352.967, 1.421486
2353.467, 3.426651
2353.967, 3.219582
2354.468, 3.970058
2354.968, 4.656685
2355.468, 4.831810
2355.969, 4.289562
2356.469, 5.005165
2356.969, 6.410194
2357.469, 8.395481
2357.970, 8.975632
2358.470, 8.403297
2358.970, 5.536087
2359.471, 2.942951
2359.971, 2.080574
2360.471, 1.681423
2360.972, 0.9673460
2361.472, 8.3972998E-02
2361.972, 0.1613880
2362.473, 0.2358400
2362.973, 2.859047
2363.473, 3.820572
2363.974, 3.688057
2364.474, 0.1663820
2364.974, 1.074707
2365.475, 2.100613
2365.975, 2.026245
2366.475, 2.293495
2366.976, 1.247437
2367.476, 5.320705
2367.976, 6.827671
2368.477, 5.867962
2368.977, 3.234379
2369.477, 1.125004
2369.977, 1.017593
2370.478, 8.7029003E-02
2370.978, 1.711666
2371.478, 2.332283
2371.979, 3.023899
2372.479, 3.665096
2372.979, 6.564972
2373.479, 6.423691
2373.980, 4.855316
2374.480, 2.046902
2374.980, 0.3729740
2375.481, 1.588291
2375.981, 4.179192
2376.481, 7.618786
2376.982, 6.770145
2377.482, 4.856297
2377.982, 5.616077
2378.483, 5.486446
2378.983, 8.561169
2379.483, 6.851398
2379.984, 5.448334
2380.484, 0.9920390
2380.984, 0.9826810
2381.485, 1.283112
2381.985, 0.4340710
2382.485, 0.8210490
2382.986, 2.060814
2383.486, 4.485401
2383.986, 4.194889
2384.487, 5.292858
2384.987, 4.303268
2385.487, 2.698307
2385.988, 1.111477
2386.488, 2.015865
2386.988, 4.245373
2387.488, 4.933865
2387.989, 3.992332
2388.489, 2.897694
2388.989, 0.8662110
2389.490, 0.8380930
2389.990, 0.8919370
2390.490, 0.1410600
2390.990, 0.7009810
2391.491, 1.436729
2391.991, 2.516705
2392.491, 2.652126
2392.992, 2.196068
2393.492, 0.8592530
2393.992, 0.5646970
2394.493, 1.264042
2394.993, 3.933449
2395.493, 2.305069
2395.994, 2.649704
2396.494, 1.794998
2396.994, 3.303570
2397.495, 3.624615
2397.995, 5.758808
2398.495, 9.054356
2398.996, 8.925972
2399.496, 5.322975
2399.996, 2.228924
2400.497, 0.5289230
2400.997, 1.605507
2401.497, 3.506386
2401.998, 6.648579
2402.498, 6.322952
2402.998, 4.360149
2403.499, 2.399727
2403.999, 2.008522
2404.499, 4.322872
2404.999, 5.328701
2405.500, 4.368164
2406.000, 2.818932
2406.500, 3.208321
2407.001, 3.097519
2407.501, 3.107590
2408.001, 3.420219
2408.501, 5.134624
2409.002, 5.746021
2409.502, 5.720150
2410.002, 5.580330
2410.503, 5.603031
2411.003, 5.426277
2411.503, 5.443356
2412.004, 5.567223
2412.504, 4.484295
2413.004, 5.070984
2413.505, 5.145363
2414.005, 4.792645
2414.505, 3.564053
2415.006, 3.359535
2415.506, 4.744926
2416.006, 5.023956
2416.507, 4.464226
2417.007, 4.093338
2417.507, 4.341778
2418.008, 5.332294
2418.508, 6.055183
2419.008, 6.236046
2419.509, 5.776794
2420.009, 6.115906
2420.509, 5.538845
2421.010, 4.529987
2421.510, 2.850590
2422.010, 2.261425
2422.510, 2.733532
2423.011, 4.849503
2423.511, 6.038834
2424.011, 5.216522
2424.512, 2.943558
2425.012, 2.916420
2425.512, 1.940987
2426.012, 2.114735
2426.513, 1.253342
2427.013, 4.196152
2427.513, 4.606842
2428.014, 3.315010
2428.514, 2.125870
2429.014, 1.673988
2429.515, 3.221901
2430.015, 3.512230
2430.515, 4.651913
2431.016, 4.613773
2431.516, 2.804413
2432.016, 0.8463330
2432.517, 1.770168
2433.017, 3.578293
2433.517, 4.330475
2434.018, 2.166233
2434.518, 1.173515
2435.018, 1.757938
2435.519, 3.167160
2436.019, 3.036446
2436.519, 0.2339900
2437.020, 0.6147420
2437.520, 0.3340760
2438.020, 2.800499
2438.521, 3.041599
2439.021, 2.823608
2439.521, 2.849110
2440.021, 2.703533
2440.522, 3.911480
2441.022, 4.949718
2441.522, 5.333923
2442.023, 5.581070
2442.523, 4.423023
2443.023, 3.125938
2443.523, 2.152840
2444.024, 1.414165
2444.524, 2.027531
2445.024, 2.678444
2445.525, 4.377380
2446.025, 4.845875
2446.525, 3.300400
2447.026, 2.100452
2447.526, 1.394264
2448.026, 1.985172
2448.527, 2.579903
2449.027, 2.939293
2449.527, 3.979549
2450.028, 4.951843
2450.528, 6.594135
2451.028, 6.727600
2451.529, 5.279961
2452.029, 4.322968
2452.529, 3.013885
2453.030, 2.570805
2453.530, 1.200756
2454.030, 1.164047
2454.531, 2.313057
2455.031, 3.671032
2455.531, 3.942726
2456.031, 3.065830
2456.532, 2.266083
2457.032, 3.662277
2457.532, 6.488865
2458.033, 9.532932
2458.533, 9.974800
2459.033, 7.660667
2459.534, 5.136086
2460.034, 4.084393
2460.534, 3.416294
2461.034, 1.255909
2461.535, 1.722282
2462.035, 2.266659
2462.535, 3.637836
2463.036, 2.457859
2463.536, 1.744183
2464.036, 2.052608
2464.537, 3.991886
2465.037, 6.571278
2465.537, 5.875187
2466.038, 4.767853
2466.538, 3.903900
2467.038, 5.323242
2467.539, 5.524227
2468.039, 4.895126
2468.539, 3.711178
2469.040, 3.651440
2469.540, 4.920990
2470.040, 6.248608
2470.541, 6.614670
2471.041, 4.620052
2471.541, 3.688225
2472.042, 2.268723
2472.542, 2.671379
2473.042, 3.845711
2473.542, 4.653252
2474.043, 3.722767
2474.543, 1.626175
2475.043, 1.835510
2475.544, 2.306599
2476.044, 4.171703
2476.544, 4.315475
2477.045, 4.143070
2477.545, 2.327335
2478.045, 0.5311780
2478.545, 1.141232
2479.046, 2.000328
2479.546, 3.795841
2480.046, 3.722210
2480.547, 2.586361
2481.047, 0.2751460
2481.547, 1.349369
2482.048, 0.9007380
2482.548, 1.313789
2483.048, 4.181816
2483.549, 1.163612
2484.049, 1.363567
2484.549, 0.4966390
2485.050, 1.650337
2485.550, 4.672348
2486.050, 6.299278
2486.551, 6.428669
2487.051, 3.370102
2487.551, 1.853416
2488.052, 2.687614
2488.552, 3.755745
2489.052, 3.573689
2489.552, 3.341225
2490.053, 4.533817
2490.553, 4.279907
2491.053, 3.868618
2491.554, 2.472675
2492.054, 0.7484130
2492.554, 1.208637
2493.055, 0.5570070
2493.555, 4.243511
2494.055, 3.229919
2494.556, 4.870651
2495.056, 2.266987
2495.556, 2.262501
2496.056, 1.859684
2496.557, 3.547367
2497.057, 5.291691
2497.557, 5.007748
2498.058, 4.284782
2498.558, 3.351707
2499.058, 2.694454
2499.559, 0.3864520
2500.059, 1.610180
2500.559, 0.5394820
2501.060, 1.386284
2501.560, 4.081322
2502.060, 2.183971
2502.561, 2.457882
2503.061, 0.6098560
2503.561, 1.458149
2504.062, 2.018093
2504.562, 3.096230
2505.062, 1.660358
2505.562, 3.162991
2506.063, 4.557102
2506.563, 5.513168
2507.063, 4.370720
2507.564, 1.131474
2508.064, 1.613476
2508.564, 2.484337
2509.065, 3.042053
2509.565, 2.681133
2510.065, 2.576195
2510.566, 4.603081
2511.066, 7.194191
2511.566, 7.838539
2512.067, 6.478718
2512.567, 3.939793
2513.067, 2.175339
2513.567, 1.936314
2514.068, 2.643009
2514.568, 3.638344
2515.068, 5.402946
2515.569, 4.207951
2516.069, 3.922810
2516.569, 3.629185
2517.070, 4.293758
2517.570, 4.122719
2518.070, 3.538010
2518.571, 4.232010
2519.071, 3.211479
2519.571, 5.1185999E-02
2520.072, 2.131258
2520.572, 2.546659
2521.072, 1.9180000E-02
2521.573, 0.4135320
2522.073, 2.130276
2522.573, 2.449623
2523.073, 3.233540
2523.574, 3.123779
2524.074, 4.274929
2524.574, 4.310322
2525.075, 5.065868
2525.575, 3.278469
2526.075, 3.207439
2526.576, 2.749252
2527.076, 4.206764
2527.576, 4.909561
2528.077, 6.033203
2528.577, 5.485935
2529.077, 4.802902
2529.578, 4.872574
2530.078, 4.995453
2530.578, 3.545679
2531.078, 0.8390810
2531.579, 0.1167720
2532.079, 0.2960910
2532.579, 1.637558
2533.080, 2.509319
2533.580, 5.025829
2534.080, 3.655575
2534.581, 2.359598
2535.081, 2.096035
2535.581, 3.103571
2536.082, 4.124947
2536.582, 2.719402
2537.082, 3.320724
2537.583, 2.683453
2538.083, 1.264950
2538.583, 0.2117460
2539.083, 0.3021200
2539.584, 2.375780
2540.084, 2.689522
2540.584, 2.495195
2541.085, 2.733200
2541.585, 2.464602
2542.085, 2.357470
2542.586, 2.904137
2543.086, 3.387194
2543.586, 3.688358
2544.087, 1.965734
2544.587, 0.9953920
2545.087, 1.127821
2545.588, 1.175184
2546.088, 0.2277130
2546.588, 1.052412
2547.089, 2.695229
2547.589, 5.111767
2548.089, 3.959333
2548.589, 3.354179
2549.090, 3.053747
2549.590, 3.622248
2550.090, 3.222740
2550.591, 2.925117
2551.091, 2.562876
2551.591, 2.405376
2552.092, 1.986725
2552.592, 2.010771
2553.092, 2.697134
2553.593, 4.300920
2554.093, 5.615931
2554.593, 5.560068
2555.094, 3.984480
2555.594, 1.197121
2556.094, 6.0816001E-02
2556.594, 0.1965430
2557.095, 1.464720
2557.595, 2.614235
2558.095, 2.862637
2558.596, 2.458324
2559.096, 1.600918
2559.596, 0.5368750
2560.097, 0.7249410
2560.597, 0.2291620
2561.097, 1.380693
2561.598, 2.659885
2562.098, 6.297451
2562.598, 6.479137
2563.099, 5.858480
2563.599, 1.802036
2564.099, 1.394142
2564.600, 2.969149
2565.100, 6.189230
2565.600, 5.708019
2566.100, 4.789623
2566.601, 5.328384
2567.101, 5.544838
2567.601, 6.604551
2568.102, 4.564764
2568.602, 6.646204
2569.102, 5.498354
2569.603, 7.775469
2570.103, 6.376493
2570.603, 4.026745
2571.104, 4.066410
2571.604, 5.813612
2572.104, 8.766613
2572.604, 8.048489
2573.105, 5.416115
2573.605, 4.835369
2574.105, 5.291063
2574.606, 6.865650
2575.106, 4.314760
2575.606, 2.866499
2576.107, 1.474575
2576.607, 5.951639
2577.107, 4.715155
2577.608, 4.563866
2578.108, 1.999363
2578.608, 4.922407
2579.109, 7.083120
2579.609, 7.633915
2580.109, 6.576195
2580.610, 3.959444
2581.110, 3.773279
2581.610, 4.179884
2582.111, 6.642622
2582.611, 6.740608
2583.111, 6.197063
2583.611, 3.713129
2584.112, 2.540098
2584.612, 4.240828
2585.112, 5.126465
2585.613, 5.616795
2586.113, 2.816698
2586.613, 1.761194
2587.114, 2.013405
2587.614, 2.960331
2588.114, 3.651037
2588.615, 4.379011
2589.115, 3.985733
2589.615, 4.213102
2590.115, 4.248949
2590.616, 4.728598
2591.116, 3.612633
2591.616, 2.643513
2592.117, 2.999193
2592.617, 3.905413
2593.117, 4.569141
2593.618, 4.431480
2594.118, 5.519976
2594.618, 4.541649
2595.119, 3.441814
2595.619, 3.265251
2596.119, 4.999687
2596.620, 4.252607
2597.120, 4.050879
2597.620, 3.565481
2598.121, 5.159702
2598.621, 4.783375
2599.121, 4.636284
2599.622, 5.225746
2600.122, 5.146597
2600.622, 5.205490
2601.122, 5.329273
2601.623, 5.811161
2602.123, 5.334643
2602.623, 3.272936
2603.124, 2.941151
2603.624, 2.226488
2604.124, 2.730839
2604.625, 2.533522
2605.125, 1.947991
2605.625, 2.455914
2606.125, 2.983461
2606.626, 2.227094
2607.126, 1.483032
2607.626, 6.8611003E-02
2608.127, 2.737968
2608.627, 4.285810
2609.127, 4.831402
2609.628, 3.338457
2610.128, 2.021075
2610.628, 1.273874
2611.129, 0.4668280
2611.629, 0.1300180
2612.129, 1.379502
2612.630, 1.395168
2613.130, 2.908770
2613.630, 1.735469
2614.131, 2.461351
2614.631, 0.5372490
2615.131, 0.6189450
2615.632, 0.4005070
2616.132, 0.3597160
2616.632, 0.1842000
2617.133, 0.6101200
2617.633, 2.8883999E-02
2618.133, 1.365737
2618.633, 1.124012
2619.134, 0.3543060
2619.634, 1.342448
2620.134, 0.9736430
2620.635, 4.5704000E-02
2621.135, 1.817869
2621.635, 1.735058
2622.135, 0.5764600
2622.636, 0.5748520
2623.136, 1.960268
2623.636, 2.836426
2624.137, 3.057051
2624.637, 3.206745
2625.137, 2.543760
2625.638, 0.6460040
2626.138, 1.515034
2626.638, 2.455426
2627.139, 1.998721
2627.639, 0.8316110
2628.139, 0.5371140
2628.640, 0.8032650
2629.140, 2.251363
2629.640, 1.015978
2630.141, 2.267872
2630.641, 0.2050710
2631.141, 0.9368530
2631.642, 0.2298030
2632.142, 1.011787
2632.642, 0.3605790
2633.143, 0.6762140
2633.643, 0.7826230
2634.143, 1.098291
2634.644, 1.345062
2635.144, 0.1519110
2635.644, 1.053919
2636.144, 0.8757310
2636.645, 3.691533
2637.145, 3.260120
2637.645, 3.008291
2638.146, 1.085303
2638.646, 2.131819
2639.146, 3.042496
2639.646, 4.195276
2640.147, 3.224760
2640.647, 2.309370
2641.147, 2.442691
2641.648, 2.778549
2642.148, 3.380072
2642.648, 3.575507
2643.149, 3.023273
2643.649, 2.524987
2644.149, 1.835348
2644.650, 2.322935
2645.150, 4.091871
2645.650, 4.664873
2646.151, 5.021563
2646.651, 6.459959
2647.151, 7.817852
2647.652, 7.550644
2648.152, 4.325468
2648.652, 3.180603
2649.153, 3.625458
2649.653, 5.984205
2650.153, 6.644695
2650.654, 6.433578
2651.154, 6.500149
2651.654, 6.017332
2652.155, 6.857702
2652.655, 6.828112
2653.155, 5.091328
2653.655, 5.440641
2654.156, 7.377100
2654.656, 7.606871
2655.156, 7.106867
2655.657, 5.109602
2656.157, 6.668011
2656.657, 6.202185
2657.157, 5.801939
2657.658, 5.275414
2658.158, 4.633202
2658.658, 5.195250
2659.159, 5.747499
2659.659, 6.340391
2660.159, 6.633268
2660.660, 6.743187
2661.160, 5.424387
2661.660, 1.831671
2662.161, 1.610838
2662.661, 2.458141
2663.161, 5.835882
2663.662, 5.702295
2664.162, 5.331362
2664.662, 5.109795
2665.163, 6.421352
2665.663, 7.154947
2666.163, 6.271297
2666.664, 6.142704
2667.164, 7.239647
2667.664, 10.44883
2668.165, 7.799225
2668.665, 5.825886
2669.165, 2.419054
2669.666, 4.838614
2670.166, 5.931646
2670.666, 6.214405
2671.166, 4.749424
2671.667, 5.147949
2672.167, 6.484066
2672.667, 7.208004
2673.168, 7.568594
2673.668, 7.053802
2674.168, 6.826700
2674.668, 4.512011
2675.169, 3.278854
2675.669, 1.740448
2676.169, 4.918560
2676.670, 4.196712
2677.170, 6.782806
2677.670, 4.211954
2678.171, 4.420126
2678.671, 3.455481
2679.171, 3.729382
2679.672, 3.862106
2680.172, 2.914619
2680.672, 2.691401
2681.173, 3.668671
2681.673, 3.395752
2682.173, 3.745899
2682.674, 4.755320
2683.174, 6.002003
2683.674, 7.843201
2684.175, 6.250105
2684.675, 6.036837
2685.175, 1.887003
2685.676, 1.182728
2686.176, 0.5748810
2686.676, 3.588125
2687.177, 4.797234
2687.677, 4.596338
2688.177, 2.549410
2688.677, 1.140091
2689.178, 2.219860
2689.678, 3.047037
2690.178, 3.304668
2690.679, 4.011511
2691.179, 5.430660
2691.679, 6.693138
2692.179, 5.355106
2692.680, 5.590490
2693.180, 5.963228
2693.680, 6.356989
2694.181, 5.069525
2694.681, 4.664846
2695.181, 4.957434
2695.682, 4.286180
2696.182, 6.467220
2696.682, 7.830475
2697.183, 10.45654
2697.683, 7.218828
2698.183, 3.176638
2698.684, 1.896416
2699.184, 3.311659
2699.684, 5.254332
2700.185, 4.117884
2700.685, 2.318766
2701.185, 2.427559
2701.686, 3.575331
2702.186, 6.382490
2702.686, 5.574081
2703.187, 5.317194
2703.687, 4.993738
2704.187, 5.813141
2704.688, 6.854086
2705.188, 6.574760
2705.688, 7.461826
2706.188, 6.317659
2706.689, 4.000921
2707.189, 2.114204
2707.689, 2.360962
2708.190, 1.829920
2708.690, 1.748175
2709.190, 0.5841140
2709.690, 2.657059
2710.191, 4.287613
2710.691, 5.191307
2711.191, 3.280729
2711.692, 2.082993
2712.192, 2.169506
2712.692, 3.801315
2713.193, 3.434868
2713.693, 2.729734
2714.193, 2.362041
2714.694, 2.628561
2715.194, 2.541773
2715.694, 3.353012
2716.195, 2.899727
2716.695, 3.241980
2717.195, 3.866751
2717.696, 2.767086
2718.196, 1.590530
2718.696, 0.3361360
2719.197, 2.022678
2719.697, 1.950462
2720.197, 0.6113820
2720.698, 0.5223770
2721.198, 2.375929
2721.698, 5.392345
2722.198, 5.376032
2722.699, 3.900814
2723.199, 3.524530
2723.699, 3.944988
2724.200, 4.634682
2724.700, 3.377327
2725.200, 3.742302
2725.701, 3.870184
2726.201, 2.530704
2726.701, 2.569622
2727.201, 3.201706
2727.702, 4.321039
2728.202, 5.269709
2728.702, 5.295481
2729.203, 5.664965
2729.703, 3.479292
2730.203, 3.216801
2730.704, 4.943871
2731.204, 5.028791
2731.704, 4.526321
2732.205, 2.608345
2732.705, 4.153969
2733.205, 5.283073
2733.706, 4.103226
2734.206, 2.305340
2734.706, 0.3618470
2735.207, 0.5560630
2735.707, 4.6703000E-02
2736.207, 1.823036
2736.708, 3.059612
2737.208, 2.460110
2737.708, 2.442657
2738.208, 3.677406
2738.709, 4.761387
2739.209, 3.894379
2739.709, 4.184010
2740.210, 4.574680
2740.710, 6.032173
2741.210, 5.285294
2741.711, 3.324718
2742.211, 1.295296
2742.711, 1.742874
2743.212, 3.671368
2743.712, 4.430763
2744.212, 2.452477
2744.712, 2.273918
2745.213, 4.048126
2745.713, 6.775520
2746.213, 7.453510
2746.714, 6.284794
2747.214, 2.266537
2747.714, 1.380184
2748.215, 2.904686
2748.715, 5.156357
2749.215, 3.900059
2749.716, 2.112522
2750.216, 0.1236080
2750.716, 0.8958280
2751.217, 2.243469
2751.717, 4.586361
2752.217, 5.226471
2752.718, 3.302685
2753.218, 2.483173
2753.718, 3.469063
2754.219, 4.447102
2754.719, 6.766422
2755.219, 6.246895
2755.719, 6.102528
2756.220, 4.398548
2756.720, 3.584980
2757.220, 3.365257
2757.721, 2.025372
2758.221, 0.4686010
2758.721, 1.228954
2759.222, 3.376896
2759.722, 5.954662
2760.222, 5.068985
2760.723, 3.838432
2761.223, 4.592407
2761.723, 5.464901
2762.223, 5.806370
2762.724, 4.532913
2763.224, 4.163807
2763.724, 3.850334
2764.225, 4.096836
2764.725, 5.378555
2765.225, 4.122860
2765.726, 5.207336
2766.226, 5.109711
2766.726, 7.419483
2767.227, 6.334232
2767.727, 5.610798
2768.227, 5.397148
2768.728, 4.646667
2769.228, 2.952572
2769.728, 2.357307
2770.229, 3.178192
2770.729, 3.694653
2771.229, 4.868622
2771.729, 6.226799
2772.230, 7.914146
2772.730, 6.661762
2773.230, 4.075932
2773.731, 3.424473
2774.231, 2.868046
2774.731, 3.933903
2775.232, 5.647800
2775.732, 5.724026
2776.232, 5.486763
2776.733, 2.076618
2777.233, 3.859066
2777.733, 3.841888
2778.234, 5.780304
2778.734, 4.549809
2779.234, 4.381729
2779.734, 3.283379
2780.235, 3.356560
2780.735, 2.968445
2781.235, 1.211700
2781.736, 3.321960
2782.236, 4.177368
2782.736, 6.973801
2783.237, 5.480110
2783.737, 4.188072
2784.237, 3.939621
2784.738, 3.559990
2785.238, 4.823288
2785.738, 5.200401
2786.239, 5.808514
2786.739, 3.577450
2787.239, 4.609093
2787.740, 2.599190
2788.240, 4.390411
2788.740, 2.566338
2789.240, 3.495419
2789.741, 2.691067
2790.241, 2.990028
2790.741, 1.917877
2791.242, 0.9540440
2791.742, 0.2000430
2792.242, 1.860325
2792.743, 0.3135490
2793.243, 0.4229240
2793.743, 2.323841
2794.244, 1.783787
2794.744, 0.5188560
2795.244, 5.6251999E-02
2795.745, 8.9910002E-03
2796.245, 1.142555
2796.745, 1.068401
2797.245, 2.777718
2797.746, 0.2217600
2798.246, 1.009266
2798.746, 4.665424
2799.247, 4.430264
2799.747, 4.164017
2800.247, 4.484798
2800.748, 6.419434
2801.248, 7.835125
2801.748, 8.550507
2802.249, 7.644020
2802.749, 9.506290
2803.249, 7.155750
2803.750, 6.507587
2804.250, 4.127865
2804.750, 1.566311
2805.250, 5.4455001E-02
2805.751, 0.3088040
2806.251, 3.982613
2806.751, 5.312130
2807.252, 5.992188
2807.752, 5.701061
2808.252, 5.118511
2808.753, 1.569351
2809.253, 1.303902
2809.753, 1.813290
2810.254, 2.842827
2810.754, 1.707874
2811.254, 0.8284800
2811.755, 1.533398
2812.255, 0.2508240
2812.755, 0.4613460
2813.255, 1.352932
2813.756, 1.452854
2814.256, 1.358299
2814.756, 1.166107
2815.257, 6.7218997E-02
2815.757, 1.378147
2816.257, 1.871208
2816.758, 1.346245
2817.258, 1.074501
2817.758, 0.3581090
2818.259, 1.594196
2818.759, 3.412033
2819.259, 5.092102
2819.760, 3.890533
2820.260, 1.821800
2820.760, 2.436905
2821.260, 2.765648
2821.761, 2.287640
2822.261, 4.183754
2822.761, 3.078064
2823.262, 1.178463
2823.762, 0.8113750
2824.262, 0.2893180
2824.763, 2.529591
2825.263, 1.879292
2825.763, 2.654984
2826.264, 2.201271
2826.764, 3.906353
2827.264, 3.640961
2827.765, 4.347965
2828.265, 3.152653
2828.765, 2.177341
2829.266, 2.670506
2829.766, 1.659416
2830.266, 2.219509
2830.766, 1.138264
2831.267, 1.201218
2831.767, 1.461773
2832.267, 0.7060430
2832.768, 1.338150
2833.268, 0.3557280
2833.768, 1.669334
2834.269, 2.671440
2834.769, 2.224674
2835.269, 0.9230960
2835.770, 0.8095250
2836.270, 0.8456610
2836.770, 0.5532190
2837.271, 0.1929660
2837.771, 0.6180310
2838.271, 3.088402
2838.771, 3.493214
2839.272, 3.382893
2839.772, 1.734947
2840.272, 2.386902
2840.773, 3.727131
2841.273, 3.168327
2841.773, 2.914680
2842.274, 1.474590
2842.774, 1.255291
2843.274, 0.5133900
2843.775, 1.757122
2844.275, 2.732311
2844.775, 4.650776
2845.276, 5.534351
2845.776, 5.252914
2846.276, 4.848026
2846.777, 3.769299
2847.277, 6.069839
2847.777, 7.800774
2848.277, 6.876953
2848.778, 5.057652
2849.278, 2.816708
2849.778, 3.712463
2850.279, 5.161617
2850.779, 6.086002
2851.279, 5.243023
2851.780, 2.839748
2852.280, 1.197975
2852.780, 2.288662
2853.281, 5.250084
2853.781, 6.144901
2854.281, 7.461346
2854.781, 5.655052
2855.282, 4.892914
2855.782, 3.829380
2856.282, 2.638195
2856.783, 5.069130
2857.283, 4.002621
2857.783, 7.228115
2858.284, 5.596802
2858.784, 6.707462
2859.284, 4.697308
2859.785, 3.184238
2860.285, 3.374416
2860.785, 4.823277
2861.286, 5.932728
2861.786, 5.914928
2862.286, 5.208561
2862.787, 4.969196
2863.287, 4.182457
2863.787, 3.370342
2864.288, 3.678822
2864.788, 5.100224
2865.288, 6.631119
2865.788, 6.109810
2866.289, 4.009285
2866.789, 2.145702
2867.289, 1.544823
2867.790, 1.719101
2868.290, 2.398426
2868.790, 3.744122
2869.291, 2.169186
2869.791, 1.319603
2870.291, 0.4719350
2870.792, 4.511913
2871.292, 5.767235
2871.792, 5.528484
2872.292, 4.478527
2872.793, 5.775990
2873.293, 8.562561
2873.793, 5.989452
2874.294, 3.993549
2874.794, 0.3757900
2875.294, 0.9060440
2875.795, 1.212482
2876.295, 1.737030
2876.795, 1.406315
2877.296, 0.9221950
2877.796, 1.715229
2878.296, 3.444565
2878.797, 5.266628
2879.297, 6.630455
2879.797, 6.899376
2880.298, 6.273319
2880.798, 6.920944
2881.298, 5.886509
2881.799, 5.353825
2882.299, 6.058258
2882.799, 8.078854
2883.299, 8.598869
2883.800, 6.714806
2884.300, 6.070496
2884.800, 6.501110
2885.301, 7.557262
2885.801, 6.986153
2886.301, 5.075272
2886.802, 3.617580
2887.302, 3.348370
2887.802, 4.120499
2888.302, 3.445793
2888.803, 3.774899
2889.303, 5.158031
2889.803, 8.200191
2890.304, 10.13051
2890.804, 9.571354
2891.304, 8.355385
2891.805, 6.995472
2892.305, 7.560665
2892.805, 7.600151
2893.306, 7.191326
2893.806, 5.177860
2894.306, 5.756767
2894.807, 5.942020
2895.307, 7.974934
2895.807, 4.442631
2896.308, 2.875378
2896.808, 0.5982130
2897.308, 1.159985
2897.809, 1.585083
2898.309, 2.352734
2898.809, 4.660397
2899.310, 3.049805
2899.810, 2.110535
2900.310, 0.9634170
2900.810, 3.853550
2901.311, 5.831535
2901.811, 6.429703
2902.311, 5.581577
2902.812, 4.684483
2903.312, 4.463131
2903.812, 2.734726
2904.312, 0.4314960
2904.813, 1.5694000E-02
2905.313, 1.181446
2905.813, 3.097713
2906.314, 4.112347
2906.814, 4.095490
2907.314, 2.912205
2907.815, 0.1509400
2908.315, 0.8727720
2908.815, 2.937756
2909.316, 7.095657
2909.816, 7.696026
2910.316, 6.344288
2910.817, 3.524284
2911.317, 0.1197200
2911.817, 0.3293910
2912.318, 1.074463
2912.818, 4.013466
2913.318, 3.737934
2913.819, 2.823101
2914.319, 2.443031
2914.819, 2.401134
2915.320, 2.880329
2915.820, 2.651089
2916.320, 2.771061
2916.821, 2.2465000E-02
2917.321, 1.540833
2917.821, 1.991463
2918.321, 4.030869
2918.822, 3.035206
2919.322, 4.215996
2919.822, 5.930519
2920.323, 6.497272
2920.823, 6.361000
2921.323, 5.299492
2921.823, 6.540356
2922.324, 7.823448
2922.824, 9.928106
2923.324, 10.74559
2923.825, 10.73393
2924.325, 8.181425
2924.825, 4.170105
2925.326, 2.399155
2925.826, 2.348431
2926.326, 4.764130
2926.827, 6.344492
2927.327, 6.361439
2927.827, 4.273613
2928.328, 2.447887
2928.828, 2.146732
2929.328, 1.634134
2929.829, 1.770716
2930.329, 2.673607
2930.829, 3.885553
2931.330, 4.360498
2931.830, 4.198677
2932.330, 4.707571
2932.831, 5.598839
2933.331, 5.307465
2933.831, 4.947998
2934.332, 4.148518
2934.832, 4.940554
2935.332, 6.026348
2935.832, 6.261906
2936.333, 7.864159
2936.833, 5.256754
2937.333, 2.877060
2937.834, 1.531534
2938.334, 4.460438
2938.834, 7.203884
2939.334, 7.670544
2939.835, 6.771381
2940.335, 5.274252
2940.835, 6.405886
2941.336, 5.231739
2941.836, 5.704052
2942.336, 3.324900
2942.837, 2.766592
2943.337, 2.204521
2943.837, 2.696743
2944.338, 2.185577
2944.838, 2.887274
2945.338, 3.315643
2945.839, 6.197784
2946.339, 7.586390
2946.839, 7.914818
2947.340, 8.920357
2947.840, 8.374422
2948.340, 8.070011
2948.841, 5.067743
2949.341, 6.407362
2949.841, 7.178925
2950.342, 8.460484
2950.842, 5.975977
2951.342, 7.243446
2951.843, 6.693792
2952.343, 5.046377
2952.843, 3.471819
2953.343, 5.265707
2953.844, 8.077953
2954.344, 7.404076
2954.844, 6.750912
2955.345, 8.170788
2955.845, 11.78275
2956.345, 13.69473
2956.845, 14.69648
2957.346, 10.53443
2957.846, 9.798538
2958.346, 9.320534
2958.847, 11.92715
2959.347, 13.11597
2959.847, 13.66914
2960.348, 14.55015
2960.848, 13.47006
2961.348, 13.39803
2961.849, 12.95966
2962.349, 12.72167
2962.849, 12.08492
2963.350, 14.53424
2963.850, 14.38960
2964.350, 14.80021
2964.851, 11.83256
2965.351, 13.13058
2965.851, 13.17907
2966.352, 14.41354
2966.852, 14.83927
2967.352, 15.57335
2967.853, 14.38233
2968.353, 14.18462
2968.853, 15.17832
2969.354, 16.31619
2969.854, 14.21413
2970.354, 11.63466
2970.854, 9.877272
2971.355, 8.828722
2971.855, 9.867159
2972.355, 11.27318
2972.856, 14.13521
2973.356, 14.02728
2973.856, 14.72951
2974.356, 14.38145
2974.857, 11.12715
2975.357, 6.650089
2975.857, 4.675913
2976.358, 6.916012
2976.858, 8.822794
2977.358, 9.283312
2977.859, 9.330876
2978.359, 8.086952
2978.859, 7.069397
2979.360, 6.909937
2979.860, 6.941928
2980.360, 6.659863
2980.861, 6.786627
2981.361, 7.555803
2981.861, 5.685077
2982.362, 3.917610
2982.862, 4.580227
2983.362, 6.827996
2983.863, 7.037882
2984.363, 6.355761
2984.863, 6.130850
2985.364, 7.532768
2985.864, 8.000816
2986.364, 8.852298
2986.865, 8.231839
2987.365, 7.857595
2987.865, 6.985161
2988.365, 4.654465
2988.866, 4.694523
2989.366, 5.713978
2989.866, 8.348968
2990.367, 9.014534
2990.867, 9.311824
2991.367, 7.275694
2991.867, 6.299417
2992.368, 3.202835
2992.868, 2.113788
2993.368, 4.1058999E-02
2993.869, 0.6782990
2994.369, 2.296743
2994.869, 3.637530
2995.370, 3.222705
2995.870, 2.837189
2996.370, 1.778323
2996.871, 2.737684
2997.371, 3.298963
2997.871, 4.780493
2998.372, 5.778572
2998.872, 5.396193
2999.372, 3.802920
2999.873, 3.680107
3000.373, 3.588864
3000.873, 4.842247
3001.374, 3.502210
3001.874, 3.076040
3002.374, 3.076742
3002.875, 2.713595
3003.375, 7.137826
3003.875, 8.123406
3004.375, 10.86248
3004.876, 7.313511
3005.376, 5.451717
3005.876, 3.031842
3006.377, 3.801260
3006.877, 4.237113
3007.377, 4.453135
3007.878, 1.868133
3008.378, 0.4854740
3008.878, 0.3000050
3009.378, 1.110497
3009.879, 6.175422
3010.379, 6.603524
3010.879, 6.985538
3011.380, 4.515407
3011.880, 5.679748
3012.380, 4.799148
3012.881, 2.861588
3013.381, 3.945143
3013.881, 4.124598
3014.382, 4.101572
3014.882, 0.1793000
3015.382, 8.9267001E-02
3015.883, 1.687436
3016.383, 5.235010
3016.883, 3.393097
3017.384, 1.716034
3017.884, 1.326765
3018.384, 0.7041220
3018.885, 1.740430
3019.385, 3.399804
3019.885, 2.899249
3020.385, 1.181378
3020.886, 0.7006080
3021.386, 2.261748
3021.886, 3.657588
3022.387, 3.334874
3022.887, 3.074157
3023.387, 2.226222
3023.888, 0.9110680
3024.388, 1.288758
3024.888, 2.160375
3025.389, 0.4369300
3025.889, 2.375474
3026.389, 2.328791
3026.889, 2.849636
3027.390, 0.2301900
3027.890, 1.774398
3028.390, 0.3080460
3028.891, 1.392663
3029.391, 0.2928200
3029.891, 1.252243
3030.392, 1.356579
3030.892, 3.279340
3031.392, 2.320731
3031.893, 0.6576430
3032.393, 1.043145
3032.893, 0.6503040
3033.394, 0.2507560
3033.894, 0.2834470
3034.394, 0.4513930
3034.895, 0.4466130
3035.395, 0.4042350
3035.895, 1.660228
3036.396, 0.6261090
3036.896, 0.1720240
3037.396, 2.605015
3037.896, 3.543618
3038.397, 4.881451
3038.897, 3.598166
3039.397, 1.550183
3039.898, 0.5734670
3040.398, 0.9951140
3040.898, 1.190420
3041.399, 0.8396340
3041.899, 0.3695690
3042.399, 1.023962
3042.900, 1.164483
3043.400, 1.608035
3043.900, 1.043143
3044.400, 4.7777001E-02
3044.901, 0.5390900
3045.401, 1.100641
3045.901, 1.297899
3046.402, 1.301882
3046.902, 0.6499390
3047.402, 1.389332
3047.903, 1.695408
3048.403, 3.747923
3048.903, 4.022215
3049.404, 2.049397
3049.904, 1.023978
3050.404, 1.296896
3050.905, 0.8020920
3051.405, 0.8877090
3051.905, 4.573778
3052.406, 3.996932
3052.906, 3.542728
3053.406, 3.749891
3053.906, 3.808457
3054.407, 4.747530
3054.907, 3.140139
3055.407, 3.969072
3055.908, 5.778670
3056.408, 7.541983
3056.908, 7.913195
3057.409, 6.509296
3057.909, 4.239186
3058.409, 2.337981
3058.910, 1.119871
3059.410, 2.169584
3059.910, 2.073604
3060.411, 2.745920
3060.911, 3.334013
3061.411, 4.521208
3061.911, 5.652778
3062.412, 5.279405
3062.912, 5.906954
3063.412, 4.955441
3063.913, 6.309980
3064.413, 6.269335
3064.913, 7.991430
3065.414, 8.750832
3065.914, 8.652354
3066.414, 7.114805
3066.915, 5.132001
3067.415, 5.861837
3067.915, 6.204910
3068.416, 6.554621
3068.916, 5.108725
3069.416, 4.038349
3069.917, 3.096456
3070.417, 3.951877
3070.917, 4.826900
3071.417, 5.715328
3071.918, 5.052835
3072.418, 4.510297
3072.918, 3.933544
3073.419, 5.422810
3073.919, 6.862236
3074.419, 7.744087
3074.920, 6.710434
3075.420, 4.186363
3075.920, 6.130476
3076.421, 5.758225
3076.921, 5.403658
3077.421, 2.123440
3077.922, 1.482921
3078.422, 3.591245
3078.922, 4.681816
3079.422, 3.404688
3079.923, 3.874503
3080.423, 4.199745
3080.923, 6.457167
3081.424, 5.987326
3081.924, 5.401876
3082.424, 7.071848
3082.925, 5.901590
3083.425, 5.301036
3083.925, 2.601952
3084.426, 3.521593
3084.926, 4.421541
3085.426, 4.363443
3085.927, 5.102684
3086.427, 3.340656
3086.927, 2.049904
3087.427, 0.3675470
3087.928, 0.9810890
3088.428, 3.755250
3088.928, 5.224043
3089.429, 5.202350
3089.929, 3.109690
3090.429, 3.300570
3090.930, 0.8944680
3091.430, 1.098528
3091.930, 0.3983730
3092.431, 1.641832
3092.931, 2.497221
3093.431, 1.651676
3093.932, 2.270752
3094.432, 2.232901
3094.932, 3.997656
3095.433, 4.237030
3095.933, 5.168415
3096.433, 2.337620
3096.933, 0.7592640
3097.434, 0.3463900
3097.934, 1.416370
3098.434, 3.295309
3098.935, 2.527040
3099.435, 2.600754
3099.935, 2.106503
3100.436, 3.115730
3100.936, 4.608019
3101.436, 4.766439
3101.937, 3.624327
3102.437, 3.579815
3102.937, 3.624266
3103.438, 4.521677
3103.938, 6.041851
3104.438, 6.878624
3104.938, 5.657343
3105.439, 3.583780
3105.939, 2.879545
3106.439, 5.293888
3106.940, 6.011860
3107.440, 6.789724
3107.940, 4.215927
3108.441, 2.618547
3108.941, 0.9977400
3109.441, 3.447334
3109.942, 5.352306
3110.442, 7.169384
3110.942, 4.081028
3111.443, 1.753716
3111.943, 7.5889998E-03
3112.443, 0.3014300
3112.944, 0.8186490
3113.444, 1.205486
3113.944, 1.168634
3114.444, 4.351404
3114.945, 4.713673
3115.445, 5.530571
3115.945, 2.560902
3116.446, 3.559811
3116.946, 1.179785
3117.446, 3.435642
3117.947, 4.089493
3118.447, 6.162111
3118.947, 6.974895
3119.448, 6.877541
3119.948, 6.482801
3120.448, 6.256113
3120.948, 4.531996
3121.449, 2.313244
3121.949, 0.2732030
3122.449, 0.2541890
3122.950, 2.397228
3123.450, 3.473478
3123.950, 4.271240
3124.451, 4.682676
3124.951, 6.784441
3125.451, 8.561295
3125.952, 9.973539
3126.452, 8.515800
3126.952, 7.378929
3127.453, 7.137131
3127.953, 5.851971
3128.453, 4.992405
3128.954, 2.527443
3129.454, 3.368477
3129.954, 2.580210
3130.455, 2.401627
3130.955, 1.744690
3131.455, 2.665890
3131.955, 2.606131
3132.456, 3.362028
3132.956, 3.234875
3133.456, 4.438118
3133.957, 5.727993
3134.457, 4.257217
3134.957, 2.363842
3135.458, 1.342335
3135.958, 1.982870
3136.458, 2.997902
3136.958, 1.437775
3137.459, 0.7428740
3137.959, 1.278107
3138.459, 7.7010997E-02
3138.960, 1.968925
3139.460, 1.197140
3139.960, 1.022781
3140.461, 3.874275
3140.961, 5.036285
3141.461, 5.500389
3141.962, 3.678040
3142.462, 4.070576
3142.962, 3.033958
3143.463, 2.447193
3143.963, 2.141354
3144.463, 3.756939
3144.964, 4.786438
3145.464, 5.568684
3145.964, 5.682556
3146.465, 6.011288
3146.965, 6.017624
3147.465, 4.210434
3147.966, 3.935833
3148.466, 2.506359
3148.966, 2.483471
3149.466, 2.552929
3149.967, 1.611340
3150.467, 0.4392240
3150.967, 0.9746670
3151.468, 2.096939
3151.968, 3.627827
3152.468, 3.777985
3152.969, 4.913548
3153.469, 6.145721
3153.969, 5.256134
3154.469, 5.877113
3154.970, 5.163467
3155.470, 5.033066
3155.970, 3.613159
3156.471, 2.810558
3156.971, 2.791309
3157.471, 1.109497
3157.972, 2.327469
3158.472, 2.308514
3158.972, 3.316597
3159.473, 1.887394
3159.973, 3.566833
3160.473, 2.410030
3160.974, 3.369091
3161.474, 1.948975
3161.974, 4.112904
3162.475, 4.727547
3162.975, 4.124184
3163.475, 2.696316
3163.976, 1.325130
3164.476, 2.571815
3164.976, 3.610687
3165.477, 3.196487
3165.977, 1.934532
3166.477, 1.333721
3166.977, 1.554054
3167.478, 2.793087
3167.978, 2.281151
3168.478, 2.960888
3168.979, 0.4991460
3169.479, 2.807949
3169.979, 5.086079
3170.479, 6.489017
3170.980, 5.968163
3171.480, 3.063259
3171.980, 3.669571
3172.481, 2.230244
3172.981, 2.647415
3173.481, 2.851635
3173.982, 4.212387
3174.482, 5.463078
3174.982, 8.538250
3175.483, 7.664467
3175.983, 8.427025
3176.483, 5.970478
3176.984, 5.119362
3177.484, 2.362782
3177.984, 1.370270
3178.485, 2.496704
3178.985, 2.515263
3179.485, 0.9819950
3179.986, 1.005493
3180.486, 3.020481
3180.986, 3.869816
3181.487, 5.334469
3181.987, 3.774212
3182.487, 3.511112
3182.988, 2.255074
3183.488, 2.075008
3183.988, 3.642120
3184.488, 5.166740
3184.989, 9.532478
3185.489, 8.647297
3185.989, 5.173931
3186.490, 0.9012300
3186.990, 0.2141000
3187.490, 2.195354
3187.990, 2.761929
3188.491, 3.185314
3188.991, 3.134342
3189.491, 3.102341
3189.992, 5.750423
3190.492, 7.921246
3190.992, 6.567596
3191.493, 4.508205
3191.993, 4.440071
3192.493, 6.231922
3192.994, 5.391151
3193.494, 2.711559
3193.994, 4.043621
3194.495, 5.311161
3194.995, 4.681908
3195.495, 3.544994
3195.996, 3.049694
3196.496, 3.924229
3196.996, 1.951218
3197.497, 2.078773
3197.997, 3.967613
3198.497, 6.518559
3198.998, 7.079041
3199.498, 5.668808
3199.998, 5.010208
3200.499, 4.851589
3200.999, 5.315140
3201.499, 4.598961
3201.999, 4.343571
3202.500, 3.880173
3203.000, 4.993599
3203.500, 3.228672
3204.001, 2.823460
3204.501, 1.699532
3205.001, 1.764351
3205.501, 1.884274
3206.002, 3.330311
3206.502, 5.457241
3207.002, 6.873707
3207.503, 6.206261
3208.003, 6.247944
3208.503, 5.335484
3209.004, 3.578587
3209.504, 3.734730
3210.004, 2.827091
3210.505, 4.427860
3211.005, 4.342587
3211.505, 3.081886
3212.006, 2.752827
3212.506, 1.756104
3213.006, 3.748932
3213.507, 4.687958
3214.007, 3.293076
3214.507, 3.006374
3215.008, 2.231167
3215.508, 5.880680
3216.008, 8.364464
3216.509, 9.139748
3217.009, 8.017090
3217.509, 6.715633
3218.010, 7.341286
3218.510, 6.907047
3219.010, 7.951935
3219.510, 6.703487
3220.011, 7.651993
3220.511, 6.316223
3221.011, 6.600445
3221.512, 4.794918
3222.012, 3.817200
3222.512, 4.105972
3223.012, 4.179398
3223.513, 4.662537
3224.013, 3.748714
3224.513, 3.358517
3225.014, 1.897053
3225.514, 2.657665
3226.014, 1.856804
3226.515, 2.982773
3227.015, 0.4683000
3227.515, 0.4161220
3228.016, 1.267570
3228.516, 2.812229
3229.016, 3.165543
3229.517, 0.8575170
3230.017, 1.766293
3230.517, 3.433594
3231.018, 5.090401
3231.518, 6.862629
3232.018, 5.346958
3232.519, 4.526756
3233.019, 2.714714
3233.519, 4.771904
3234.020, 6.803207
3234.520, 6.818165
3235.020, 7.171738
3235.521, 4.090878
3236.021, 4.308624
3236.521, 2.204868
3237.021, 4.583652
3237.522, 4.455986
3238.022, 6.019260
3238.522, 6.281998
3239.023, 6.872128
3239.523, 6.930084
3240.023, 3.248695
3240.523, 3.239525
3241.024, 2.565147
3241.524, 7.000843
3242.024, 7.570248
3242.525, 7.362949
3243.025, 4.392696
3243.525, 2.404297
3244.026, 1.853195
3244.526, 3.265629
3245.026, 3.619629
3245.527, 6.041214
3246.027, 5.725330
3246.527, 5.099907
3247.028, 2.983925
3247.528, 2.697212
3248.028, 2.779789
3248.529, 2.585785
3249.029, 3.196220
3249.529, 0.9874340
3250.030, 0.8782840
3250.530, 0.2095870
3251.030, 1.503956
3251.531, 3.600136
3252.031, 4.041443
3252.531, 3.674198
3253.031, 3.026154
3253.532, 4.175301
3254.032, 6.582909
3254.532, 6.862274
3255.033, 6.310368
3255.533, 5.048531
3256.033, 1.420010
3256.534, 0.5953520
3257.034, 1.020058
3257.534, 2.223663
3258.034, 3.578590
3258.535, 5.277657
3259.035, 3.612553
3259.535, 2.521526
3260.036, 2.374191
3260.536, 3.742256
3261.036, 5.007160
3261.537, 3.517208
3262.037, 5.137920
3262.537, 3.884754
3263.038, 4.931049
3263.538, 1.729424
3264.038, 2.804024
3264.539, 3.032520
3265.039, 4.850658
3265.539, 6.078781
3266.040, 7.775650
3266.540, 7.330647
3267.040, 6.678066
3267.541, 6.268364
3268.041, 6.370705
3268.541, 6.500813
3269.042, 5.232075
3269.542, 4.746899
3270.042, 4.501728
3270.542, 3.025379
3271.043, 2.597786
3271.543, 0.3856430
3272.043, 2.102371
3272.544, 3.857857
3273.044, 5.306980
3273.544, 3.385418
3274.045, 3.513527
3274.545, 4.708504
3275.045, 6.126667
3275.545, 4.548847
3276.046, 3.032249
3276.546, 2.221378
3277.046, 2.770012
3277.547, 2.261795
3278.047, 1.103279
3278.547, 0.2015300
3279.048, 0.5243490
3279.548, 1.910946
3280.048, 1.348476
3280.549, 2.686031
3281.049, 2.944363
3281.549, 3.515961
3282.050, 2.793468
3282.550, 0.5220220
3283.050, 0.2842940
3283.551, 1.522106
3284.051, 3.098675
3284.551, 5.113876
3285.052, 3.571621
3285.552, 4.486195
3286.052, 2.019684
3286.552, 1.838825
3287.053, 1.688168
3287.553, 3.025295
3288.053, 3.445957
3288.554, 3.757614
3289.054, 2.420578
3289.554, 1.574493
3290.055, 0.5204280
3290.555, 1.594791
3291.055, 1.060879
3291.556, 1.319069
3292.056, 1.002258
3292.556, 3.658066
3293.056, 5.398262
3293.557, 5.948471
3294.057, 3.409035
3294.557, 1.681057
3295.058, 1.694775
3295.558, 4.632706
3296.058, 5.795181
3296.559, 3.786453
3297.059, 2.294403
3297.559, 1.163521
3298.060, 3.130051
3298.560, 1.872406
3299.060, 1.653103
3299.561, 8.5330000E-03
3300.061, 0.6437340
3300.561, 0.8001820
3301.062, 8.0769002E-02
3301.562, 0.5160830
3302.062, 0.5514450
3302.562, 3.080887
3303.063, 5.703381
3303.563, 7.163986
3304.063, 4.611130
3304.564, 3.405582
3305.064, 2.021454
3305.564, 2.509903
3306.065, 2.381752
3306.565, 0.4867520
3307.065, 1.181683
3307.566, 0.8504330
3308.066, 2.112328
3308.566, 0.4529500
3309.067, 0.8009870
3309.567, 0.1379390
3310.067, 1.047112
3310.567, 1.623692
3311.068, 1.310436
3311.568, 1.444954
3312.068, 1.663288
3312.569, 3.406025
3313.069, 4.206936
3313.569, 6.860882
3314.070, 5.325661
3314.570, 4.899565
3315.070, 2.465111
3315.571, 3.020887
3316.071, 3.572456
3316.571, 2.897537
3317.072, 2.365379
3317.572, 1.371204
3318.072, 2.307428
3318.573, 1.417339
3319.073, 0.8932300
3319.573, 0.4626060
3320.073, 1.578859
3320.574, 2.948921
3321.074, 3.560596
3321.574, 3.697575
3322.075, 4.063791
3322.575, 4.035152
3323.075, 3.475039
3323.576, 3.026775
3324.076, 2.808474
3324.576, 2.371292
3325.077, 0.6465420
3325.577, 1.438652
3326.077, 0.5371690
3326.578, 3.463575
3327.078, 3.165649
3327.578, 1.595686
3328.078, 0.1646100
3328.579, 0.8968510
3329.079, 3.218853
3329.579, 4.155279
3330.080, 5.914263
3330.580, 4.797394
3331.080, 5.090719
3331.581, 0.3592430
3332.081, 2.051729
3332.581, 2.137585
3333.082, 1.366009
3333.582, 3.261631
3334.082, 4.762737
3334.583, 2.178410
3335.083, 1.948238
3335.583, 1.217449
3336.083, 4.573402
3336.584, 3.365206
3337.084, 4.118744
3337.584, 2.760704
3338.085, 3.533392
3338.585, 2.084417
3339.085, 1.162125
3339.586, 0.1375120
3340.086, 1.080307
3340.586, 0.5594830
3341.087, 0.2195000
3341.587, 1.902725
3342.087, 1.907204
3342.588, 1.031458
3343.088, 0.7498400
3343.588, 0.5679660
3344.089, 0.4158760
3344.589, 1.155149
3345.089, 2.372265
3345.589, 1.505318
3346.090, 0.2347740
3346.590, 1.821217
3347.090, 1.828392
3347.591, 4.250481
3348.091, 2.813698
3348.591, 4.854771
3349.092, 4.075745
3349.592, 3.697994
3350.092, 1.874798
3350.593, 0.2148300
3351.093, 1.003181
3351.593, 2.230579
3352.094, 2.639954
3352.594, 2.338108
3353.094, 1.970295
3353.594, 3.242176
3354.095, 3.675427
3354.595, 4.989038
3355.095, 5.196190
3355.596, 5.483239
3356.096, 5.573662
3356.596, 3.899609
3357.097, 4.067085
3357.597, 4.259497
3358.097, 5.513282
3358.598, 2.775782
3359.098, 4.4851001E-02
3359.598, 0.3064830
3360.099, 1.452290
3360.599, 3.032284
3361.099, 1.797167
3361.600, 2.324821
3362.100, 3.385663
3362.600, 4.955359
3363.100, 4.488211
3363.601, 1.143914
3364.101, 0.2806860
3364.601, 1.600705
3365.102, 0.8097950
3365.602, 3.032516
3366.102, 4.337073
3366.603, 4.933726
3367.103, 3.646963
3367.603, 3.282223
3368.104, 3.648098
3368.604, 3.617346
3369.104, 3.767776
3369.604, 2.774567
3370.105, 2.696465
3370.605, 3.681139
3371.105, 2.949878
3371.606, 3.518432
3372.106, 3.691617
3372.606, 5.559702
3373.107, 5.301852
3373.607, 5.409581
3374.107, 3.945881
3374.608, 2.467460
3375.108, 2.259713
3375.608, 0.1728060
3376.109, 1.746310
3376.609, 0.9249160
3377.109, 3.926378
3377.610, 1.719462
3378.110, 2.520677
3378.610, 1.603485
3379.111, 2.996284
3379.611, 3.839544
3380.111, 4.770323
3380.611, 5.484166
3381.112, 3.869143
3381.612, 4.525200
3382.112, 3.331102
3382.613, 3.015276
3383.113, 0.5184030
3383.613, 1.697978
3384.114, 2.695405
3384.614, 3.045548
3385.114, 1.662196
3385.615, 1.731127
3386.115, 3.907364
3386.615, 4.309494
3387.115, 4.218411
3387.616, 3.483648
3388.116, 3.827282
3388.616, 0.1715130
3389.117, 0.4737650
3389.617, 0.1138470
3390.117, 3.064162
3390.618, 2.346566
3391.118, 1.064732
3391.618, 1.702736
3392.119, 3.730668
3392.619, 6.277639
3393.119, 4.670051
3393.620, 3.312108
3394.120, 2.082463
3394.620, 2.075533
3395.121, 1.820429
3395.621, 2.092109
3396.121, 4.440519
3396.622, 5.199253
3397.122, 5.969480
3397.622, 4.511989
3398.122, 4.663269
3398.623, 4.116456
3399.123, 3.869265
3399.623, 2.364308
3400.124, 1.382156
3400.624, 0.8799400
3401.124, 2.275355
3401.625, 1.902943
3402.125, 2.172948
3402.625, 2.838110
3403.125, 4.655656
3403.626, 4.394073
3404.126, 2.469748
3404.626, 1.309546
3405.127, 1.907976
3405.627, 1.661121
3406.127, 1.558755
3406.628, 1.727483
3407.128, 4.375554
3407.628, 3.666307
3408.129, 4.052716
3408.629, 1.543565
3409.129, 2.534999
3409.630, 9.0650998E-02
3410.130, 0.2237110
3410.630, 0.5853300
3411.131, 1.498790
3411.631, 1.556567
3412.131, 0.7959220
3412.632, 1.768319
3413.132, 2.455899
3413.632, 2.167023
3414.133, 0.7421760
3414.633, 0.4031780
3415.133, 5.2060001E-03
3415.633, 3.3179999E-03
3416.134, 0.1758120
3416.634, 0.2474790
3417.134, 0.1879650
3417.635, 0.4668920
3418.135, 0.5892840
3418.635, 1.813556
3419.135, 3.057608
3419.636, 2.599442
3420.136, 2.042146
3420.636, 1.178014
3421.137, 2.340669
3421.637, 3.870325
3422.137, 4.282574
3422.638, 4.398950
3423.138, 2.062978
3423.638, 0.1828480
3424.139, 1.463212
3424.639, 2.751064
3425.139, 1.667239
3425.640, 0.1028570
3426.140, 3.166477
3426.640, 3.586488
3427.141, 2.364763
3427.641, 1.590169
3428.141, 1.881894
3428.642, 1.606909
3429.142, 0.1720620
3429.642, 0.6621580
3430.143, 0.1278640
3430.643, 1.422423
3431.143, 1.638656
3431.644, 0.6085340
3432.144, 0.6540990
3432.644, 0.7665620
3433.144, 1.372111
3433.645, 2.273395
3434.145, 1.570827
3434.645, 2.240699
3435.146, 1.750423
3435.646, 2.825548
3436.146, 2.072305
3436.646, 2.339323
3437.147, 2.848622
3437.647, 3.048993
3438.147, 2.220372
3438.648, 0.7721580
3439.148, 1.291707
3439.648, 1.324893
3440.149, 2.099829
3440.649, 2.330897
3441.149, 2.037583
3441.650, 2.090793
3442.150, 2.262694
3442.650, 1.876368
3443.151, 1.495507
3443.651, 0.6256630
3444.151, 1.126322
3444.652, 2.471095
3445.152, 2.579620
3445.652, 4.088681
3446.153, 3.379865
3446.653, 5.511365
3447.153, 5.229987
3447.654, 5.285485
3448.154, 4.093361
3448.654, 4.013410
3449.155, 4.976874
3449.655, 4.270720
3450.155, 4.537076
3450.655, 4.617441
3451.156, 5.738109
3451.656, 5.464822
3452.156, 4.590466
3452.657, 4.367881
3453.157, 4.157657
3453.657, 3.253234
3454.157, 3.726930
3454.658, 4.677504
3455.158, 6.588976
3455.658, 5.797186
3456.159, 4.716728
3456.659, 2.532760
3457.159, 2.059893
3457.660, 3.433534
3458.160, 5.577683
3458.660, 7.116942
3459.161, 7.066684
3459.661, 7.735491
3460.161, 8.515329
3460.662, 9.308161
3461.162, 9.014932
3461.662, 7.964643
3462.163, 6.220396
3462.663, 6.217577
3463.163, 6.374610
3463.664, 7.299680
3464.164, 6.779961
3464.664, 7.355981
3465.165, 8.182106
3465.665, 6.044071
3466.165, 5.274223
3466.666, 3.930195
3467.166, 5.058344
3467.666, 5.092627
3468.166, 5.635296
3468.667, 7.261034
3469.167, 7.507250
3469.667, 7.278760
3470.168, 6.341840
3470.668, 6.407702
3471.168, 4.113815
3471.668, 3.172787
3472.169, 2.861979
3472.669, 6.538664
3473.169, 6.909681
3473.670, 7.490943
3474.170, 5.240206
3474.670, 7.357668
3475.171, 6.659576
3475.671, 7.239731
3476.171, 5.589574
3476.672, 6.090739
3477.172, 6.279862
3477.672, 7.848875
3478.173, 8.233812
3478.673, 7.119274
3479.173, 6.986283
3479.674, 5.795251
3480.174, 8.122182
3480.674, 5.648423
3481.175, 6.123233
3481.675, 5.071993
3482.175, 6.753814
3482.676, 6.150093
3483.176, 5.480906
3483.676, 3.948349
3484.177, 4.190011
3484.677, 4.235782
3485.177, 5.886891
3485.677, 4.761356
3486.178, 4.525125
3486.678, 4.218797
3487.178, 3.755648
3487.679, 4.858282
3488.179, 3.487401
3488.679, 4.791903
3489.179, 4.374943
3489.680, 5.739491
3490.180, 5.694531
3490.680, 5.577795
3491.181, 3.988762
3491.681, 5.361494
3492.181, 5.067470
3492.682, 6.848042
3493.182, 6.207808
3493.682, 6.317280
3494.183, 4.704316
3494.683, 3.118315
3495.183, 3.400277
3495.684, 4.336231
3496.184, 3.947795
3496.684, 4.488200
3497.185, 5.942806
3497.685, 8.214719
3498.185, 7.633369
3498.686, 5.698165
3499.186, 4.371631
3499.686, 5.200581
3500.187, 5.190923
3500.687, 6.743201
3501.187, 6.205739
3501.688, 6.049840
3502.188, 5.354086
3502.688, 3.564811
3503.188, 4.478460
3503.689, 3.304975
3504.189, 3.234597
3504.689, 2.739974
3505.190, 3.788473
3505.690, 5.610662
3506.190, 5.417531
3506.690, 4.826022
3507.191, 5.561822
3507.691, 4.838136
3508.191, 4.436770
3508.692, 3.871239
3509.192, 4.346425
3509.692, 5.474659
3510.193, 3.900182
3510.693, 2.768185
3511.193, 1.656491
3511.694, 2.951777
3512.194, 4.228285
3512.694, 5.034425
3513.195, 5.254941
3513.695, 5.207265
3514.195, 4.402495
3514.696, 3.174617
3515.196, 2.806484
3515.696, 2.710591
3516.197, 3.946161
3516.697, 3.115658
3517.197, 4.824511
3517.698, 5.023041
3518.198, 5.941928
3518.698, 6.084884
3519.198, 4.847981
3519.699, 4.746925
3520.199, 2.990690
3520.699, 2.425532
3521.200, 2.167011
3521.700, 1.580700
3522.200, 1.601917
3522.701, 2.836760
3523.201, 5.563643
3523.701, 7.100302
3524.201, 7.382543
3524.702, 5.536241
3525.202, 4.861637
3525.702, 3.629358
3526.203, 2.932542
3526.703, 2.911330
3527.203, 1.229213
3527.704, 1.837469
3528.204, 2.618597
3528.704, 5.768641
3529.205, 4.763806
3529.705, 3.742615
3530.205, 3.355847
3530.706, 4.693109
3531.206, 3.902117
3531.706, 3.399492
3532.207, 3.421508
3532.707, 4.017632
3533.207, 3.272837
3533.708, 3.575597
3534.208, 3.285461
3534.708, 4.043701
3535.208, 4.546481
3535.709, 5.130691
3536.209, 5.681957
3536.709, 3.874391
3537.210, 3.484926
3537.710, 0.4376390
3538.210, 0.2139700
3538.711, 9.2922002E-02
3539.211, 1.743550
3539.711, 2.367281
3540.212, 1.571802
3540.712, 2.120165
3541.212, 2.530276
3541.712, 1.691056
3542.213, 0.8696630
3542.713, 1.448688
3543.213, 0.3364770
3543.714, 0.7734070
3544.214, 1.471838
3544.714, 1.217914
3545.215, 0.9444830
3545.715, 0.6619880
3546.215, 1.358191
3546.716, 0.2590910
3547.216, 1.463854
3547.716, 1.359817
3548.217, 2.474539
3548.717, 2.383190
3549.217, 1.822795
3549.718, 2.654967
3550.218, 1.487059
3550.718, 2.336456
3551.219, 1.728049
3551.719, 2.250298
3552.219, 2.850266
3552.719, 3.517770
3553.220, 2.789951
3553.720, 0.2589800
3554.220, 0.5722760
3554.721, 0.1107150
3555.221, 1.712710
3555.721, 2.077586
3556.222, 2.693600
3556.722, 2.820065
3557.222, 3.267906
3557.723, 3.016428
3558.223, 0.8179040
3558.723, 0.1505850
3559.223, 0.5059690
3559.724, 0.8035620
3560.224, 1.339732
3560.724, 3.140183
3561.225, 5.991751
3561.725, 6.439250
3562.225, 4.827506
3562.726, 2.284684
3563.226, 0.8930890
3563.726, 0.2818200
3564.227, 1.129110
3564.727, 2.427994
3565.227, 3.931919
3565.728, 5.441877
3566.228, 6.130319
3566.728, 3.976008
3567.229, 1.378002
3567.729, 1.452056
3568.229, 0.2250280
3568.729, 1.432570
3569.230, 3.303614
3569.730, 4.436834
3570.230, 4.107823
3570.731, 4.963514
3571.231, 5.035058
3571.731, 3.172759
3572.232, 0.9696760
3572.732, 0.5088780
3573.232, 0.6391840
3573.733, 0.7713790
3574.233, 0.7715690
3574.733, 0.2114240
3575.234, 1.132434
3575.734, 1.173101
3576.234, 1.430568
3576.734, 0.9989630
3577.235, 2.209820
3577.735, 1.938612
3578.235, 3.164011
3578.736, 1.709110
3579.236, 1.077507
3579.736, 0.3168330
3580.237, 0.6533810
3580.737, 1.955962
3581.237, 2.881610
3581.738, 2.820605
3582.238, 3.772905
3582.738, 1.518955
3583.239, 0.7139130
3583.739, 0.3794090
3584.239, 0.8950540
3584.740, 2.564876
3585.240, 2.168549
3585.740, 1.545804
3586.240, 1.701845
3586.741, 1.855729
3587.241, 3.701913
3587.741, 5.029532
3588.242, 4.021613
3588.742, 3.587162
3589.242, 2.087528
3589.743, 1.998152
3590.243, 0.4216010
3590.743, 1.193503
3591.244, 0.5091870
3591.744, 0.9166120
3592.244, 0.9755560
3592.745, 0.2997380
3593.245, 1.593287
3593.745, 2.416636
3594.245, 3.844957
3594.746, 0.7947330
3595.246, 6.8888001E-02
3595.746, 0.3684710
3596.247, 2.145033
3596.747, 3.026923
3597.247, 3.065022
3597.748, 1.754426
3598.248, 2.301685
3598.748, 1.041980
3599.249, 1.400004
3599.749, 2.374215
3600.249, 4.293970
3600.750, 4.204155
3601.250, 3.259602
3601.750, 3.020587
3602.250, 2.826943
3602.751, 3.255368
3603.251, 4.774755
3603.751, 6.250357
3604.252, 7.969792
3604.752, 6.510935
3605.252, 4.238148
3605.753, 1.821543
3606.253, 1.503470
3606.753, 3.791075
3607.254, 3.740548
3607.754, 1.985188
3608.254, 0.1835700
3608.755, 4.5903999E-02
3609.255, 3.000004
3609.755, 4.347755
3610.255, 3.572457
3610.756, 3.197411
3611.256, 2.599922
3611.756, 2.741706
3612.257, 0.8542200
3612.757, 1.544660
3613.257, 2.439424
3613.758, 2.240902
3614.258, 2.382653
3614.758, 1.757308
3615.259, 2.287642
3615.759, 3.083756
3616.259, 2.876767
3616.760, 3.672631
3617.260, 0.6514800
3617.760, 0.4184610
3618.260, 1.292156
3618.761, 0.4024180
3619.261, 0.5643670
3619.761, 1.793552
3620.262, 2.455593
3620.762, 2.895818
3621.262, 3.463678
3621.763, 1.830902
3622.263, 3.920253
3622.763, 2.934727
3623.264, 5.596836
3623.764, 4.108346
3624.264, 5.445844
3624.765, 4.321125
3625.265, 4.785023
3625.765, 3.765458
3626.266, 4.622602
3626.766, 3.247709
3627.266, 2.345278
3627.766, 0.3202570
3628.267, 1.885170
3628.767, 3.322281
3629.267, 6.292369
3629.768, 3.874027
3630.268, 2.552941
3630.768, 1.550492
3631.269, 4.779702
3631.769, 4.590538
3632.269, 3.913434
3632.770, 2.475316
3633.270, 5.379105
3633.770, 4.624945
3634.271, 5.124244
3634.771, 4.296513
3635.271, 4.179658
3635.771, 4.382391
3636.272, 3.498952
3636.772, 3.371854
3637.272, 2.984199
3637.773, 2.381569
3638.273, 3.091308
3638.773, 1.777920
3639.274, 1.603084
3639.774, 2.400918
3640.274, 3.859197
3640.775, 3.338494
3641.275, 4.637575
3641.775, 3.928079
3642.276, 4.231261
3642.776, 2.697614
3643.276, 0.7467020
3643.777, 7.7719003E-02
3644.277, 0.6358770
3644.777, 0.3978160
3645.277, 0.8403220
3645.778, 1.826020
3646.278, 3.346391
3646.778, 4.657074
3647.279, 4.101244
3647.779, 1.542709
3648.279, 0.7898580
3648.780, 0.1962440
3649.280, 2.665966
3649.780, 4.358548
3650.281, 2.164771
3650.781, 2.441687
3651.281, 1.187090
3651.781, 1.812405
3652.282, 2.148246
3652.782, 3.842413
3653.282, 4.756915
3653.783, 3.187257
3654.283, 3.572333
3654.783, 2.263668
3655.284, 2.074588
3655.784, 0.4039990
3656.284, 1.476059
3656.785, 3.013599
3657.285, 4.664614
3657.785, 4.109583
3658.286, 3.945478
3658.786, 1.941466
3659.286, 1.639197
3659.787, 2.242156
3660.287, 1.777150
3660.787, 2.110539
3661.288, 0.2025410
3661.788, 2.533275
3662.288, 2.925444
3662.788, 2.771840
3663.289, 1.325485
3663.789, 2.954176
3664.289, 5.202072
3664.790, 4.838892
3665.290, 2.610716
3665.790, 1.159911
3666.291, 1.684376
3666.791, 3.529427
3667.291, 2.843487
3667.792, 3.440848
3668.292, 2.587997
3668.792, 2.702913
3669.292, 1.694768
3669.793, 0.8626890
3670.293, 2.889982
3670.793, 3.082104
3671.294, 3.707358
3671.794, 3.163323
3672.294, 2.177468
3672.795, 2.744239
3673.295, 3.014812
3673.795, 3.708660
3674.296, 4.143237
3674.796, 3.508652
3675.296, 4.538811
3675.797, 4.413609
3676.297, 3.862515
3676.797, 2.459942
3677.298, 1.249261
3677.798, 1.590622
3678.298, 2.727862
3678.799, 3.437320
3679.299, 4.659450
3679.799, 5.278084
3680.299, 4.981857
3680.800, 4.024205
3681.300, 3.068446
3681.800, 2.024631
3682.301, 1.831581
3682.801, 0.9431010
3683.301, 2.413711
3683.802, 1.784586
3684.302, 3.067559
3684.802, 3.805503
3685.302, 3.904187
3685.803, 4.377684
3686.303, 4.068956
3686.803, 5.046594
3687.304, 3.335539
3687.804, 3.707263
3688.304, 3.470946
3688.805, 3.351245
3689.305, 1.848473
3689.805, 2.556771
3690.306, 3.430327
3690.806, 5.126433
3691.306, 4.594781
3691.807, 5.778858
3692.307, 4.827591
3692.807, 6.022863
3693.308, 5.200012
3693.808, 4.661332
3694.308, 2.035016
3694.809, 7.5273998E-02
3695.309, 0.9611820
3695.809, 3.467721
3696.310, 5.538002
3696.810, 4.562376
3697.310, 3.885381
3697.810, 3.404660
3698.311, 4.318583
3698.811, 3.785478
3699.311, 3.732398
3699.812, 3.994751
3700.312, 4.480593
3700.812, 4.274434
3701.312, 2.534949
3701.813, 1.822581
3702.313, 2.508236
3702.813, 3.511031
3703.314, 3.730751
3703.814, 3.198975
3704.314, 3.089600
3704.815, 2.723730
3705.315, 2.459929
3705.815, 2.586716
3706.316, 2.400821
3706.816, 1.086821
3707.316, 1.312564
3707.817, 1.162359
3708.317, 2.440813
3708.817, 2.854447
3709.318, 3.885391
3709.818, 3.314850
3710.318, 1.124820
3710.819, 0.3208270
3711.319, 0.5506560
3711.819, 1.669116
3712.320, 1.942217
3712.820, 2.543039
3713.320, 1.948547
3713.821, 1.463259
3714.321, 1.356364
3714.821, 1.717133
3715.321, 2.147145
3715.822, 0.3756020
3716.322, 0.4188180
3716.822, 0.7650190
3717.323, 0.8379250
3717.823, 0.4008880
3718.323, 1.033751
3718.823, 1.630076
3719.324, 1.666284
3719.824, 2.539860
3720.324, 1.039857
3720.825, 1.675559
3721.325, 0.4119430
3721.825, 1.204833
3722.326, 1.580287
3722.826, 2.376252
3723.326, 1.318627
3723.827, 2.284567
3724.327, 1.143103
3724.827, 2.615352
3725.328, 1.227996
3725.828, 2.240450
3726.328, 0.9837250
3726.829, 1.415284
3727.329, 0.7933720
3727.829, 1.708259
3728.330, 0.4741150
3728.830, 0.2934970
3729.330, 1.312549
3729.831, 1.6783001E-02
3730.331, 1.230746
3730.831, 2.100783
3731.332, 0.6861360
3731.832, 0.4990150
3732.332, 0.7165880
3732.832, 1.883957
3733.333, 1.707672
3733.833, 1.878937
3734.333, 2.426827
3734.834, 1.408912
3735.334, 1.364826
3735.834, 0.9372980
3736.334, 1.598348
3736.835, 0.9985970
3737.335, 0.9897660
3737.835, 1.038270
3738.336, 1.525060
3738.836, 1.115961
3739.336, 1.041277
3739.837, 0.4416440
3740.337, 2.064957
3740.837, 1.724638
3741.338, 2.586246
3741.838, 1.762358
3742.338, 1.443261
3742.839, 0.8805660
3743.339, 0.7554980
3743.839, 1.3453000E-02
3744.340, 0.6298180
3744.840, 0.3727460
3745.340, 1.658511
3745.841, 1.308722
3746.341, 1.586460
3746.841, 0.8389290
3747.342, 0.7147910
3747.842, 1.156590
3748.342, 1.598152
3748.843, 0.5119930
3749.343, 0.5719290
3749.843, 0.4779950
3750.343, 0.2323870
3750.844, 0.1931990
3751.344, 0.4551350
3751.844, 0.3420820
3752.345, 0.9415950
3752.845, 0.1298720
3753.345, 8.9877002E-02
3753.845, 0.2662510
3754.346, 0.4556070
3754.846, 1.441952
3755.346, 1.176355
3755.847, 1.368793
3756.347, 0.1962610
3756.847, 0.1742800
3757.348, 0.2197290
3757.848, 0.9416010
3758.348, 0.7341310
3758.849, 0.1964210
3759.349, 0.1740680
3759.849, 0.5897050
3760.350, 0.1404230
3760.850, 0.1809240
3761.350, 0.3098450
3761.851, 1.870635
3762.351, 2.309627
3762.851, 1.210414
3763.352, 1.5371000E-02
3763.852, 0.4156320
3764.352, 0.9068330
3764.853, 4.3947000E-02
3765.353, 0.3254090
3765.853, 1.250701
3766.354, 0.5318710
3766.854, 1.379886
3767.354, 1.716406
3767.854, 2.831145
3768.355, 1.830061
3768.855, 1.235562
3769.355, 1.728764
3769.856, 2.559802
3770.356, 2.929774
3770.856, 1.316412
3771.356, 0.2422990
3771.857, 0.6979460
3772.357, 0.9518090
3772.857, 0.9737160
3773.358, 0.2771630
3773.858, 1.211889
3774.358, 2.048368
3774.859, 2.136588
3775.359, 1.330645
3775.859, 1.623192
3776.360, 0.2408860
3776.860, 0.4258700
3777.360, 4.7509000E-02
3777.861, 1.729168
3778.361, 1.553904
3778.861, 1.406513
3779.362, 1.620220
3779.862, 0.5893960
3780.362, 0.8913510
3780.863, 0.1016440
3781.363, 1.105982
3781.863, 1.090619
3782.364, 1.657485
3782.864, 2.144874
3783.364, 0.3210110
3783.865, 1.187963
3784.365, 1.687879
3784.865, 9.7136997E-02
3785.365, 0.8989350
3785.866, 0.8352810
3786.366, 0.5284460
3786.866, 0.8633120
3787.367, 0.7456310
3787.867, 1.429369
3788.367, 1.988301
3788.867, 2.644498
3789.368, 1.430414
3789.868, 0.9121630
3790.368, 0.6136840
3790.869, 1.010747
3791.369, 1.368980
3791.869, 1.439245
3792.370, 1.741954
3792.870, 1.395000
3793.370, 1.888938
3793.871, 1.562815
3794.371, 1.990559
3794.871, 2.033729
3795.372, 1.574814
3795.872, 1.374084
3796.372, 0.6495080
3796.873, 0.6606860
3797.373, 1.614398
3797.873, 3.988345
3798.374, 5.887103
3798.874, 5.316715
3799.374, 3.746192
3799.875, 3.212571
3800.375, 3.253095
3800.875, 2.959679
3801.375, 2.710978
3801.876, 2.179133
3802.376, 3.682994
3802.876, 4.709179
3803.377, 5.331485
3803.877, 3.212181
3804.377, 2.044113
3804.878, 1.552607
3805.378, 1.810182
3805.878, 2.720950
3806.378, 2.396708
3806.879, 3.193016
3807.379, 2.368327
3807.879, 3.335050
3808.380, 3.806519
3808.880, 4.770483
3809.380, 4.393515
3809.881, 3.909885
3810.381, 4.091864
3810.881, 2.886328
3811.382, 3.844985
3811.882, 3.892247
3812.382, 7.036222
3812.883, 8.418399
3813.383, 8.113371
3813.883, 6.875870
3814.384, 5.668808
3814.884, 5.351663
3815.384, 3.958427
3815.885, 2.084108
3816.385, 1.520919
3816.885, 2.186050
3817.385, 4.943741
3817.886, 4.620656
3818.386, 4.466369
3818.886, 2.952285
3819.387, 2.358814
3819.887, 3.985352
3820.387, 4.399129
3820.888, 5.399325
3821.388, 3.485026
3821.888, 2.962409
3822.389, 3.619458
3822.889, 2.794229
3823.389, 2.495112
3823.889, 3.191667
3824.390, 3.393054
3824.890, 3.079000
3825.390, 1.695918
3825.891, 3.021816
3826.391, 2.994686
3826.891, 3.257068
3827.392, 3.998535
3827.892, 3.252654
3828.392, 2.972596
3828.893, 2.169977
3829.393, 2.567934
3829.893, 3.697757
3830.394, 3.193913
3830.894, 3.302866
3831.394, 1.548937
3831.895, 1.966422
3832.395, 2.310969
3832.895, 4.258168
3833.396, 5.689309
3833.896, 6.723064
3834.396, 5.635181
3834.896, 4.548194
3835.397, 5.903741
3835.897, 6.592977
3836.397, 6.288043
3836.898, 2.139701
3837.398, 0.5842360
3837.898, 1.030641
3838.399, 3.081382
3838.899, 3.265742
3839.399, 2.382679
3839.900, 2.766182
3840.400, 3.880328
3840.900, 4.404755
3841.400, 5.084706
3841.901, 5.652879
3842.401, 6.344893
3842.901, 5.207681
3843.402, 3.629493
3843.902, 3.699053
3844.402, 4.041045
3844.903, 3.735583
3845.403, 3.689440
3845.903, 4.360252
3846.404, 5.301003
3846.904, 3.466759
3847.404, 2.152583
3847.905, 3.210084
3848.405, 4.038091
3848.905, 4.681183
3849.406, 2.522937
3849.906, 3.007943
3850.406, 1.455969
3850.906, 3.023081
3851.407, 2.151142
3851.907, 3.594046
3852.407, 3.040503
3852.908, 3.506024
3853.408, 4.206400
3853.908, 3.645221
3854.409, 3.054551
3854.909, 1.552150
3855.409, 1.916837
3855.910, 1.282990
3856.410, 1.801449
3856.910, 2.275930
3857.411, 2.514640
3857.911, 2.913280
3858.411, 2.474964
3858.911, 3.338028
3859.412, 2.825431
3859.912, 1.989561
3860.412, 2.237983
3860.913, 3.641813
3861.413, 3.462502
3861.913, 3.792257
3862.414, 4.382198
3862.914, 5.867220
3863.414, 5.774326
3863.915, 4.505114
3864.415, 4.696016
3864.915, 3.105112
3865.416, 3.793673
3865.916, 2.484480
3866.416, 3.463005
3866.917, 5.0418001E-02
3867.417, 0.4645230
3867.917, 0.8394560
3868.417, 3.153763
3868.918, 1.724215
3869.418, 2.095280
3869.918, 1.667079
3870.419, 3.613857
3870.919, 3.785595
3871.419, 4.093465
3871.920, 1.000552
3872.420, 1.402205
3872.920, 0.4393450
3873.421, 3.573907
3873.921, 2.552826
3874.421, 3.474645
3874.922, 3.972628
3875.422, 4.856923
3875.922, 3.964895
3876.422, 4.178771
3876.923, 3.193291
3877.423, 5.038139
3877.923, 4.240158
3878.424, 3.414425
3878.924, 2.745678
3879.424, 0.8446510
3879.925, 1.257762
3880.425, 0.1514600
3880.925, 2.587589
3881.426, 3.512324
3881.926, 3.669698
3882.426, 2.666398
3882.927, 0.6603990
3883.427, 1.442751
3883.927, 2.106133
3884.427, 2.540463
3884.928, 2.841031
3885.428, 1.753015
3885.928, 1.648012
3886.429, 1.067384
3886.929, 1.791206
3887.429, 0.3965360
3887.930, 2.060581
3888.430, 2.502507
3888.930, 0.4503780
3889.431, 0.1344910
3889.931, 0.5994200
3890.431, 2.331935
3890.932, 2.547656
3891.432, 1.310983
3891.932, 2.447506
3892.433, 3.067633
3892.933, 3.570830
3893.433, 2.448917
3893.933, 0.9344450
3894.434, 2.328444
3894.934, 1.899466
3895.434, 2.477987
3895.935, 1.915278
3896.435, 2.604891
3896.935, 2.535583
3897.436, 1.514566
3897.936, 2.156902
3898.436, 2.314811
3898.937, 0.7430640
3899.437, 0.8447120
3899.937, 1.188770
3900.438, 4.3239999E-03
3900.938, 0.8389770
3901.438, 0.9597050
3901.938, 0.2810670
3902.439, 1.913927
3902.939, 2.747227
3903.439, 0.7409380
3903.940, 0.1779270
3904.440, 1.332099
3904.940, 9.5135003E-02
3905.441, 1.378775
3905.941, 4.4631999E-02
3906.441, 1.797298
3906.942, 2.780958
3907.442, 2.882357
3907.942, 1.624321
3908.443, 1.869478
3908.943, 1.621662
3909.443, 1.909489
3909.944, 1.409662
3910.444, 1.003365
3910.944, 0.1608180
3911.444, 9.8934002E-02
3911.945, 0.6635760
3912.445, 1.257221
3912.945, 3.392286
3913.446, 1.929358
3913.946, 2.414822
3914.446, 0.5495130
3914.947, 2.369635
3915.447, 2.890192
3915.947, 3.865705
3916.448, 1.527056
3916.948, 1.338562
3917.448, 2.763016
3917.948, 2.163574
3918.449, 1.571608
3918.949, 0.2888390
3919.449, 0.2066940
3919.950, 0.3125610
3920.450, 0.5950360
3920.950, 0.9916340
3921.451, 1.968723
3921.951, 0.7922630
3922.451, 0.5636560
3922.952, 2.835947
3923.452, 3.765444
3923.952, 5.229450
3924.453, 2.802317
3924.953, 4.285234
3925.453, 1.630743
3925.954, 1.820704
3926.454, 2.044537
3926.954, 5.175941
3927.455, 4.476360
3927.955, 3.884180
3928.455, 3.375238
3928.955, 2.909912
3929.456, 2.520710
3929.956, 1.519909
3930.456, 2.799932
3930.957, 2.449244
3931.457, 3.256685
3931.957, 6.087528
3932.458, 7.339481
3932.958, 8.530298
3933.458, 6.726309
3933.958, 9.049345
3934.459, 7.439657
3934.959, 7.485975
3935.459, 3.655094
3935.960, 4.026598
3936.460, 5.644281
3936.960, 8.911673
3937.461, 10.38891
3937.961, 11.06981
3938.461, 10.22272
3938.962, 10.00947
3939.462, 10.09521
3939.962, 9.502928
3940.463, 8.078556
3940.963, 7.614697
3941.463, 8.825575
3941.964, 11.43782
3942.464, 10.02594
3942.964, 9.454544
3943.465, 10.36173
3943.965, 11.54223
3944.465, 12.81064
3944.966, 12.38016
3945.466, 13.62920
3945.966, 13.98291
3946.466, 13.70891
3946.967, 13.65122
3947.467, 12.85124
3947.967, 13.73351
3948.468, 13.54354
3948.968, 13.97213
3949.468, 15.04865
3949.969, 16.33290
3950.469, 18.79815
3950.969, 18.53463
3951.469, 17.72450
3951.970, 18.86224
3952.470, 19.19731
3952.970, 20.45867
3953.471, 19.58506
3953.971, 20.44884
3954.471, 20.84576
3954.972, 20.55862
3955.472, 21.13092
3955.972, 19.75016
3956.473, 20.24297
3956.973, 20.28623
3957.473, 23.61160
3957.974, 23.96986
3958.474, 23.17139
3958.974, 23.21900
3959.475, 22.84479
3959.975, 24.08878
3960.475, 24.01218
3960.976, 24.76991
3961.476, 25.67912
3961.976, 24.37123
3962.477, 26.42048
3962.977, 26.46637
3963.477, 25.95303
3963.977, 22.55368
3964.478, 20.90702
3964.978, 20.20290
3965.478, 20.44083
3965.979, 20.89540
3966.479, 21.11448
3966.979, 21.54108
3967.479, 21.85226
3967.980, 22.69980
3968.480, 22.70727
3968.980, 20.94702
3969.481, 19.16703
3969.981, 19.16343
3970.481, 18.97466
3970.982, 19.02736
3971.482, 18.55129
3971.982, 20.11237
3972.483, 21.41226
3972.983, 19.36925
3973.483, 16.90594
3973.984, 14.69070
3974.484, 13.13570
3974.984, 14.10416
3975.485, 13.94990
3975.985, 15.49058
3976.485, 14.45904
3976.986, 14.87220
3977.486, 13.21499
3977.986, 11.61827
3978.487, 12.78010
3978.987, 13.76604
3979.487, 12.70439
3979.988, 8.812733
3980.488, 9.128029
3980.988, 8.300003
3981.488, 9.564838
3981.989, 7.208279
3982.489, 7.524841
3982.989, 7.664379
3983.490, 7.481396
3983.990, 8.491806
3984.490, 6.433762
3984.990, 6.310135
3985.491, 4.277508
3985.991, 3.138290
3986.491, 3.275505
3986.992, 3.693005
3987.492, 5.398037
3987.992, 5.557213
3988.493, 5.772133
3988.993, 3.503178
3989.493, 3.274639
3989.994, 2.331596
3990.494, 4.518036
3990.994, 4.952557
3991.495, 4.840137
3991.995, 2.684162
3992.495, 1.764538
3992.996, 0.1440160
3993.496, 0.7289660
3993.996, 0.6445390
3994.497, 2.692986
3994.997, 4.283440
3995.497, 2.076851
3995.998, 2.177025
3996.498, 2.564991
3996.998, 3.324421
3997.499, 1.629223
3997.999, 2.025394
3998.499, 0.2491800
3998.999, 2.145111
3999.500, 0.8079340
4000.000, 0.0000000E+00
##END=



