##NAMES=Atelisite-(Y)
##RRUFFID=R130043
##IDEAL CHEMISTRY=Y_4_Si_3_O_8_(OH)_8_
##LOCALITY=Stetind quarry, Tysfjord, Norway
##OWNER=Thomas Malcherek
##SOURCE=Thomas Malcherek
##DESCRIPTION=Pale brown to colourless, transparent crystals of dipyramidally terminated. Associated with xenotime-( Y), calcioancylite-(Nd) and La-dominant calcioancylite. Data from Malcherek et al (2012)
##STATUS=The identification of this mineral has been confirmed by X-ray diffraction and chemical analysis
##URL=rruff.info/R130043
##MEASURED CHEMISTRY=(Y_3.11_Yb_0.46_Er_0.19_Dy_0.11_Gd_0.09_Ho_0.01_Tb_0.02_)_Î£=3.99_Si_2.40_O_16_H_10.43_
##ORIENTATION=Laser parallel to -a [-1 0 0]. Fiducial mark perpendicular to laser is parallel to c [0 0 1]
15.00000, 0.0000000E+00
15.50031, 2.451965
16.00063, 3.776001
16.50094, 2.779114
17.00126, 1.572571
17.50157, 1.6479000E-02
18.00188, 0.1398930
18.50220, 1.437134
19.00251, 2.416443
19.50282, 4.524292
20.00314, 7.796753
20.50345, 11.02283
21.00377, 10.34576
21.50408, 7.179993
22.00439, 5.307922
22.50471, 7.175903
23.00502, 13.27527
23.50534, 15.18555
24.00565, 14.10974
24.50596, 10.88177
25.00628, 9.666443
25.50659, 12.99677
26.00690, 16.82855
26.50722, 20.59070
27.00753, 19.47748
27.50785, 18.35785
28.00816, 19.23767
28.50847, 20.86499
29.00879, 21.02301
29.50910, 19.12366
30.00942, 16.05688
30.50973, 14.03473
31.01004, 11.63617
31.51036, 10.79791
32.01067, 11.28198
32.51099, 13.39374
33.01130, 15.66443
33.51161, 17.94452
34.01193, 18.64594
34.51224, 18.42242
35.01255, 19.55853
35.51287, 21.61597
36.01318, 25.80902
36.51350, 26.39093
37.01381, 26.81140
37.51413, 27.03082
38.01444, 28.21295
38.51475, 28.12018
39.01506, 26.96454
39.51538, 23.42322
40.01569, 16.97998
40.51601, 16.42395
41.01632, 18.62292
41.51664, 21.03760
42.01695, 18.09711
42.51726, 17.40320
43.01758, 17.25366
43.51789, 18.34235
44.01820, 20.48706
44.51852, 20.19043
45.01883, 16.35974
45.51915, 9.944153
46.01946, 7.583313
46.51978, 7.985840
47.02009, 8.210083
47.52040, 7.872314
48.02071, 9.349426
48.52103, 8.173401
49.02134, 5.794434
49.52166, 2.257141
50.02197, 4.154358
50.52229, 4.537964
51.02260, 2.487122
51.52291, 0.9075930
52.02323, 1.623657
52.52354, 2.997437
53.02385, 1.889160
53.52417, 3.723511
54.02448, 5.972473
54.52480, 5.182678
55.02511, 2.712830
55.52542, 0.9190060
56.02574, 1.769897
56.52605, 2.213379
57.02637, 2.927429
57.52668, 2.750122
58.02699, 2.028198
58.52731, 5.7983000E-02
59.02762, 3.985657
59.52794, 7.364868
60.02825, 8.089172
60.52856, 9.928772
61.02888, 10.71124
61.52919, 10.36682
62.02950, 5.357483
62.52982, 0.4191890
63.03013, 1.937744
63.53045, 2.598816
64.03076, 0.1693120
64.53107, 2.762878
65.03139, 5.675842
65.53170, 4.791748
66.03201, 2.192566
66.53233, 1.995117
67.03265, 5.822693
67.53296, 5.677124
68.03327, 0.1428830
68.53358, 5.379395
69.03390, 8.049194
69.53421, 8.995544
70.03452, 10.76697
70.53484, 10.73364
71.03516, 7.941589
71.53547, 7.035767
72.03578, 12.37878
72.53609, 17.38226
73.03641, 16.89703
73.53672, 11.38910
74.03704, 8.363831
74.53735, 10.43823
75.03767, 16.31500
75.53798, 22.72815
76.03829, 29.44775
76.53860, 32.31366
77.03892, 31.29669
77.53923, 29.34241
78.03955, 30.77686
78.53986, 33.66052
79.04018, 33.07806
79.54049, 30.46124
80.04080, 29.23993
80.54111, 30.49817
81.04143, 32.06873
81.54175, 32.36658
82.04206, 33.18750
82.54237, 36.34180
83.04269, 42.72180
83.54300, 47.19556
84.04331, 47.72388
84.54362, 43.83972
85.04395, 38.94073
85.54426, 35.01257
86.04457, 33.53412
86.54488, 35.10059
87.04520, 37.66937
87.54551, 35.32190
88.04582, 34.61530
88.54614, 34.91333
89.04646, 38.64771
89.54677, 38.96729
90.04708, 38.02332
90.54739, 38.42004
91.04771, 39.57904
91.54802, 39.52954
92.04834, 40.33148
92.54865, 39.18317
93.04897, 34.89893
93.54928, 34.83081
94.04959, 35.82623
94.54990, 39.15112
95.05022, 36.31982
95.55054, 36.56476
96.05085, 35.36700
96.55116, 32.51349
97.05148, 27.88586
97.55179, 27.12878
98.05210, 29.23767
98.55241, 30.97150
99.05273, 31.97217
99.55305, 33.39941
100.0534, 32.31171
100.5537, 29.34308
101.0540, 25.24695
101.5543, 23.35919
102.0546, 22.45587
102.5549, 20.32281
103.0552, 16.82593
103.5556, 15.07056
104.0559, 13.36896
104.5562, 12.85291
105.0565, 13.74567
105.5568, 16.37830
106.0571, 18.35785
106.5574, 18.61853
107.0578, 21.50989
107.5581, 25.42517
108.0584, 28.86829
108.5587, 27.82062
109.0590, 23.58350
109.5593, 22.66223
110.0596, 21.11102
110.5600, 21.80634
111.0603, 22.87427
111.5606, 22.09412
112.0609, 24.13055
112.5612, 24.92358
113.0615, 29.48187
113.5618, 28.72327
114.0621, 23.83691
114.5625, 18.98010
115.0628, 18.52246
115.5631, 18.75671
116.0634, 20.22852
116.5637, 20.43604
117.0640, 18.09589
117.5643, 14.27106
118.0647, 13.13129
118.5650, 17.39923
119.0653, 21.15948
119.5656, 20.80438
120.0659, 16.49548
120.5662, 12.37799
121.0665, 11.58856
121.5669, 12.88220
122.0672, 17.07764
122.5675, 20.60699
123.0678, 22.39111
123.5681, 27.12854
124.0684, 26.44440
124.5687, 25.54932
125.0691, 26.48553
125.5694, 30.63757
126.0697, 35.29449
126.5700, 32.07336
127.0703, 29.97748
127.5706, 25.84552
128.0709, 25.25092
128.5712, 26.79364
129.0716, 30.27789
129.5719, 28.84241
130.0722, 29.47742
130.5725, 33.39801
131.0728, 35.62390
131.5731, 36.12701
132.0734, 35.49628
132.5738, 38.55408
133.0741, 38.52545
133.5744, 41.67963
134.0747, 43.07202
134.5750, 43.63074
135.0753, 41.99573
135.5756, 42.09174
136.0760, 46.45807
136.5763, 49.69440
137.0766, 50.52448
137.5769, 50.69519
138.0772, 50.26697
138.5775, 53.03888
139.0778, 55.29950
139.5782, 60.00494
140.0785, 66.03595
140.5788, 69.89227
141.0791, 69.61639
141.5794, 71.61298
142.0797, 73.81537
142.5800, 77.06531
143.0804, 76.35675
143.5807, 76.57202
144.0810, 82.28094
144.5813, 91.17120
145.0816, 99.61047
145.5819, 100.6240
146.0822, 99.78156
146.5826, 97.06018
147.0829, 93.28448
147.5832, 90.49255
148.0835, 92.65991
148.5838, 98.44141
149.0841, 99.38440
149.5844, 96.50708
150.0847, 95.37408
150.5851, 97.76105
151.0854, 100.2234
151.5857, 98.16266
152.0860, 97.02185
152.5863, 95.95966
153.0866, 96.02820
153.5869, 94.56580
154.0872, 92.16742
154.5876, 92.73700
155.0879, 94.75439
155.5882, 96.73065
156.0885, 102.8655
156.5888, 105.3624
157.0891, 104.6832
157.5894, 98.39319
158.0898, 96.38629
158.5901, 103.4187
159.0904, 114.7552
159.5907, 124.8719
160.0910, 133.4631
160.5913, 139.0255
161.0916, 143.7806
161.5920, 146.2010
162.0923, 148.0268
162.5926, 148.4449
163.0929, 149.2031
163.5932, 154.1535
164.0935, 157.9789
164.5938, 164.7974
165.0942, 167.8116
165.5945, 167.8134
166.0948, 171.9335
166.5951, 176.5847
167.0954, 185.5775
167.5957, 185.3860
168.0960, 182.2616
168.5964, 179.5549
169.0967, 178.0295
169.5970, 177.8052
170.0973, 178.7253
170.5976, 177.7737
171.0979, 174.2037
171.5982, 168.0548
172.0986, 163.4659
172.5989, 162.5825
173.0992, 161.4484
173.5995, 156.1000
174.0998, 147.1408
174.6001, 138.8853
175.1004, 134.5420
175.6008, 132.6176
176.1011, 132.4669
176.6014, 131.8203
177.1017, 130.4762
177.6020, 126.9091
178.1023, 119.6913
178.6026, 114.7564
179.1030, 114.2095
179.6033, 119.9964
180.1036, 122.5326
180.6039, 119.2419
181.1042, 110.8759
181.6045, 103.2996
182.1048, 102.5269
182.6051, 101.4096
183.1055, 95.81488
183.6058, 84.63812
184.1061, 81.55060
184.6064, 82.60199
185.1067, 85.20618
185.6070, 84.34314
186.1073, 86.35602
186.6077, 88.01941
187.1080, 86.78748
187.6083, 82.81201
188.1086, 79.50861
188.6089, 76.69495
189.1092, 76.61493
189.6095, 79.01147
190.1098, 85.17279
190.6102, 89.58942
191.1105, 87.52594
191.6108, 84.52203
192.1111, 84.76367
192.6114, 83.41504
193.1117, 82.67303
193.6120, 80.07764
194.1124, 82.74683
194.6127, 81.48779
195.1130, 75.53845
195.6133, 69.40869
196.1136, 66.84369
196.6139, 69.79248
197.1142, 68.06000
197.6146, 68.37622
198.1149, 67.75024
198.6152, 63.75018
199.1155, 55.32080
199.6158, 46.13586
200.1161, 44.76404
200.6164, 41.70435
201.1168, 36.98962
201.6171, 36.65704
202.1174, 39.59064
202.6177, 41.06732
203.1180, 42.12079
203.6183, 40.13873
204.1186, 39.00244
204.6190, 34.10944
205.1193, 31.43604
205.6196, 30.70319
206.1199, 30.64642
206.6202, 31.24396
207.1205, 33.16809
207.6208, 30.12921
208.1212, 24.05237
208.6215, 16.26862
209.1218, 14.36450
209.6221, 14.63403
210.1224, 16.78046
210.6227, 17.93158
211.1230, 16.01611
211.6234, 13.85120
212.1237, 10.48529
212.6240, 8.369202
213.1243, 3.396362
213.6246, 4.327515
214.1249, 6.344482
214.6252, 9.454651
215.1255, 7.903931
215.6259, 0.7105710
216.1262, 0.6159060
216.6265, 0.7221070
217.1268, 3.854553
217.6271, 5.973389
218.1274, 10.22992
218.6277, 15.85168
219.1281, 15.26379
219.6284, 8.019653
220.1287, 2.232483
220.6290, 1.993347
221.1293, 5.679260
221.6296, 5.396667
222.1299, 0.7067870
222.6303, 1.963562
223.1306, 0.6010740
223.6309, 4.173157
224.1312, 5.541748
224.6315, 1.994446
225.1318, 1.951477
225.6321, 5.792358
226.1325, 6.834595
226.6328, 4.453613
227.1331, 3.124756
227.6334, 3.440552
228.1337, 4.726013
228.6340, 6.666565
229.1343, 7.454163
229.6347, 9.787781
230.1350, 12.80096
230.6353, 10.97003
231.1356, 12.66406
231.6359, 14.83289
232.1362, 14.03937
232.6365, 9.869934
233.1369, 5.069946
233.6372, 7.558289
234.1375, 7.337646
234.6378, 5.726379
235.1381, 6.091858
235.6384, 7.974609
236.1387, 7.806885
236.6391, 8.619385
237.1394, 5.682373
237.6397, 2.477234
238.1400, 2.906189
238.6403, 0.9704590
239.1406, 0.4865110
239.6409, 1.327332
240.1412, 1.287781
240.6416, 5.334778
241.1419, 7.674866
241.6422, 12.61487
242.1425, 16.62903
242.6428, 22.67603
243.1431, 19.30511
243.6434, 15.36139
244.1438, 12.58472
244.6441, 14.75708
245.1444, 15.43768
245.6447, 16.78638
246.1450, 17.80219
246.6453, 14.21118
247.1456, 8.852539
247.6460, 10.39990
248.1463, 16.35468
248.6466, 21.60358
249.1469, 23.10986
249.6472, 22.22534
250.1475, 23.39124
250.6478, 23.58350
251.1481, 23.04993
251.6485, 24.17798
252.1488, 25.78040
252.6491, 29.39233
253.1494, 28.82959
253.6497, 25.33228
254.1500, 25.18262
254.6503, 26.56445
255.1507, 28.53674
255.6510, 26.19958
256.1513, 27.69519
256.6516, 28.53833
257.1519, 29.01709
257.6522, 30.51257
258.1526, 35.39868
258.6529, 43.74646
259.1532, 44.60815
259.6535, 38.43140
260.1538, 33.53638
260.6541, 31.86731
261.1544, 37.71899
261.6548, 42.75659
262.1551, 48.77197
262.6554, 53.02527
263.1557, 55.99146
263.6560, 56.23157
264.1563, 50.46460
264.6566, 46.28760
265.1569, 45.21265
265.6573, 51.33472
266.1576, 54.59863
266.6579, 62.47571
267.1582, 64.60889
267.6585, 64.68103
268.1588, 61.64441
268.6591, 69.75391
269.1595, 74.24561
269.6598, 77.84985
270.1601, 81.65308
270.6604, 87.24902
271.1607, 90.02686
271.6610, 89.13757
272.1613, 95.36499
272.6617, 102.0779
273.1620, 104.8384
273.6623, 107.2507
274.1626, 111.7113
274.6629, 118.9657
275.1632, 126.1057
275.6635, 131.6548
276.1638, 135.7047
276.6642, 137.7002
277.1645, 140.9265
277.6648, 143.6746
278.1651, 149.9659
278.6654, 157.5609
279.1657, 164.3473
279.6660, 170.9805
280.1664, 179.6492
280.6667, 192.5592
281.1670, 201.3790
281.6673, 204.9547
282.1676, 209.0259
282.6679, 220.2324
283.1682, 237.1345
283.6685, 246.8501
284.1689, 252.7142
284.6692, 257.5581
285.1695, 268.9038
285.6698, 275.5747
286.1701, 279.7703
286.6704, 282.7268
287.1707, 288.5442
287.6711, 293.3370
288.1714, 299.8590
288.6717, 309.8591
289.1720, 320.1636
289.6723, 327.1926
290.1726, 333.8872
290.6729, 340.9520
291.1732, 349.4949
291.6736, 353.9819
292.1739, 355.4318
292.6742, 361.0952
293.1745, 367.5559
293.6748, 373.9712
294.1751, 373.5450
294.6754, 376.2990
295.1758, 377.8187
295.6761, 381.1539
296.1764, 382.8142
296.6767, 385.0145
297.1770, 381.8740
297.6773, 378.7704
298.1776, 380.7124
298.6780, 385.5886
299.1783, 384.4401
299.6786, 375.5022
300.1789, 364.9811
300.6792, 356.0424
301.1795, 348.7728
301.6798, 339.6005
302.1802, 330.6454
302.6805, 325.9497
303.1808, 328.7473
303.6811, 324.9463
304.1814, 312.1956
304.6817, 291.1704
305.1820, 275.3622
305.6824, 272.5747
306.1827, 273.8445
306.6830, 272.9775
307.1833, 260.2540
307.6836, 243.9180
308.1839, 232.0465
308.6842, 227.2753
309.1846, 227.0865
309.6849, 222.2261
310.1852, 210.1752
310.6855, 194.9797
311.1858, 184.2418
311.6861, 180.5183
312.1864, 173.9132
312.6868, 167.3066
313.1871, 160.6697
313.6874, 160.5121
314.1877, 157.2689
314.6880, 152.7963
315.1883, 142.9401
315.6886, 132.7555
316.1890, 125.5524
316.6893, 130.9517
317.1896, 135.1946
317.6899, 132.8149
318.1902, 122.2379
318.6905, 112.3164
319.1908, 105.1023
319.6912, 101.4108
320.1915, 103.4277
320.6918, 102.1141
321.1921, 97.92114
321.6924, 91.50867
322.1927, 87.24377
322.6930, 80.75232
323.1934, 78.99829
323.6937, 76.19189
324.1940, 73.02698
324.6943, 67.16272
325.1946, 73.23389
325.6949, 75.27747
326.1952, 77.91858
326.6956, 73.62122
327.1959, 72.30640
327.6962, 62.99805
328.1965, 55.90405
328.6968, 52.91309
329.1971, 53.96118
329.6974, 56.30066
330.1978, 51.07312
330.6981, 47.18701
331.1984, 40.71375
331.6987, 43.97559
332.1990, 44.63110
332.6993, 41.81775
333.1996, 37.65271
333.7000, 39.62866
334.2003, 45.03748
334.7006, 44.21008
335.2009, 39.16785
335.7012, 30.46875
336.2015, 22.95276
336.7018, 23.22192
337.2021, 25.67395
337.7025, 28.83496
338.2028, 21.77197
338.7031, 18.45703
339.2034, 20.52600
339.7037, 28.20496
340.2040, 31.53528
340.7043, 30.98499
341.2047, 30.86169
341.7050, 31.23706
342.2053, 31.36560
342.7056, 26.14233
343.2059, 24.53235
343.7062, 28.45422
344.2065, 35.24939
344.7068, 37.02039
345.2072, 40.62488
345.7075, 43.11682
346.2078, 45.01648
346.7081, 38.83960
347.2084, 31.16602
347.7087, 31.54089
348.2090, 32.98389
348.7094, 38.68140
349.2097, 40.49487
349.7100, 43.97510
350.2103, 51.15613
350.7106, 55.61597
351.2109, 62.07776
351.7112, 68.99084
352.2115, 71.97449
352.7119, 77.02563
353.2122, 81.81787
353.7125, 93.46472
354.2128, 100.2394
354.7131, 105.6692
355.2134, 109.1233
355.7137, 115.6350
356.2141, 123.9436
356.7144, 139.0741
357.2147, 154.3331
357.7150, 169.6989
358.2153, 182.1451
358.7156, 188.0559
359.2159, 196.2133
359.7162, 209.5952
360.2166, 232.8710
360.7169, 248.4050
361.2172, 264.7657
361.7175, 279.6007
362.2178, 300.7710
362.7181, 318.1731
363.2184, 334.9082
363.7188, 348.2194
364.2191, 360.0657
364.7194, 375.0641
365.2197, 392.7283
365.7200, 406.8867
366.2203, 411.6581
366.7206, 416.0786
367.2210, 423.9364
367.7213, 427.0753
368.2216, 421.2267
368.7219, 409.5735
369.2222, 402.0082
369.7225, 390.5305
370.2228, 378.8973
370.7232, 366.2996
371.2235, 355.4045
371.7238, 340.1978
372.2241, 329.1986
372.7244, 315.9707
373.2247, 303.7542
373.7250, 287.9190
374.2254, 274.9770
374.7257, 262.3843
375.2260, 246.7767
375.7263, 230.8903
376.2266, 213.4819
376.7269, 198.1945
377.2272, 184.3950
377.7276, 173.2767
378.2279, 162.2443
378.7282, 148.9586
379.2285, 136.4061
379.7288, 121.9253
380.2291, 113.0904
380.7294, 104.9021
381.2298, 98.08258
381.7301, 94.04669
382.2304, 89.35553
382.7307, 85.72583
383.2310, 74.55371
383.7313, 60.41626
384.2316, 51.68707
384.7320, 44.36743
385.2323, 38.31116
385.7326, 32.93127
386.2329, 32.36853
386.7332, 31.33325
387.2335, 24.12317
387.7338, 12.02631
388.2342, 0.4801640
388.7345, 2.699402
389.2348, 3.693665
389.7351, 5.324829
390.2354, 14.29523
390.7357, 15.72943
391.2360, 13.91547
391.7364, 12.50519
392.2367, 16.05609
392.7370, 16.56854
393.2373, 14.89453
393.7376, 9.635620
394.2379, 5.973633
394.7382, 5.410950
395.2386, 7.339111
395.7389, 6.914001
396.2392, 1.910217
396.7395, 3.711426
397.2398, 7.717957
397.7401, 11.73438
398.2404, 14.43329
398.7408, 20.30139
399.2411, 29.38031
399.7414, 37.56726
400.2417, 46.91498
400.7420, 55.36011
401.2423, 67.10785
401.7426, 74.93689
402.2430, 82.48889
402.7433, 88.74683
403.2436, 98.87195
403.7439, 111.3116
404.2442, 125.9738
404.7445, 140.5164
405.2448, 149.7509
405.7451, 160.4580
406.2455, 174.5125
406.7458, 193.3672
407.2461, 210.7929
407.7464, 227.7910
408.2467, 245.8828
408.7470, 264.1537
409.2473, 286.3157
409.7477, 306.1840
410.2480, 325.9268
410.7483, 338.2826
411.2486, 352.7043
411.7489, 371.6942
412.2492, 396.0224
412.7495, 417.9763
413.2498, 431.0818
413.7502, 437.6232
414.2505, 441.2865
414.7508, 447.9250
415.2511, 454.5508
415.7514, 462.9783
416.2517, 467.3917
416.7520, 467.3127
417.2523, 456.6876
417.7527, 439.0431
418.2530, 421.4250
418.7533, 409.2424
419.2536, 402.9206
419.7539, 393.5154
420.2542, 380.6981
420.7545, 367.4567
421.2549, 351.2174
421.7552, 330.4437
422.2555, 307.5441
422.7558, 294.0052
423.2561, 284.8196
423.7564, 277.5536
424.2567, 264.3842
424.7570, 251.0711
425.2574, 233.6407
425.7577, 218.2541
426.2580, 208.8228
426.7583, 206.1398
427.2586, 201.7004
427.7589, 191.5558
428.2592, 182.3939
428.7596, 174.4805
429.2599, 169.9495
429.7602, 165.7745
430.2605, 162.2469
430.7608, 155.8137
431.2611, 147.2858
431.7614, 140.4372
432.2618, 136.1826
432.7621, 134.0740
433.2624, 128.9118
433.7627, 122.6169
434.2630, 113.2094
434.7633, 104.3555
435.2636, 99.26263
435.7640, 93.30048
436.2643, 86.71643
436.7646, 80.08813
437.2649, 81.12201
437.7652, 85.23145
438.2655, 87.49066
438.7658, 84.47388
439.2662, 82.09784
439.7665, 80.00922
440.2668, 76.63220
440.7671, 73.37921
441.2674, 73.38861
441.7677, 73.51453
442.2680, 72.59161
442.7684, 69.71747
443.2687, 66.93127
443.7690, 60.26550
444.2693, 52.41357
444.7696, 47.90985
445.2699, 46.98822
445.7702, 45.84528
446.2706, 42.93573
446.7709, 41.22028
447.2712, 41.52747
447.7715, 39.13556
448.2718, 33.40485
448.7721, 31.09137
449.2724, 32.95923
449.7728, 39.29938
450.2731, 40.30310
450.7734, 37.93298
451.2737, 34.20532
451.7740, 30.43097
452.2743, 26.80182
452.7746, 21.39130
453.2750, 17.39447
453.7753, 18.64264
454.2756, 18.19672
454.7759, 17.63831
455.2762, 13.12335
455.7765, 6.864380
456.2768, 5.506653
456.7772, 7.823608
457.2775, 15.46515
457.7778, 17.67859
458.2781, 18.02423
458.7784, 14.37122
459.2787, 9.241699
459.7790, 2.901917
460.2794, 1.045166
460.7797, 2.647888
461.2800, 7.398132
461.7803, 8.552612
462.2806, 8.169556
462.7809, 8.657959
463.2812, 7.746521
463.7816, 7.303162
464.2819, 3.297729
464.7822, 2.067688
465.2825, 1.921753
465.7828, 3.409241
466.2831, 4.737854
466.7834, 2.820251
467.2838, 2.948181
467.7841, 4.875244
468.2844, 7.154236
468.7847, 7.978333
469.2850, 5.208801
469.7853, 3.342407
470.2856, 2.402588
470.7859, 2.415771
471.2863, 3.731995
471.7866, 7.135620
472.2869, 10.03491
472.7872, 10.32739
473.2875, 7.188721
473.7878, 3.670471
474.2881, 1.979370
474.7885, 3.429443
475.2888, 3.916687
475.7891, 2.5939999E-02
476.2894, 3.159912
476.7897, 3.323547
477.2900, 1.280273
477.7903, 0.4635010
478.2906, 1.433655
478.7910, 1.990967
479.2913, 3.747986
479.7916, 5.217896
480.2919, 7.226257
480.7922, 8.378906
481.2925, 5.639282
481.7928, 1.500305
482.2932, 1.581116
482.7935, 6.380188
483.2938, 9.732666
483.7941, 9.090332
484.2944, 7.244751
484.7947, 8.637024
485.2950, 7.396851
485.7953, 4.740173
486.2957, 2.878967
486.7960, 5.234375
487.2963, 3.044006
487.7966, 7.062195
488.2969, 9.224915
488.7972, 14.53967
489.2975, 13.07788
489.7979, 11.13678
490.2982, 9.408752
490.7985, 9.579102
491.2988, 12.23932
491.7991, 12.71704
492.2994, 11.10211
492.7997, 10.04980
493.3000, 13.58606
493.8004, 17.38098
494.3007, 20.73181
494.8010, 19.59686
495.3013, 17.86206
495.8016, 15.91669
496.3019, 17.94110
496.8022, 19.29437
497.3026, 15.25647
497.8029, 12.50940
498.3032, 9.914001
498.8035, 11.69409
499.3038, 14.92328
499.8041, 23.05920
500.3044, 25.78784
500.8048, 22.09003
501.3051, 15.02350
501.8054, 17.27063
502.3057, 21.10681
502.8060, 22.95135
503.3063, 19.64221
503.8066, 16.60004
504.3070, 16.03088
504.8073, 15.35431
505.3076, 15.49176
505.8079, 15.53833
506.3082, 19.09955
506.8085, 19.03705
507.3088, 17.21527
507.8092, 15.32471
508.3095, 17.85907
508.8098, 18.37732
509.3101, 15.47937
509.8104, 16.14691
510.3107, 18.88489
510.8110, 21.92865
511.3114, 19.81445
511.8117, 16.62518
512.3120, 15.48181
512.8123, 19.23517
513.3126, 25.60400
513.8129, 29.61700
514.3132, 29.15033
514.8135, 28.12103
515.3138, 26.16272
515.8142, 23.74646
516.3145, 22.34509
516.8148, 24.68597
517.3151, 26.37469
517.8154, 25.00653
518.3157, 22.42755
518.8160, 22.16718
519.3164, 24.26056
519.8167, 25.98120
520.3170, 27.06683
520.8173, 26.55389
521.3176, 26.70282
521.8179, 29.22913
522.3182, 25.90399
522.8186, 22.47430
523.3189, 18.73944
523.8192, 20.22076
524.3195, 23.46570
524.8198, 19.73846
525.3201, 18.15448
525.8204, 15.96851
526.3208, 14.64221
526.8211, 14.21631
527.3214, 10.60834
527.8217, 11.21149
528.3220, 10.52209
528.8223, 11.92822
529.3226, 11.32062
529.8230, 12.58551
530.3233, 10.17157
530.8236, 7.593567
531.3239, 7.337463
531.8242, 9.094360
532.3245, 12.44153
532.8248, 10.08179
533.3252, 9.598022
533.8255, 11.57727
534.3258, 14.18811
534.8261, 13.89990
535.3264, 11.71893
535.8267, 10.74316
536.3270, 12.60461
536.8274, 13.01697
537.3277, 10.20093
537.8280, 6.683167
538.3283, 6.289368
538.8286, 9.721069
539.3289, 12.18805
539.8292, 15.03516
540.3296, 16.99823
540.8299, 19.47186
541.3302, 18.36908
541.8305, 15.92511
542.3308, 13.63116
542.8311, 13.80365
543.3314, 17.00745
543.8318, 24.47443
544.3321, 28.79657
544.8324, 28.79431
545.3327, 23.87573
545.8330, 19.69183
546.3333, 15.14392
546.8336, 15.27423
547.3340, 18.39667
547.8343, 24.91138
548.3346, 29.41687
548.8349, 34.36389
549.3352, 41.19122
549.8355, 45.44690
550.3358, 45.69250
550.8362, 41.61432
551.3365, 40.04498
551.8368, 44.36810
552.3371, 47.44037
552.8374, 49.57019
553.3377, 49.06897
553.8380, 50.88043
554.3384, 53.62537
554.8387, 55.06665
555.3390, 56.51520
555.8393, 56.78748
556.3396, 58.00830
556.8399, 61.26697
557.3402, 67.06812
557.8406, 68.59192
558.3409, 66.73547
558.8412, 66.39716
559.3415, 73.68329
559.8418, 80.47382
560.3421, 82.72974
560.8424, 81.21979
561.3428, 81.71735
561.8431, 82.83154
562.3434, 83.36914
562.8437, 84.25092
563.3440, 85.52722
563.8443, 87.99005
564.3446, 91.20813
564.8450, 94.40900
565.3453, 97.42371
565.8456, 99.51111
566.3459, 100.7459
566.8462, 100.6581
567.3465, 96.62561
567.8468, 96.06763
568.3472, 95.54395
568.8475, 96.91479
569.3478, 100.2778
569.8481, 98.58606
570.3484, 99.83807
570.8487, 95.99170
571.3490, 96.01056
571.8494, 92.64343
572.3497, 88.53320
572.8500, 85.33472
573.3503, 84.43860
573.8506, 84.80786
574.3509, 86.08942
574.8512, 83.02588
575.3516, 76.71600
575.8519, 69.44672
576.3522, 68.37714
576.8525, 73.71246
577.3528, 76.56055
577.8531, 78.96442
578.3534, 77.25098
578.8538, 77.46704
579.3541, 73.94629
579.8544, 66.96783
580.3547, 61.59473
580.8550, 59.39996
581.3553, 61.32568
581.8556, 62.53638
582.3560, 61.53955
582.8563, 58.81445
583.3566, 57.93488
583.8569, 57.97943
584.3572, 58.55835
584.8575, 61.91534
585.3578, 63.70374
585.8582, 66.23291
586.3585, 64.55566
586.8588, 62.63092
587.3591, 56.17291
587.8594, 53.38867
588.3597, 51.47913
588.8600, 54.99957
589.3604, 56.31000
589.8607, 57.34003
590.3610, 57.21698
590.8613, 58.40424
591.3616, 61.26062
591.8619, 63.77600
592.3622, 64.46362
592.8625, 64.14423
593.3629, 64.20062
593.8632, 61.24219
594.3635, 57.32861
594.8638, 53.64117
595.3641, 52.94257
595.8644, 52.56873
596.3647, 53.04572
596.8651, 54.22778
597.3654, 57.13843
597.8657, 56.26172
598.3660, 56.21558
598.8663, 57.76135
599.3666, 61.75195
599.8669, 62.02850
600.3672, 61.51270
600.8676, 62.26599
601.3679, 66.12799
601.8682, 68.82465
602.3685, 68.03040
602.8688, 62.07794
603.3691, 63.29028
603.8694, 64.66486
604.3698, 68.66370
604.8701, 66.36206
605.3704, 66.54987
605.8707, 65.42944
606.3710, 63.71606
606.8713, 62.94299
607.3716, 65.56036
607.8719, 68.80829
608.3723, 68.77106
608.8726, 64.84656
609.3729, 61.53674
609.8732, 61.66931
610.3735, 63.41431
610.8738, 61.76367
611.3741, 58.03040
611.8745, 56.07263
612.3748, 58.59503
612.8751, 62.89014
613.3754, 62.22803
613.8757, 59.94806
614.3760, 55.41772
614.8763, 53.90265
615.3766, 50.57520
615.8770, 47.63770
616.3773, 43.52911
616.8776, 42.80719
617.3779, 41.58881
617.8782, 40.75330
618.3785, 37.31506
618.8788, 36.26654
619.3792, 35.41376
619.8795, 34.97430
620.3798, 30.90240
620.8801, 25.04211
621.3804, 22.05670
621.8807, 19.92950
622.3810, 22.71143
622.8813, 21.62390
623.3817, 21.70264
623.8820, 20.63837
624.3823, 20.54236
624.8826, 20.11652
625.3829, 18.27722
625.8832, 15.87848
626.3835, 14.35498
626.8839, 12.55774
627.3842, 12.15845
627.8845, 11.77222
628.3848, 12.48187
628.8851, 11.98718
629.3854, 11.21881
629.8857, 8.465576
630.3860, 5.633057
630.8864, 5.110718
631.3867, 6.376160
631.8870, 7.206116
632.3873, 7.435303
632.8876, 5.546082
633.3879, 3.746521
633.8882, 3.271545
634.3885, 4.858276
634.8889, 9.466675
635.3892, 9.827759
635.8895, 10.64661
636.3898, 9.139221
636.8901, 8.709534
637.3904, 7.350281
637.8907, 6.277466
638.3911, 4.389221
638.8914, 2.925659
639.3917, 1.219055
639.8920, 1.706787
640.3923, 3.317200
640.8926, 5.631958
641.3929, 4.445557
641.8933, 1.654907
642.3936, 1.587219
642.8939, 1.0620000E-02
643.3942, 2.024292
643.8945, 3.540588
644.3948, 2.630737
644.8951, 0.6352540
645.3955, 1.557312
645.8958, 1.626892
646.3961, 0.2915040
646.8964, 9.6740998E-02
647.3967, 1.041504
647.8970, 1.211304
648.3973, 2.580322
648.8977, 3.001709
649.3980, 4.413086
649.8983, 3.227356
650.3986, 2.846313
650.8989, 4.711304
651.3992, 2.459106
651.8995, 1.295349
652.3999, 0.9481200
652.9002, 0.3349610
653.4005, 0.5019530
653.9008, 0.5372310
654.4011, 1.987854
654.9014, 1.186584
655.4017, 3.228760
655.9021, 4.778137
656.4024, 1.118835
656.9027, 2.963135
657.4030, 3.103577
657.9033, 0.1468510
658.4036, 0.8539430
658.9039, 3.166321
659.4043, 3.216553
659.9046, 0.1443480
660.4049, 0.5936890
660.9052, 2.676147
661.4055, 5.025879
661.9058, 6.662048
662.4061, 3.735840
662.9065, 1.315002
663.4068, 1.055420
663.9071, 2.845337
664.4074, 3.119690
664.9077, 4.464722
665.4080, 5.840637
665.9083, 4.940063
666.4087, 7.360535
666.9090, 8.040833
667.4093, 10.34125
667.9096, 8.852783
668.4099, 10.50494
668.9102, 10.58185
669.4105, 11.17871
669.9109, 7.386658
670.4112, 2.546936
670.9115, 4.367065
671.4118, 2.607849
671.9121, 1.481262
672.4124, 7.825989
672.9127, 8.230408
673.4131, 6.575623
673.9134, 5.929749
674.4137, 2.905823
674.9140, 2.414001
675.4143, 0.5785520
675.9146, 2.094299
676.4149, 0.9382320
676.9153, 3.987061
677.4156, 5.014038
677.9159, 8.825195
678.4162, 9.305359
678.9165, 8.406555
679.4168, 6.036072
679.9171, 1.143616
680.4175, 0.1136470
680.9178, 4.777954
681.4181, 7.952759
681.9184, 10.18176
682.4187, 10.66144
682.9190, 12.50189
683.4193, 11.41809
683.9197, 12.69135
684.4200, 13.79877
684.9203, 14.16156
685.4206, 10.21948
685.9209, 8.512878
686.4212, 8.769775
686.9215, 10.49310
687.4219, 9.530640
687.9222, 8.870850
688.4225, 8.088562
688.9228, 9.098816
689.4231, 11.19293
689.9234, 14.81403
690.4237, 17.98718
690.9241, 17.93494
691.4244, 12.98560
691.9247, 7.459412
692.4250, 6.649231
692.9253, 7.315857
693.4256, 7.883057
693.9259, 7.446960
694.4263, 5.672729
694.9266, 7.406860
695.4269, 9.413574
695.9272, 15.25336
696.4275, 19.62305
696.9278, 19.98492
697.4281, 16.52039
697.9285, 11.94916
698.4288, 10.25574
698.9291, 10.92462
699.4294, 11.30029
699.9297, 10.98578
700.4300, 11.82416
700.9303, 13.35022
701.4307, 14.51562
701.9310, 14.03369
702.4313, 13.47052
702.9316, 12.93597
703.4319, 11.70050
703.9322, 9.619690
704.4325, 9.152283
704.9329, 10.41931
705.4332, 13.09027
705.9335, 13.68414
706.4338, 12.11597
706.9341, 9.740173
707.4344, 13.09619
707.9347, 14.06970
708.4351, 16.49054
708.9354, 15.66272
709.4357, 16.86975
709.9360, 13.17358
710.4363, 12.58203
710.9366, 12.20374
711.4369, 14.18024
711.9373, 11.84265
712.4376, 9.321899
712.9379, 9.555664
713.4382, 9.989014
713.9385, 10.20660
714.4388, 7.354736
714.9391, 6.970581
715.4394, 12.18396
715.9398, 15.62323
716.4401, 13.13245
716.9404, 7.312256
717.4407, 7.909302
717.9410, 10.21808
718.4413, 12.37408
718.9416, 12.13342
719.4420, 13.45923
719.9423, 13.83429
720.4426, 13.68701
720.9429, 12.28131
721.4432, 13.76013
721.9435, 16.05609
722.4438, 19.76581
722.9442, 21.74445
723.4445, 21.76733
723.9448, 20.72321
724.4451, 19.48633
724.9454, 19.29095
725.4457, 19.80981
725.9460, 18.79395
726.4464, 23.77014
726.9467, 29.36053
727.4470, 33.83575
727.9473, 30.55664
728.4476, 30.51080
728.9479, 33.76593
729.4482, 37.81952
729.9485, 37.51074
730.4489, 36.73853
730.9492, 37.87817
731.4495, 43.92877
731.9498, 48.82220
732.4501, 53.78473
732.9504, 57.05322
733.4507, 60.34241
733.9510, 61.21191
734.4514, 62.51001
734.9517, 66.18915
735.4520, 70.01257
735.9523, 70.00446
736.4526, 70.39111
736.9529, 70.04492
737.4532, 74.13361
737.9536, 79.99554
738.4539, 88.04327
738.9542, 91.11646
739.4545, 89.49744
739.9548, 84.65295
740.4551, 83.90662
740.9554, 89.49561
741.4557, 99.34393
741.9561, 102.5993
742.4564, 102.5733
742.9567, 101.9828
743.4570, 105.0610
743.9573, 104.7073
744.4576, 101.6155
744.9579, 100.9340
745.4583, 108.5498
745.9586, 118.1008
746.4589, 120.7897
746.9592, 115.8816
747.4595, 115.0452
747.9598, 119.6138
748.4601, 125.3752
748.9604, 124.8566
749.4608, 119.7006
749.9611, 115.2021
750.4614, 113.6218
750.9617, 116.9467
751.4620, 119.3033
751.9623, 118.7371
752.4626, 114.3090
752.9630, 111.8082
753.4633, 109.9790
753.9636, 109.9422
754.4639, 107.9261
754.9642, 107.5611
755.4645, 106.3750
755.9648, 107.9404
756.4651, 108.7896
756.9655, 110.6461
757.4658, 109.3886
757.9661, 104.4725
758.4664, 101.0807
758.9667, 99.64288
759.4670, 100.5430
759.9673, 97.38770
760.4677, 91.23248
760.9680, 88.02759
761.4683, 87.82538
761.9686, 86.51587
762.4689, 83.65643
762.9692, 85.88171
763.4695, 86.93402
763.9698, 83.88879
764.4702, 76.41901
764.9705, 70.26898
765.4708, 63.21167
765.9711, 57.55829
766.4714, 53.60590
766.9717, 54.71179
767.4720, 55.02924
767.9724, 57.41785
768.4727, 60.28271
768.9730, 56.69476
769.4733, 49.90027
769.9736, 40.51166
770.4739, 37.04083
770.9742, 37.69043
771.4745, 39.79138
771.9749, 39.56152
772.4752, 33.54419
772.9755, 29.30048
773.4758, 29.39581
773.9761, 29.98279
774.4764, 28.90790
774.9767, 24.23639
775.4771, 20.59180
775.9774, 16.04584
776.4777, 12.72070
776.9780, 10.00494
777.4783, 9.223389
777.9786, 11.82794
778.4789, 17.53247
778.9793, 21.89655
779.4796, 21.32800
779.9799, 15.75439
780.4802, 8.217896
780.9805, 2.941101
781.4808, 0.1384890
781.9811, 3.620972
782.4815, 7.723267
782.9818, 7.816833
783.4821, 6.295471
783.9824, 7.033447
784.4827, 9.742065
784.9830, 6.861328
785.4833, 8.680542
785.9837, 9.503662
786.4840, 14.35089
786.9843, 10.54993
787.4846, 5.487732
787.9849, 7.668335
788.4852, 12.12201
788.9855, 17.59338
789.4859, 14.23132
789.9862, 11.94855
790.4865, 14.72528
790.9868, 16.12488
791.4871, 16.53009
791.9874, 17.79083
792.4877, 21.22656
792.9881, 19.17645
793.4884, 11.93024
793.9887, 11.80896
794.4890, 14.40906
794.9893, 18.38989
795.4896, 17.18115
795.9899, 18.53760
796.4903, 21.75488
796.9906, 24.61401
797.4909, 26.31653
797.9912, 24.58484
798.4915, 20.59937
798.9918, 18.65979
799.4921, 17.61560
799.9925, 19.18250
800.4928, 17.08240
800.9931, 12.55688
801.4934, 5.932373
801.9937, 1.472656
802.4940, 0.3692630
802.9943, 1.317139
803.4947, 0.4882810
803.9950, 2.615234
804.4953, 5.881958
804.9956, 7.785278
805.4959, 8.123779
805.9962, 5.432739
806.4965, 0.1612550
806.9969, 6.268677
807.4972, 6.249756
807.9975, 3.490723
808.4978, 1.999878
808.9981, 7.069946
809.4984, 12.61340
809.9987, 13.37439
810.4991, 15.81873
810.9994, 18.35168
811.4997, 21.13232
812.0000, 17.10242
812.5003, 12.73999
813.0006, 13.42700
813.5009, 16.74976
814.0013, 22.50122
814.5016, 24.45215
815.0019, 24.89526
815.5022, 25.61572
816.0025, 30.72522
816.5028, 40.26794
817.0031, 46.28687
817.5035, 53.38647
818.0038, 61.62390
818.5041, 67.37939
819.0044, 65.66003
819.5047, 57.53601
820.0050, 56.70117
820.5053, 64.28625
821.0057, 76.10291
821.5060, 84.42114
822.0063, 88.81042
822.5066, 89.33081
823.0069, 92.86536
823.5072, 98.61926
824.0075, 105.2692
824.5079, 114.2168
825.0082, 123.7876
825.5085, 131.0901
826.0088, 132.5280
826.5091, 135.7239
827.0094, 149.1553
827.5097, 164.0094
828.0101, 170.6688
828.5104, 173.5289
829.0107, 182.6285
829.5110, 199.0981
830.0113, 205.1733
830.5116, 205.2661
831.0119, 208.8860
831.5123, 220.7007
832.0126, 234.9032
832.5129, 250.6379
833.0132, 261.2449
833.5135, 265.4064
834.0138, 271.6562
834.5141, 288.5371
835.0145, 309.3860
835.5148, 322.0264
836.0151, 331.5046
836.5154, 347.4401
837.0157, 365.0861
837.5160, 380.5610
838.0163, 386.4183
838.5167, 386.4696
839.0170, 397.4360
839.5173, 413.1842
840.0176, 433.3439
840.5179, 448.0580
841.0182, 466.2589
841.5185, 480.6470
842.0189, 493.0859
842.5192, 505.4401
843.0195, 527.2158
843.5198, 548.7750
844.0201, 563.0477
844.5204, 577.2734
845.0207, 589.6558
845.5211, 612.1312
846.0214, 629.6254
846.5217, 648.8805
847.0220, 672.0742
847.5223, 707.1575
848.0226, 740.7556
848.5229, 762.9423
849.0233, 779.6689
849.5236, 805.0964
850.0239, 830.0505
850.5242, 863.1760
851.0245, 888.0071
851.5248, 925.7848
852.0251, 952.8090
852.5255, 980.7732
853.0258, 1015.448
853.5261, 1055.859
854.0264, 1108.435
854.5267, 1149.326
855.0270, 1183.868
855.5273, 1214.576
856.0276, 1257.239
856.5280, 1297.624
857.0283, 1343.989
857.5286, 1381.889
858.0289, 1430.110
858.5292, 1484.099
859.0295, 1545.799
859.5298, 1607.026
860.0302, 1660.140
860.5305, 1714.496
861.0308, 1774.113
861.5311, 1833.050
862.0314, 1900.543
862.5317, 1973.047
863.0320, 2058.184
863.5323, 2142.072
864.0327, 2230.368
864.5330, 2321.652
865.0333, 2419.751
865.5336, 2521.705
866.0339, 2620.381
866.5342, 2712.118
867.0345, 2804.087
867.5349, 2905.667
868.0352, 3012.755
868.5355, 3127.190
869.0358, 3234.618
869.5361, 3332.422
870.0364, 3424.130
870.5367, 3543.202
871.0370, 3677.391
871.5374, 3806.198
872.0377, 3917.732
872.5380, 4026.398
873.0383, 4133.370
873.5386, 4228.466
874.0389, 4331.822
874.5392, 4451.484
875.0396, 4570.950
875.5399, 4668.737
876.0402, 4749.904
876.5405, 4831.996
877.0408, 4911.622
877.5411, 4984.182
878.0414, 5052.019
878.5417, 5123.828
879.0421, 5197.177
879.5424, 5264.610
880.0427, 5330.322
880.5430, 5372.505
881.0433, 5400.011
881.5436, 5408.508
882.0439, 5419.563
882.5443, 5436.627
883.0446, 5447.735
883.5449, 5461.756
884.0452, 5461.552
884.5455, 5450.490
885.0458, 5420.812
885.5461, 5385.592
886.0464, 5354.065
886.5468, 5331.052
887.0471, 5301.158
887.5474, 5252.968
888.0477, 5182.333
888.5480, 5112.381
889.0483, 5059.764
889.5486, 5017.159
890.0490, 4968.289
890.5493, 4895.859
891.0496, 4798.229
891.5499, 4690.533
892.0502, 4617.727
892.5505, 4560.076
893.0508, 4495.795
893.5511, 4397.954
894.0515, 4303.056
894.5518, 4198.366
895.0521, 4104.375
895.5524, 4014.099
896.0527, 3937.570
896.5530, 3846.259
897.0533, 3751.846
897.5536, 3669.938
898.0540, 3570.418
898.5543, 3462.281
899.0546, 3346.361
899.5549, 3253.353
900.0552, 3166.647
900.5555, 3093.492
901.0558, 3027.913
901.5562, 2956.709
902.0565, 2867.827
902.5568, 2768.999
903.0571, 2676.746
903.5574, 2606.927
904.0577, 2536.146
904.5580, 2457.429
905.0584, 2372.562
905.5587, 2304.720
906.0590, 2245.818
906.5593, 2184.017
907.0596, 2109.527
907.5599, 2035.576
908.0602, 1965.739
908.5606, 1910.833
909.0609, 1865.215
909.5612, 1821.875
910.0615, 1773.873
910.5618, 1721.348
911.0621, 1666.744
911.5624, 1617.910
912.0627, 1572.841
912.5631, 1517.019
913.0634, 1469.393
913.5637, 1413.913
914.0640, 1361.162
914.5643, 1296.210
915.0646, 1243.362
915.5649, 1198.346
916.0653, 1151.189
916.5656, 1106.163
917.0659, 1064.958
917.5662, 1031.535
918.0665, 997.3838
918.5668, 962.2817
919.0671, 945.2195
919.5675, 918.6128
920.0678, 900.7183
920.5681, 869.6907
921.0684, 847.8805
921.5687, 823.3195
922.0690, 797.1147
922.5693, 772.8385
923.0697, 749.8638
923.5700, 729.4062
924.0703, 712.3055
924.5706, 693.2231
925.0709, 667.2458
925.5712, 642.6467
926.0715, 627.3724
926.5719, 622.6134
927.0722, 615.2922
927.5725, 597.1583
928.0728, 576.2117
928.5731, 547.1868
929.0734, 523.0142
929.5737, 497.7721
930.0741, 480.1814
930.5744, 459.3849
931.0747, 435.8623
931.5750, 418.5638
932.0753, 407.4653
932.5756, 393.9174
933.0759, 372.5452
933.5763, 351.1038
934.0766, 338.7631
934.5769, 329.8167
935.0772, 315.6815
935.5775, 305.3645
936.0778, 300.3177
936.5781, 297.2001
937.0785, 289.1704
937.5788, 273.5284
938.0791, 263.4344
938.5794, 259.8770
939.0797, 260.0010
939.5800, 250.6256
940.0803, 233.5706
940.5807, 218.8689
941.0810, 204.3873
941.5813, 196.0171
942.0816, 188.8658
942.5819, 188.6935
943.0822, 188.1080
943.5825, 186.8934
944.0829, 185.6793
944.5832, 182.4099
945.0835, 179.7410
945.5838, 175.9895
946.0841, 168.9905
946.5844, 161.3976
947.0847, 150.4639
947.5851, 143.2311
948.0854, 135.8843
948.5857, 132.0084
949.0860, 123.7266
949.5863, 109.3822
950.0866, 93.57532
950.5869, 83.20911
951.0873, 72.99951
951.5876, 61.41016
952.0879, 46.39197
952.5882, 34.40503
953.0885, 20.30823
953.5888, 13.51245
954.0891, 9.041626
954.5895, 12.07349
955.0898, 11.07019
955.5901, 9.472412
956.0904, 0.6192630
956.5907, 11.06824
957.0910, 19.91553
957.5913, 20.78113
958.0917, 18.35229
958.5920, 18.93469
959.0923, 31.09766
959.5926, 40.56506
960.0929, 43.38013
960.5932, 35.52551
961.0935, 34.76819
961.5939, 40.61755
962.0942, 45.56641
962.5945, 44.22754
963.0948, 39.36035
963.5951, 37.41870
964.0954, 34.07214
964.5957, 30.78271
965.0961, 31.54541
965.5964, 33.71252
966.0967, 37.21753
966.5970, 33.12891
967.0973, 30.93323
967.5976, 27.76245
968.0979, 25.63513
968.5983, 23.95837
969.0986, 24.79346
969.5989, 24.49292
970.0992, 24.25781
970.5995, 22.61719
971.0998, 20.46118
971.6001, 13.19897
972.1005, 3.723022
972.6008, 3.053223
973.1011, 1.309937
973.6014, 0.6538090
974.1017, 2.486206
974.6020, 3.762939
975.1023, 1.034790
975.6027, 7.579224
976.1030, 13.77722
976.6033, 12.57983
977.1036, 6.829590
977.6039, 6.006714
978.1042, 6.135254
978.6045, 9.196411
979.1049, 9.488647
979.6052, 10.82483
980.1055, 9.185059
980.6058, 11.42896
981.1061, 13.53882
981.6064, 8.849365
982.1067, 5.253784
982.6071, 2.553345
983.1074, 7.414063
983.6077, 9.830688
984.1080, 11.15112
984.6083, 11.99524
985.1086, 13.43726
985.6089, 15.84692
986.1093, 14.74451
986.6096, 10.54565
987.1099, 6.968628
987.6102, 8.028442
988.1105, 7.087402
988.6108, 11.35254
989.1111, 13.04431
989.6115, 18.81897
990.1118, 20.94043
990.6121, 24.98364
991.1124, 23.46277
991.6127, 8.954712
992.1130, 4.488770
992.6133, 4.301392
993.1136, 7.508057
993.6140, 19.01587
994.1143, 26.31348
994.6146, 25.49609
995.1149, 27.53479
995.6152, 25.54626
996.1155, 29.43176
996.6158, 27.43457
997.1161, 23.38025
997.6165, 18.00000
998.1168, 22.76965
998.6171, 24.74048
999.1174, 33.21936
999.6177, 34.98340
1000.118, 44.87769
1000.618, 52.57092
1001.119, 54.10547
1001.619, 58.39417
1002.119, 59.68506
1002.620, 65.15637
1003.120, 63.95386
1003.620, 64.78650
1004.121, 68.65076
1004.621, 67.52808
1005.121, 67.46289
1005.621, 66.58093
1006.122, 73.38940
1006.622, 83.43335
1007.122, 95.29565
1007.623, 100.8142
1008.123, 96.52441
1008.623, 88.91699
1009.124, 83.55774
1009.624, 84.69922
1010.124, 88.60608
1010.625, 95.80249
1011.125, 98.11951
1011.625, 101.4790
1012.126, 99.83081
1012.626, 104.3914
1013.126, 102.4435
1013.626, 101.3093
1014.127, 99.17346
1014.627, 99.57532
1015.127, 101.4950
1015.628, 105.4231
1016.128, 105.4619
1016.628, 107.6667
1017.129, 107.8713
1017.629, 104.9351
1018.129, 101.2390
1018.630, 93.43665
1019.130, 93.12402
1019.630, 90.41272
1020.131, 85.51050
1020.631, 78.70203
1021.131, 76.74231
1021.632, 82.89526
1022.132, 83.08167
1022.632, 82.26648
1023.132, 76.10266
1023.633, 73.98669
1024.133, 71.67651
1024.633, 71.69275
1025.134, 69.26672
1025.634, 65.62695
1026.134, 61.18994
1026.635, 59.30432
1027.135, 55.87634
1027.635, 55.21436
1028.136, 57.78625
1028.636, 54.41724
1029.136, 44.21106
1029.636, 35.53870
1030.137, 34.57825
1030.637, 35.28955
1031.137, 37.25134
1031.638, 32.44360
1032.138, 32.43848
1032.638, 33.08801
1033.139, 39.90576
1033.639, 39.88477
1034.139, 35.14819
1034.640, 37.96277
1035.140, 36.31763
1035.640, 40.61816
1036.141, 37.68481
1036.641, 43.02026
1037.141, 46.94128
1037.642, 56.03027
1038.142, 63.72253
1038.642, 72.83960
1039.142, 76.26892
1039.643, 83.68958
1040.143, 87.11951
1040.643, 90.33765
1041.144, 91.08203
1041.644, 94.23840
1042.144, 101.6115
1042.645, 112.8329
1043.145, 119.5361
1043.645, 124.6669
1044.146, 128.7390
1044.646, 132.4205
1045.146, 137.7124
1045.647, 146.5649
1046.147, 154.3567
1046.647, 153.1381
1047.147, 145.6471
1047.648, 145.0601
1048.148, 151.7505
1048.648, 164.1554
1049.149, 171.8024
1049.649, 179.5063
1050.149, 185.5420
1050.650, 189.8789
1051.150, 185.9557
1051.650, 177.9784
1052.151, 174.6914
1052.651, 183.8082
1053.151, 193.7013
1053.652, 195.6373
1054.152, 191.1598
1054.652, 188.2196
1055.153, 185.1648
1055.653, 192.3737
1056.153, 198.1844
1056.653, 206.7610
1057.154, 209.1230
1057.654, 210.5903
1058.154, 207.8949
1058.655, 201.7615
1059.155, 205.7654
1059.655, 208.3505
1060.156, 213.2654
1060.656, 208.1873
1061.156, 208.7249
1061.657, 209.8116
1062.157, 221.0516
1062.657, 232.6370
1063.158, 241.7300
1063.658, 244.9884
1064.158, 248.4955
1064.658, 252.5951
1065.159, 254.9631
1065.659, 250.4874
1066.159, 252.3682
1066.660, 249.1388
1067.160, 254.1379
1067.660, 258.8191
1068.161, 270.9863
1068.661, 283.1865
1069.161, 291.9446
1069.662, 296.5229
1070.162, 294.2131
1070.662, 293.2961
1071.163, 297.6240
1071.663, 316.1351
1072.163, 337.5103
1072.664, 356.3855
1073.164, 370.5276
1073.664, 370.9259
1074.164, 366.5304
1074.665, 361.1826
1075.165, 368.0984
1075.665, 381.4446
1076.166, 388.2839
1076.666, 391.0442
1077.166, 395.3680
1077.667, 407.5762
1078.167, 416.0398
1078.667, 417.7537
1079.168, 418.2953
1079.668, 421.5586
1080.168, 431.0878
1080.669, 436.2185
1081.169, 442.6409
1081.669, 445.2848
1082.169, 447.4250
1082.670, 443.0964
1083.170, 440.1790
1083.670, 448.6125
1084.171, 469.1826
1084.671, 483.3368
1085.171, 489.7415
1085.672, 489.6873
1086.172, 493.5337
1086.672, 495.8889
1087.173, 490.4897
1087.673, 487.6913
1088.173, 484.2887
1088.674, 493.5028
1089.174, 500.4601
1089.674, 506.1390
1090.175, 503.1798
1090.675, 493.8103
1091.175, 492.2283
1091.675, 488.5447
1092.176, 484.3589
1092.676, 478.8079
1093.176, 479.0927
1093.677, 479.5082
1094.177, 476.3026
1094.677, 471.7244
1095.178, 465.4736
1095.678, 460.9019
1096.178, 455.4095
1096.679, 454.6492
1097.179, 450.4722
1097.679, 445.1931
1098.180, 443.3207
1098.680, 442.9279
1099.180, 443.5916
1099.680, 443.6234
1100.181, 446.4952
1100.681, 448.1780
1101.181, 439.9476
1101.682, 426.1204
1102.182, 415.9788
1102.682, 413.4780
1103.183, 410.2755
1103.683, 403.6592
1104.183, 398.9489
1104.684, 398.4922
1105.184, 401.5065
1105.684, 392.5317
1106.185, 386.3855
1106.685, 380.2864
1107.185, 381.7627
1107.686, 377.4783
1108.186, 370.5677
1108.686, 361.0034
1109.186, 357.4463
1109.687, 349.9076
1110.187, 341.6680
1110.687, 333.0308
1111.188, 324.5400
1111.688, 313.0431
1112.188, 298.7557
1112.689, 290.4395
1113.189, 300.7722
1113.689, 301.6378
1114.190, 297.9012
1114.690, 281.4849
1115.190, 270.0968
1115.691, 258.5160
1116.191, 240.0516
1116.691, 239.0890
1117.191, 239.3690
1117.692, 246.3141
1118.192, 236.2317
1118.692, 229.0918
1119.193, 230.7419
1119.693, 236.1957
1120.193, 234.2592
1120.694, 221.5720
1121.194, 207.6100
1121.694, 199.8239
1122.195, 196.1727
1122.695, 191.9406
1123.195, 191.5642
1123.696, 197.6097
1124.196, 199.3326
1124.696, 191.5023
1125.197, 175.7806
1125.697, 166.7631
1126.197, 163.5779
1126.697, 161.9188
1127.198, 160.0702
1127.698, 160.4742
1128.198, 159.0282
1128.699, 153.6364
1129.199, 149.2047
1129.699, 148.7056
1130.200, 145.6436
1130.700, 136.7311
1131.200, 133.6813
1131.701, 128.0474
1132.201, 124.4395
1132.701, 111.4402
1133.202, 105.4788
1133.702, 100.2323
1134.202, 98.14758
1134.702, 96.56335
1135.203, 95.25195
1135.703, 97.00098
1136.203, 101.7958
1136.704, 102.7651
1137.204, 96.74475
1137.704, 86.14185
1138.205, 80.41211
1138.705, 83.99463
1139.205, 78.93945
1139.706, 75.44409
1140.206, 69.45471
1140.706, 75.21631
1141.207, 80.70862
1141.707, 85.69946
1142.207, 84.90295
1142.708, 81.24097
1143.208, 73.03320
1143.708, 70.36292
1144.208, 68.33057
1144.709, 66.43457
1145.209, 59.55945
1145.709, 52.57227
1146.210, 57.22388
1146.710, 61.09741
1147.210, 65.17151
1147.711, 61.39819
1148.211, 59.64148
1148.711, 59.90710
1149.212, 60.95605
1149.712, 55.99438
1150.212, 46.42773
1150.713, 42.64136
1151.213, 41.89880
1151.713, 37.99146
1152.213, 34.10779
1152.714, 40.39990
1153.214, 45.40015
1153.714, 39.50293
1154.215, 30.94446
1154.715, 27.78662
1155.215, 25.79028
1155.716, 23.88770
1156.216, 24.11328
1156.716, 26.59473
1157.217, 24.61926
1157.717, 13.76440
1158.217, 11.08130
1158.718, 9.623169
1159.218, 19.15039
1159.718, 18.52173
1160.219, 17.02344
1160.719, 12.04321
1161.219, 8.615479
1161.719, 3.452881
1162.220, 0.7855220
1162.720, 1.343750
1163.220, 2.822266
1163.721, 2.913574
1164.221, 1.891357
1164.721, 3.264160
1165.222, 7.898071
1165.722, 15.00891
1166.222, 14.46313
1166.723, 12.23621
1167.223, 12.78442
1167.723, 16.82568
1168.224, 17.23792
1168.724, 14.37280
1169.224, 10.01880
1169.724, 6.695923
1170.225, 3.114136
1170.725, 7.017212
1171.225, 11.31909
1171.726, 15.22681
1172.226, 15.00488
1172.726, 14.66089
1173.227, 15.78125
1173.727, 19.13977
1174.227, 18.12268
1174.728, 11.75684
1175.228, 6.3721001E-02
1175.728, 6.663574
1176.229, 2.634644
1176.729, 4.255249
1177.229, 8.201538
1177.729, 7.114136
1178.230, 8.146973
1178.730, 11.15833
1179.230, 9.306641
1179.731, 6.010498
1180.231, 4.304932
1180.731, 1.947021
1181.232, 1.440796
1181.732, 2.862305
1182.232, 1.1719000E-02
1182.733, 1.884033
1183.233, 1.176758
1183.733, 8.156738
1184.234, 16.71936
1184.734, 20.34045
1185.234, 23.57239
1185.734, 22.26880
1186.235, 19.11426
1186.735, 13.57532
1187.235, 12.48132
1187.736, 17.62085
1188.236, 24.48962
1188.736, 25.92883
1189.237, 24.94556
1189.737, 26.12891
1190.237, 25.68677
1190.738, 28.51904
1191.238, 27.84607
1191.738, 34.67615
1192.239, 44.16711
1192.739, 52.01807
1193.239, 55.27722
1193.740, 59.92139
1194.240, 65.21362
1194.740, 74.40906
1195.240, 79.52441
1195.741, 80.59204
1196.241, 76.86584
1196.741, 75.69568
1197.242, 82.62573
1197.742, 90.28699
1198.242, 90.30237
1198.743, 89.81604
1199.243, 94.78198
1199.743, 105.5630
1200.244, 111.8523
1200.744, 111.7500
1201.244, 114.3469
1201.745, 118.1761
1202.245, 123.5726
1202.745, 125.7146
1203.245, 127.5969
1203.746, 132.9376
1204.246, 141.0737
1204.746, 147.6045
1205.247, 153.0436
1205.747, 152.9303
1206.247, 154.4154
1206.748, 154.1041
1207.248, 160.3663
1207.748, 168.3562
1208.249, 169.3180
1208.749, 172.8153
1209.249, 174.5004
1209.750, 179.5652
1210.250, 176.0529
1210.750, 174.3182
1211.250, 179.6777
1211.751, 192.3329
1212.251, 206.1920
1212.751, 204.5513
1213.252, 205.1913
1213.752, 202.6376
1214.252, 210.2041
1214.753, 208.4034
1215.253, 206.3522
1215.753, 205.8921
1216.254, 208.1194
1216.754, 213.9507
1217.254, 219.0767
1217.755, 221.4728
1218.255, 229.0896
1218.755, 237.5441
1219.255, 241.4366
1219.756, 232.3738
1220.256, 234.8632
1220.756, 243.5237
1221.257, 253.3134
1221.757, 245.7402
1222.257, 234.1689
1222.758, 225.9105
1223.258, 214.8197
1223.758, 220.1918
1224.259, 218.7864
1224.759, 222.9219
1225.259, 218.3074
1225.760, 223.8551
1226.260, 230.0452
1226.760, 231.8872
1227.260, 227.4149
1227.761, 217.0648
1228.261, 216.2366
1228.761, 216.8397
1229.262, 223.9231
1229.762, 223.0430
1230.262, 222.2637
1230.763, 217.4443
1231.263, 206.2714
1231.763, 208.2285
1232.264, 208.6849
1232.764, 211.7344
1233.264, 204.0160
1233.765, 200.2478
1234.265, 200.1183
1234.765, 193.8390
1235.266, 195.5211
1235.766, 190.6486
1236.266, 188.4928
1236.766, 182.6123
1237.267, 183.6122
1237.767, 186.5684
1238.267, 179.8357
1238.768, 173.4116
1239.268, 161.3669
1239.768, 156.0089
1240.269, 144.8723
1240.769, 143.7802
1241.269, 149.5994
1241.770, 153.9663
1242.270, 160.0883
1242.770, 160.2081
1243.271, 157.5645
1243.771, 153.7133
1244.271, 149.1676
1244.771, 144.6499
1245.272, 135.6378
1245.772, 132.8879
1246.272, 132.9655
1246.773, 130.9248
1247.273, 126.2559
1247.773, 120.0247
1248.274, 119.5544
1248.774, 120.3915
1249.274, 116.7362
1249.775, 120.5267
1250.275, 110.8687
1250.775, 112.0320
1251.276, 102.9203
1251.776, 109.0118
1252.276, 113.0918
1252.776, 107.6749
1253.277, 94.42346
1253.777, 84.99451
1254.277, 89.06799
1254.778, 92.44312
1255.278, 92.68408
1255.778, 96.06274
1256.279, 102.5035
1256.779, 96.62415
1257.279, 83.16187
1257.780, 73.18176
1258.280, 74.88489
1258.780, 81.88232
1259.281, 79.84204
1259.781, 74.23730
1260.281, 67.86023
1260.781, 70.04980
1261.282, 64.29016
1261.782, 58.90735
1262.282, 48.87537
1262.783, 59.34558
1263.283, 61.45667
1263.783, 64.44922
1264.284, 62.79395
1264.784, 58.66797
1265.284, 59.92749
1265.785, 59.83374
1266.285, 61.75549
1266.785, 58.20703
1267.286, 50.31323
1267.786, 44.88135
1268.286, 39.39661
1268.787, 32.08691
1269.287, 24.81946
1269.787, 16.30420
1270.287, 17.37537
1270.788, 24.33374
1271.288, 30.10681
1271.788, 27.69653
1272.289, 23.69800
1272.789, 20.93530
1273.289, 22.20532
1273.790, 23.25049
1274.290, 22.43579
1274.790, 16.54211
1275.291, 12.88965
1275.791, 16.02356
1276.291, 16.81384
1276.792, 13.77075
1277.292, 13.50244
1277.792, 12.79980
1278.292, 9.953369
1278.793, 0.1431880
1279.293, 1.906982
1279.793, 1.964722
1280.294, 0.2648930
1280.794, 10.46582
1281.294, 7.965210
1281.795, 4.058960
1282.295, 9.577026
1282.795, 10.45923
1283.296, 5.987427
1283.796, 0.7016600
1284.296, 0.7556150
1284.797, 1.770264
1285.297, 0.3516850
1285.797, 1.805786
1286.298, 8.376221
1286.798, 23.39429
1287.298, 30.60803
1287.798, 28.94775
1288.299, 26.54175
1288.799, 25.35034
1289.299, 23.73279
1289.800, 28.70947
1290.300, 32.00635
1290.800, 28.94006
1291.301, 17.45483
1291.801, 8.886963
1292.301, 6.606445
1292.802, 11.25916
1293.302, 14.68713
1293.802, 13.09460
1294.303, 2.615234
1294.803, 2.894653
1295.303, 1.937988
1295.803, 0.4736330
1296.304, 3.101440
1296.804, 2.961060
1297.304, 2.637939
1297.805, 1.368896
1298.305, 2.601563
1298.805, 10.86487
1299.306, 10.88525
1299.806, 1.942261
1300.306, 3.098022
1300.807, 5.848145
1301.307, 6.833008
1301.807, 24.87378
1302.308, 32.03992
1302.808, 36.60535
1303.308, 31.91602
1303.809, 34.68701
1304.309, 35.14453
1304.809, 27.10339
1305.309, 21.44763
1305.810, 22.79321
1306.310, 28.19458
1306.810, 24.96118
1307.311, 25.07837
1307.811, 32.37463
1308.311, 42.68176
1308.812, 50.23877
1309.312, 56.42761
1309.812, 59.40771
1310.313, 61.61353
1310.813, 62.83948
1311.313, 72.21362
1311.814, 77.54651
1312.314, 78.35864
1312.814, 81.27612
1313.314, 85.43970
1313.815, 89.29260
1314.315, 95.90503
1314.815, 100.5509
1315.316, 113.0315
1315.816, 114.6726
1316.316, 113.3256
1316.817, 116.8351
1317.317, 127.4956
1317.817, 136.7020
1318.318, 136.1005
1318.818, 136.0776
1319.318, 147.0962
1319.819, 162.5577
1320.319, 172.5737
1320.819, 172.5299
1321.320, 173.6666
1321.820, 173.7734
1322.320, 182.4357
1322.820, 186.3717
1323.321, 196.0671
1323.821, 200.7874
1324.321, 201.6040
1324.822, 202.8567
1325.322, 212.2311
1325.822, 227.1464
1326.323, 233.3644
1326.823, 241.9753
1327.323, 248.5596
1327.824, 255.2206
1328.324, 251.5959
1328.824, 251.3472
1329.325, 260.4846
1329.825, 266.7184
1330.325, 281.7394
1330.825, 289.2357
1331.326, 296.1223
1331.826, 289.7714
1332.326, 287.3638
1332.827, 290.6249
1333.327, 293.0703
1333.827, 293.1592
1334.328, 296.6809
1334.828, 302.1449
1335.328, 308.7617
1335.829, 313.1442
1336.329, 316.4724
1336.829, 320.9445
1337.330, 321.8260
1337.830, 316.7758
1338.330, 317.5560
1338.831, 321.4518
1339.331, 335.4065
1339.831, 335.8245
1340.331, 332.8418
1340.832, 323.6859
1341.332, 323.2140
1341.832, 328.1329
1342.333, 327.8477
1342.833, 327.7734
1343.333, 330.4613
1343.834, 334.1482
1344.334, 325.0061
1344.834, 315.7012
1345.335, 317.9147
1345.835, 331.2388
1346.335, 337.8669
1346.836, 325.5870
1347.336, 320.7975
1347.836, 317.0863
1348.336, 329.8878
1348.837, 328.1896
1349.337, 326.4852
1349.837, 324.1847
1350.338, 327.0411
1350.838, 327.1602
1351.338, 322.1638
1351.839, 318.2080
1352.339, 333.9551
1352.839, 342.4602
1353.340, 345.5308
1353.840, 332.1581
1354.340, 329.8707
1354.841, 334.4254
1355.341, 339.2522
1355.841, 348.0356
1356.342, 342.6982
1356.842, 342.8184
1357.342, 337.0397
1357.842, 340.3640
1358.343, 341.8357
1358.843, 348.0668
1359.343, 353.0114
1359.844, 353.7042
1360.344, 348.4247
1360.844, 356.9496
1361.345, 360.2000
1361.845, 358.5961
1362.345, 350.0378
1362.846, 350.6263
1363.346, 356.3591
1363.846, 358.7479
1364.347, 361.9880
1364.847, 362.6162
1365.347, 365.3130
1365.847, 359.9460
1366.348, 346.8702
1366.848, 335.5409
1367.348, 333.0052
1367.849, 338.8312
1368.349, 343.2623
1368.849, 344.1570
1369.350, 334.3291
1369.850, 340.5521
1370.350, 343.9229
1370.851, 360.0957
1371.351, 359.0569
1371.851, 357.5359
1372.352, 356.3251
1372.852, 357.1583
1373.352, 356.9026
1373.853, 365.4552
1374.353, 368.6818
1374.853, 368.3684
1375.353, 365.1906
1375.854, 369.1978
1376.354, 378.5496
1376.854, 379.0068
1377.355, 366.7261
1377.855, 360.9608
1378.355, 353.0084
1378.856, 360.6246
1379.356, 361.4354
1379.856, 371.7540
1380.357, 374.1285
1380.857, 375.9474
1381.357, 379.3906
1381.858, 384.3867
1382.358, 384.4208
1382.858, 381.4010
1383.358, 372.0848
1383.859, 375.4391
1384.359, 371.9170
1384.859, 370.0175
1385.360, 365.5918
1385.860, 369.5790
1386.360, 375.3528
1386.861, 378.3818
1387.361, 386.4740
1387.861, 391.6394
1388.362, 393.7190
1388.862, 389.5665
1389.362, 388.9971
1389.863, 388.8368
1390.363, 388.9594
1390.863, 390.0676
1391.364, 388.7854
1391.864, 378.4681
1392.364, 373.0533
1392.864, 375.3340
1393.365, 383.0428
1393.865, 386.8907
1394.365, 388.8182
1394.866, 390.7885
1395.366, 388.3923
1395.866, 379.8152
1396.367, 372.8260
1396.867, 369.0223
1397.367, 376.0299
1397.868, 383.8356
1398.368, 383.6272
1398.868, 372.4365
1399.369, 362.1793
1399.869, 360.6880
1400.369, 368.4457
1400.869, 365.2343
1401.370, 357.9639
1401.870, 351.5868
1402.370, 345.5342
1402.871, 335.7822
1403.371, 324.1746
1403.871, 327.7097
1404.372, 340.3832
1404.872, 350.0597
1405.372, 345.6788
1405.873, 341.2535
1406.373, 335.0994
1406.873, 334.8042
1407.374, 331.4767
1407.874, 332.1025
1408.374, 336.1312
1408.875, 337.8829
1409.375, 330.2958
1409.875, 314.4056
1410.375, 314.2887
1410.876, 321.6814
1411.376, 326.9648
1411.876, 320.9305
1412.377, 314.6871
1412.877, 314.4011
1413.377, 315.7349
1413.878, 320.0457
1414.378, 315.8784
1414.878, 306.3470
1415.379, 295.1398
1415.879, 293.2797
1416.379, 298.3995
1416.880, 297.7094
1417.380, 294.3556
1417.880, 292.0103
1418.380, 298.6814
1418.881, 303.4720
1419.381, 293.4569
1419.881, 289.0175
1420.382, 290.8822
1420.882, 296.3651
1421.382, 289.4933
1421.883, 281.0481
1422.383, 276.8898
1422.883, 272.8994
1423.384, 269.1110
1423.884, 259.5001
1424.384, 251.2795
1424.885, 244.0250
1425.385, 251.0876
1425.885, 258.9377
1426.385, 261.7188
1426.886, 252.7920
1427.386, 242.8127
1427.886, 240.4578
1428.387, 239.1420
1428.887, 237.0263
1429.387, 234.2550
1429.888, 233.4984
1430.388, 229.8153
1430.888, 217.9642
1431.389, 207.4232
1431.889, 202.4003
1432.389, 206.4873
1432.890, 213.9236
1433.390, 210.0201
1433.890, 197.9573
1434.391, 183.4442
1434.891, 182.4510
1435.391, 184.6379
1435.891, 182.0811
1436.392, 177.4954
1436.892, 173.1581
1437.392, 167.2838
1437.893, 160.6799
1438.393, 153.7664
1438.893, 155.4581
1439.394, 153.8319
1439.894, 150.2328
1440.394, 140.8204
1440.895, 131.0103
1441.395, 123.9062
1441.895, 119.9615
1442.396, 119.1012
1442.896, 121.4938
1443.396, 117.6097
1443.896, 120.1762
1444.397, 114.5234
1444.897, 112.3452
1445.397, 102.9576
1445.898, 94.99078
1446.398, 86.16431
1446.898, 76.25854
1447.399, 71.36914
1447.899, 72.57001
1448.399, 74.09576
1448.900, 73.12213
1449.400, 73.35754
1449.900, 66.16077
1450.401, 66.48224
1450.901, 64.33929
1451.401, 63.99353
1451.901, 56.95850
1452.402, 53.37280
1452.902, 51.05634
1453.402, 48.68683
1453.903, 45.91626
1454.403, 44.54095
1454.903, 41.30939
1455.404, 31.56006
1455.904, 28.68921
1456.404, 32.97980
1456.905, 39.40381
1457.405, 40.36676
1457.905, 41.00140
1458.406, 42.92981
1458.906, 37.04523
1459.406, 24.48114
1459.906, 12.53625
1460.407, 13.40668
1460.907, 14.73578
1461.407, 15.88428
1461.908, 16.40216
1462.408, 14.61395
1462.908, 6.503113
1463.409, 2.263123
1463.909, 7.123718
1464.409, 3.574585
1464.910, 3.338928
1465.410, 4.634399
1465.910, 0.6688840
1466.411, 5.457153
1466.911, 8.289063
1467.411, 4.195740
1467.911, 1.485291
1468.412, 2.049561
1468.912, 1.732422
1469.412, 3.090576
1469.913, 8.431641
1470.413, 11.62573
1470.913, 13.72650
1471.414, 13.01929
1471.914, 13.01886
1472.414, 10.65326
1472.915, 8.175720
1473.415, 9.254028
1473.915, 11.92737
1474.416, 13.11630
1474.916, 11.48178
1475.416, 12.72791
1475.917, 14.40750
1476.417, 16.04883
1476.917, 11.90854
1477.417, 7.949219
1477.918, 7.119690
1478.418, 9.300873
1478.918, 14.40460
1479.419, 10.03372
1479.919, 6.641968
1480.419, 1.120392
1480.920, 5.089844
1481.420, 8.972656
1481.920, 11.48477
1482.421, 10.74106
1482.921, 9.608704
1483.421, 9.811707
1483.922, 9.660767
1484.422, 6.660095
1484.922, 6.458099
1485.422, 5.043365
1485.923, 10.81390
1486.423, 13.81369
1486.923, 14.64011
1487.424, 8.816376
1487.924, 2.970367
1488.424, 2.184784
1488.925, 3.957489
1489.425, 5.309937
1489.925, 3.147369
1490.426, 1.918396
1490.926, 4.833618
1491.426, 3.743164
1491.927, 3.299194
1492.427, 0.3597110
1492.927, 1.221710
1493.427, 2.9877000E-02
1493.928, 3.495544
1494.428, 5.118011
1494.928, 11.59805
1495.429, 11.92542
1495.929, 13.11423
1496.429, 10.97873
1496.930, 13.43298
1497.430, 16.48306
1497.930, 14.72739
1498.431, 11.08011
1498.931, 9.475861
1499.431, 9.203796
1499.932, 12.15091
1500.432, 12.89166
1500.932, 15.63635
1501.432, 18.01129
1501.933, 20.47009
1502.433, 21.97821
1502.933, 18.59113
1503.434, 16.67084
1503.934, 18.21671
1504.434, 23.24442
1504.935, 27.67630
1505.435, 28.40521
1505.935, 25.85477
1506.436, 24.66971
1506.936, 28.33704
1507.436, 32.83188
1507.937, 32.83115
1508.437, 29.44861
1508.937, 29.62897
1509.438, 31.97913
1509.938, 32.07175
1510.438, 32.83899
1510.938, 32.47202
1511.439, 31.22311
1511.939, 30.43536
1512.439, 34.47006
1512.940, 40.51068
1513.440, 42.72418
1513.940, 40.65152
1514.441, 37.27737
1514.941, 33.53413
1515.441, 32.06970
1515.942, 35.90173
1516.442, 40.55475
1516.942, 41.69878
1517.443, 46.95366
1517.943, 48.71617
1518.443, 55.90799
1518.943, 55.53308
1519.444, 58.02921
1519.944, 55.78127
1520.444, 52.57887
1520.945, 51.72986
1521.445, 51.16513
1521.945, 51.88892
1522.446, 53.22256
1522.946, 49.19205
1523.446, 50.27261
1523.947, 46.36763
1524.447, 49.63239
1524.947, 48.59898
1525.448, 51.72372
1525.948, 55.06158
1526.448, 56.63025
1526.948, 57.89465
1527.449, 56.38461
1527.949, 59.82419
1528.449, 57.03239
1528.950, 57.88661
1529.450, 58.82916
1529.950, 63.00398
1530.451, 65.62450
1530.951, 65.08780
1531.451, 66.55585
1531.952, 67.73383
1532.452, 66.21190
1532.952, 61.89468
1533.453, 60.21049
1533.953, 60.64661
1534.453, 60.82469
1534.953, 60.80663
1535.454, 59.09845
1535.954, 60.56500
1536.454, 60.24815
1536.955, 57.26134
1537.455, 52.02718
1537.955, 49.71719
1538.456, 51.73077
1538.956, 51.91953
1539.456, 53.50575
1539.957, 50.11771
1540.457, 55.30531
1540.957, 54.24184
1541.458, 53.61990
1541.958, 49.29518
1542.458, 46.92326
1542.959, 47.52567
1543.459, 46.85468
1543.959, 45.83157
1544.459, 48.99913
1544.960, 51.61125
1545.460, 51.52094
1545.960, 47.61922
1546.461, 43.83647
1546.961, 41.79124
1547.461, 43.14348
1547.962, 46.62123
1548.462, 52.96484
1548.962, 55.53082
1549.463, 53.90683
1549.963, 49.27690
1550.463, 43.55515
1550.964, 41.46028
1551.464, 41.59962
1551.964, 44.31392
1552.464, 45.71040
1552.965, 48.74898
1553.465, 49.14481
1553.965, 48.94064
1554.466, 44.87555
1554.966, 43.84003
1555.466, 46.48387
1555.967, 47.22661
1556.467, 44.61618
1556.967, 36.06018
1557.468, 37.89449
1557.968, 36.12592
1558.468, 40.16185
1558.969, 37.71835
1559.469, 38.21762
1559.969, 35.09866
1560.470, 33.27132
1560.970, 35.68666
1561.470, 38.31448
1561.970, 37.89636
1562.471, 38.71608
1562.971, 40.46281
1563.471, 40.89088
1563.972, 38.50465
1564.472, 40.61314
1564.972, 42.32555
1565.473, 41.64749
1565.973, 37.22495
1566.473, 37.44464
1566.974, 40.40054
1567.474, 43.81004
1567.974, 46.82829
1568.475, 45.13475
1568.975, 42.06343
1569.475, 39.86658
1569.975, 44.41824
1570.476, 46.25945
1570.976, 42.92850
1571.476, 38.50754
1571.977, 37.00230
1572.477, 38.61943
1572.977, 38.84744
1573.478, 38.73450
1573.978, 39.95518
1574.478, 43.17584
1574.979, 45.22194
1575.479, 39.57516
1575.979, 38.62390
1576.480, 34.19237
1576.980, 39.04021
1577.480, 33.19753
1577.981, 32.43379
1578.481, 31.55397
1578.981, 35.52924
1579.481, 38.15857
1579.982, 37.71062
1580.482, 37.75421
1580.982, 38.29317
1581.483, 31.35211
1581.983, 28.86313
1582.483, 23.00308
1582.984, 26.43254
1583.484, 27.24232
1583.984, 31.08627
1584.485, 33.51073
1584.985, 30.45856
1585.485, 29.80472
1585.986, 32.24231
1586.486, 34.63022
1586.986, 35.62454
1587.486, 33.27600
1587.987, 31.68576
1588.487, 25.56393
1588.987, 22.29413
1589.488, 21.29276
1589.988, 24.86885
1590.488, 26.82448
1590.989, 28.60214
1591.489, 30.81619
1591.989, 30.68880
1592.490, 28.72297
1592.990, 26.49562
1593.490, 21.65462
1593.991, 18.42007
1594.491, 18.58647
1594.991, 22.36585
1595.492, 24.92109
1595.992, 23.03962
1596.492, 23.19161
1596.992, 19.92146
1597.493, 17.03039
1597.993, 15.24648
1598.493, 18.23222
1598.994, 21.95090
1599.494, 25.03009
1599.994, 26.89910
1600.495, 29.09305
1600.995, 25.03649
1601.495, 23.75590
1601.996, 21.90001
1602.496, 23.44100
1602.996, 23.71932
1603.497, 23.87769
1603.997, 23.04035
1604.497, 19.31158
1604.997, 15.27811
1605.498, 12.26539
1605.998, 8.723717
1606.498, 7.873558
1606.999, 14.14240
1607.499, 19.49308
1607.999, 23.36421
1608.500, 17.60217
1609.000, 18.53117
1609.500, 16.45153
1610.001, 18.14758
1610.501, 16.63489
1611.001, 17.26287
1611.502, 16.68903
1612.002, 17.46854
1612.502, 20.58751
1613.003, 22.23029
1613.503, 22.99297
1614.003, 20.53992
1614.503, 20.83627
1615.004, 18.57883
1615.504, 19.74252
1616.004, 19.78552
1616.505, 21.33600
1617.005, 19.18122
1617.505, 17.86279
1618.006, 16.32961
1618.506, 13.81683
1619.006, 11.93803
1619.507, 12.82898
1620.007, 14.22996
1620.507, 17.07543
1621.008, 15.98336
1621.508, 17.16178
1622.008, 13.83068
1622.508, 9.708984
1623.009, 6.519691
1623.509, 7.182526
1624.009, 12.41498
1624.510, 13.87630
1625.010, 12.11261
1625.510, 9.651527
1626.011, 9.780968
1626.511, 11.92625
1627.011, 13.64932
1627.512, 11.68859
1628.012, 10.12824
1628.512, 8.456955
1629.013, 6.888618
1629.513, 2.539574
1630.013, 2.016472
1630.514, 6.639648
1631.014, 13.35655
1631.514, 14.99257
1632.014, 13.89667
1632.515, 12.00423
1633.015, 9.486710
1633.515, 7.103516
1634.016, 7.466652
1634.516, 9.760201
1635.016, 14.00208
1635.517, 14.41445
1636.017, 14.95779
1636.517, 14.05195
1637.018, 15.61117
1637.518, 15.07170
1638.018, 12.89407
1638.519, 10.51269
1639.019, 10.94177
1639.519, 13.08958
1640.019, 13.45325
1640.520, 11.24915
1641.020, 9.333427
1641.520, 9.799828
1642.021, 13.01038
1642.521, 10.67532
1643.021, 11.04736
1643.522, 7.835960
1644.022, 12.44004
1644.522, 10.87119
1645.023, 8.726181
1645.523, 4.969032
1646.023, 4.874603
1646.524, 6.586563
1647.024, 7.110664
1647.524, 7.992874
1648.025, 10.12669
1648.525, 11.94167
1649.025, 10.34597
1649.525, 9.653923
1650.026, 8.386269
1650.526, 9.012459
1651.026, 5.576660
1651.527, 5.386223
1652.027, 5.797226
1652.527, 7.186592
1653.028, 6.771622
1653.528, 5.530334
1654.028, 5.756882
1654.529, 5.205872
1655.029, 3.174316
1655.529, 1.041260
1656.030, 0.6907650
1656.530, 2.712639
1657.030, 7.028671
1657.530, 8.765976
1658.031, 4.707336
1658.531, 5.899635
1659.031, 9.827667
1659.532, 14.68813
1660.032, 10.15816
1660.532, 4.718346
1661.033, 1.114250
1661.533, 2.234535
1662.033, 4.533348
1662.534, 4.983002
1663.034, 4.455536
1663.534, 2.742851
1664.035, 2.412766
1664.535, 5.9836999E-02
1665.035, 3.718491
1665.536, 4.341530
1666.036, 8.511452
1666.536, 4.288177
1667.036, 4.999458
1667.537, 2.731407
1668.037, 3.710701
1668.537, 3.500229
1669.038, 4.173439
1669.538, 3.637352
1670.038, 2.665756
1670.539, 4.829887
1671.039, 9.249630
1671.539, 12.63405
1672.040, 13.16984
1672.540, 8.310097
1673.040, 8.920551
1673.541, 3.907082
1674.041, 2.177540
1674.541, 2.008282
1675.041, 1.529884
1675.542, 3.965519
1676.042, 3.354725
1676.542, 2.517582
1677.043, 4.129848
1677.543, 4.326565
1678.043, 1.457104
1678.544, 0.4036520
1679.044, 0.9411660
1679.544, 2.502533
1680.045, 2.092815
1680.545, 0.1261750
1681.045, 0.3577580
1681.546, 2.658588
1682.046, 0.9410250
1682.546, 1.535786
1683.047, 2.855400
1683.547, 5.066582
1684.047, 5.795849
1684.547, 3.460285
1685.048, 0.2226300
1685.548, 0.1502080
1686.048, 2.700836
1686.549, 4.291164
1687.049, 3.049721
1687.549, 0.2189520
1688.050, 3.7597999E-02
1688.550, 2.140129
1689.050, 0.8106800
1689.551, 2.931454
1690.051, 3.312145
1690.551, 1.324146
1691.052, 0.2003630
1691.552, 2.709110
1692.052, 2.793514
1692.552, 1.572582
1693.053, 0.6602360
1693.553, 1.163151
1694.053, 2.312786
1694.554, 4.251266
1695.054, 3.737595
1695.554, 3.056366
1696.055, 1.669975
1696.555, 2.025791
1697.055, 3.196545
1697.556, 3.665760
1698.056, 2.748547
1698.556, 1.073208
1699.057, 1.051064
1699.557, 2.746853
1700.057, 2.270603
1700.557, 0.3676990
1701.058, 1.928879
1701.558, 0.9794880
1702.058, 0.6774750
1702.559, 0.2688220
1703.059, 0.9188160
1703.559, 1.935921
1704.060, 0.7565730
1704.560, 0.1454930
1705.060, 1.678173
1705.561, 3.028843
1706.061, 5.271049
1706.561, 5.303471
1707.062, 4.569366
1707.562, 2.567707
1708.062, 2.852749
1708.562, 4.062290
1709.063, 5.967804
1709.563, 5.794472
1710.063, 4.441620
1710.564, 3.876324
1711.064, 3.656963
1711.564, 3.250629
1712.065, 4.323288
1712.565, 2.462242
1713.065, 0.8295290
1713.566, 2.495480
1714.066, 0.1856230
1714.566, 2.626095
1715.067, 3.185497
1715.567, 1.776531
1716.067, 1.156788
1716.568, 2.311390
1717.068, 4.358818
1717.568, 6.558861
1718.068, 9.200550
1718.569, 8.158325
1719.069, 3.956482
1719.569, 1.134220
1720.070, 0.7434350
1720.570, 1.154583
1721.070, 2.008698
1721.571, 0.2000240
1722.071, 0.2467460
1722.571, 2.289555
1723.072, 4.366535
1723.572, 3.652702
1724.072, 2.853157
1724.573, 4.031677
1725.073, 6.561291
1725.573, 8.935486
1726.073, 9.932026
1726.574, 9.077332
1727.074, 6.133072
1727.574, 1.873066
1728.075, 1.658768
1728.575, 2.210308
1729.075, 5.289921
1729.576, 3.905815
1730.076, 2.931320
1730.576, 5.307095
1731.077, 11.80222
1731.577, 17.42658
1732.077, 16.16792
1732.578, 13.15242
1733.078, 9.774593
1733.578, 12.57647
1734.078, 8.419449
1734.579, 8.529404
1735.079, 7.771645
1735.579, 13.75635
1736.080, 13.10904
1736.580, 9.512856
1737.080, 5.762638
1737.581, 5.476593
1738.081, 7.678928
1738.581, 9.309406
1739.082, 10.33029
1739.582, 9.032871
1740.082, 9.314342
1740.583, 8.316875
1741.083, 9.971661
1741.583, 9.612816
1742.083, 12.80433
1742.584, 12.54762
1743.084, 11.98967
1743.584, 9.518681
1744.085, 7.618523
1744.585, 6.377026
1745.085, 6.051437
1745.586, 8.675343
1746.086, 11.90791
1746.586, 10.72681
1747.087, 8.490723
1747.587, 6.673733
1748.087, 9.590702
1748.588, 11.92220
1749.088, 11.11791
1749.588, 10.78567
1750.089, 9.745113
1750.589, 8.181072
1751.089, 3.886253
1751.589, 0.6166040
1752.090, 3.410835
1752.590, 7.570610
1753.090, 7.827251
1753.591, 8.526222
1754.091, 8.020817
1754.591, 12.72086
1755.092, 7.789944
1755.592, 4.564949
1756.092, 0.8486980
1756.593, 3.077713
1757.093, 3.716099
1757.593, 6.181103
1758.094, 7.801838
1758.594, 8.481884
1759.094, 6.583473
1759.594, 5.710663
1760.095, 5.364910
1760.595, 6.637623
1761.095, 8.725395
1761.596, 6.996593
1762.096, 4.388031
1762.596, 0.1096950
1763.097, 1.384216
1763.597, 0.8695340
1764.097, 0.8031350
1764.598, 2.520260
1765.098, 3.455635
1765.598, 5.035439
1766.099, 5.586475
1766.599, 8.740582
1767.099, 10.61600
1767.599, 8.258381
1768.100, 5.390617
1768.600, 3.629154
1769.100, 5.631264
1769.601, 3.062950
1770.101, 1.932285
1770.601, 2.763531
1771.102, 4.143967
1771.602, 8.257214
1772.102, 6.552437
1772.603, 4.421455
1773.103, 0.7402840
1773.603, 0.2469860
1774.104, 1.959564
1774.604, 1.534599
1775.104, 0.1276890
1775.604, 0.8455510
1776.105, 1.657516
1776.605, 2.423550
1777.105, 3.321003
1777.606, 8.664948
1778.106, 10.55609
1778.606, 8.409557
1779.107, 6.981438
1779.607, 3.316902
1780.107, 4.784325
1780.608, 5.513653
1781.108, 7.419811
1781.608, 4.890221
1782.109, 1.417709
1782.609, 1.004696
1783.109, 3.569504
1783.609, 7.550117
1784.110, 7.893497
1784.610, 5.554470
1785.110, 6.211384
1785.611, 7.166294
1786.111, 8.373257
1786.611, 4.367996
1787.112, 3.247993
1787.612, 3.694698
1788.112, 3.249470
1788.613, 5.185997
1789.113, 6.161583
1789.613, 6.322495
1790.114, 4.367908
1790.614, 4.672039
1791.114, 7.628807
1791.615, 9.824448
1792.115, 8.400505
1792.615, 3.794849
1793.115, 0.5988540
1793.616, 1.910107
1794.116, 2.004364
1794.616, 5.131409
1795.117, 4.309086
1795.617, 9.142086
1796.117, 6.672859
1796.618, 7.652393
1797.118, 5.905197
1797.618, 6.530766
1798.119, 5.330654
1798.619, 3.669575
1799.119, 3.456799
1799.620, 4.384274
1800.120, 5.729874
1800.620, 6.860867
1801.120, 4.803024
1801.621, 4.686199
1802.121, 4.320812
1802.621, 7.963852
1803.122, 7.645073
1803.622, 7.385044
1804.122, 3.892231
1804.623, 2.145496
1805.123, 0.6297450
1805.623, 0.3819580
1806.124, 2.777573
1806.624, 3.708481
1807.124, 5.030930
1807.625, 7.712753
1808.125, 10.97327
1808.625, 12.27572
1809.125, 11.58715
1809.626, 9.239674
1810.126, 5.235451
1810.626, 1.451500
1811.127, 3.702984
1811.627, 9.215210
1812.127, 9.207184
1812.628, 7.469326
1813.128, 4.904232
1813.628, 6.467918
1814.129, 4.765457
1814.629, 6.601913
1815.129, 7.216564
1815.630, 8.005310
1816.130, 7.021282
1816.630, 5.606472
1817.131, 5.575329
1817.631, 6.302948
1818.131, 6.226170
1818.631, 5.242790
1819.132, 2.522884
1819.632, 2.722633
1820.132, 3.387562
1820.633, 3.057262
1821.133, 2.646740
1821.633, 2.259659
1822.134, 4.629131
1822.634, 6.397709
1823.134, 8.153629
1823.635, 8.085930
1824.135, 6.536701
1824.635, 5.307281
1825.136, 5.435261
1825.636, 5.956181
1826.136, 5.359190
1826.636, 4.341883
1827.137, 2.771591
1827.637, 1.022858
1828.137, 5.6719001E-02
1828.638, 1.372675
1829.138, 0.4980050
1829.638, 7.5750001E-02
1830.139, 1.494064
1830.639, 2.854921
1831.139, 2.278358
1831.640, 1.225611
1832.140, 0.6652240
1832.640, 2.286617
1833.141, 6.917652
1833.641, 10.60171
1834.141, 10.42923
1834.642, 7.992964
1835.142, 4.918377
1835.642, 1.146683
1836.142, 2.230764
1836.643, 5.892265
1837.143, 9.517828
1837.643, 4.750095
1838.144, 2.879639
1838.644, 3.355829
1839.144, 10.14186
1839.645, 10.91477
1840.145, 10.36510
1840.645, 8.594379
1841.146, 10.76461
1841.646, 9.533581
1842.146, 6.935776
1842.647, 1.288589
1843.147, 0.3463290
1843.647, 1.204817
1844.147, 3.869064
1844.648, 7.885080
1845.148, 9.702047
1845.648, 9.395363
1846.149, 1.007452
1846.649, 2.288662
1847.149, 4.788074
1847.650, 3.638353
1848.150, 8.709835
1848.650, 10.90122
1849.151, 6.565363
1849.651, 0.2519020
1850.151, 2.946207
1850.652, 8.965847
1851.152, 11.17189
1851.652, 6.246784
1852.153, 1.725618
1852.653, 2.345449
1853.153, 4.770567
1853.653, 5.046503
1854.154, 4.247217
1854.654, 5.322113
1855.154, 6.306995
1855.655, 6.627771
1856.155, 7.322956
1856.655, 7.013962
1857.156, 7.352400
1857.656, 7.005243
1858.156, 9.016893
1858.657, 10.26932
1859.157, 8.491776
1859.657, 8.999817
1860.158, 9.120903
1860.658, 10.56875
1861.158, 7.683184
1861.658, 7.012173
1862.159, 7.718370
1862.659, 9.315119
1863.159, 10.01317
1863.660, 10.02573
1864.160, 9.191246
1864.660, 6.548672
1865.161, 5.706966
1865.661, 4.250591
1866.161, 3.567686
1866.662, 5.731802
1867.162, 5.628677
1867.662, 9.469738
1868.163, 4.975224
1868.663, 4.591793
1869.163, 1.522015
1869.664, 3.328825
1870.164, 6.149054
1870.664, 8.879215
1871.164, 10.94087
1871.665, 12.68235
1872.165, 15.87941
1872.665, 16.28356
1873.166, 12.46720
1873.666, 8.256762
1874.166, 8.023695
1874.667, 9.847900
1875.167, 9.333458
1875.667, 6.564472
1876.168, 4.448444
1876.668, 2.856884
1877.168, 5.236128
1877.669, 6.364628
1878.169, 10.07253
1878.669, 7.830559
1879.169, 9.689983
1879.670, 7.975813
1880.170, 6.122715
1880.670, 5.829283
1881.171, 3.604811
1881.671, 4.052443
1882.171, 1.671061
1882.672, 4.969465
1883.172, 5.902927
1883.672, 5.398396
1884.173, 6.137287
1884.673, 10.04745
1885.173, 13.20185
1885.674, 11.75811
1886.174, 10.82936
1886.674, 8.177500
1887.175, 6.503098
1887.675, 3.781374
1888.175, 5.913652
1888.675, 9.205925
1889.176, 13.53297
1889.676, 12.40969
1890.176, 12.07678
1890.677, 8.919344
1891.177, 6.358807
1891.677, 5.417202
1892.178, 4.595255
1892.678, 7.414865
1893.178, 7.233665
1893.679, 9.463953
1894.179, 10.30672
1894.679, 11.32183
1895.180, 11.62051
1895.680, 10.71298
1896.180, 8.624886
1896.680, 6.786749
1897.181, 8.189171
1897.681, 9.564196
1898.181, 9.280409
1898.682, 11.06284
1899.182, 10.01688
1899.682, 8.610979
1900.183, 6.147482
1900.683, 7.542292
1901.183, 11.32739
1901.684, 8.324099
1902.184, 4.888943
1902.684, 4.726566
1903.185, 4.419260
1903.685, 6.823053
1904.185, 4.117050
1904.686, 4.819262
1905.186, 2.097237
1905.686, 3.699083
1906.186, 8.094812
1906.687, 12.76704
1907.187, 15.24256
1907.687, 7.330414
1908.188, 7.113829
1908.688, 9.862951
1909.188, 3.162398
1909.689, 9.923056
1910.189, 11.13785
1910.689, 9.744732
1911.190, 7.578169
1911.690, 6.311464
1912.190, 7.291536
1912.691, 7.872585
1913.191, 7.299397
1913.691, 5.779629
1914.191, 5.772615
1914.692, 3.554945
1915.192, 0.8296340
1915.692, 0.9980490
1916.193, 3.432783
1916.693, 7.706461
1917.193, 8.252405
1917.694, 6.995569
1918.194, 6.918831
1918.694, 6.282412
1919.195, 5.309364
1919.695, 4.332963
1920.195, 6.171557
1920.696, 11.10254
1921.196, 13.07558
1921.696, 12.37849
1922.197, 12.32388
1922.697, 14.04134
1923.197, 12.99096
1923.697, 13.64954
1924.198, 10.25406
1924.698, 11.48102
1925.198, 10.49713
1925.699, 9.716000
1926.199, 13.37017
1926.699, 10.51027
1927.200, 10.14651
1927.700, 5.221585
1928.200, 5.456525
1928.701, 6.578014
1929.201, 5.634665
1929.701, 3.098509
1930.202, 2.320526
1930.702, 4.620778
1931.202, 7.140657
1931.702, 9.074181
1932.203, 10.49836
1932.703, 11.69640
1933.203, 11.88792
1933.704, 8.863233
1934.204, 3.529494
1934.704, 0.4260940
1935.205, 0.9679470
1935.705, 5.641740
1936.205, 6.112309
1936.706, 5.901182
1937.206, 7.009754
1937.706, 10.93687
1938.207, 12.20414
1938.707, 8.703645
1939.207, 5.300222
1939.708, 6.054010
1940.208, 13.31573
1940.708, 17.62836
1941.208, 16.08301
1941.709, 5.864076
1942.209, 3.302855
1942.709, 3.336298
1943.210, 7.635221
1943.710, 6.599365
1944.210, 7.147510
1944.711, 7.704454
1945.211, 7.923761
1945.711, 8.226555
1946.212, 9.413486
1946.712, 9.319452
1947.212, 6.309885
1947.713, 2.163176
1948.213, 0.5663090
1948.713, 1.190714
1949.213, 5.104204
1949.714, 6.454884
1950.214, 7.190868
1950.714, 8.135085
1951.215, 9.642865
1951.715, 8.663058
1952.215, 6.067467
1952.716, 5.129855
1953.216, 5.706833
1953.716, 6.413851
1954.217, 7.934422
1954.717, 8.717338
1955.217, 9.579661
1955.718, 8.183962
1956.218, 5.614372
1956.718, 5.033401
1957.219, 3.939705
1957.719, 6.119109
1958.219, 3.581668
1958.719, 3.124222
1959.220, 2.256207
1959.720, 5.407556
1960.220, 10.13776
1960.721, 12.88015
1961.221, 11.63012
1961.721, 7.162991
1962.222, 4.044169
1962.722, 5.279684
1963.222, 7.567174
1963.723, 7.061067
1964.223, 5.215146
1964.723, 2.557078
1965.224, 4.798133
1965.724, 6.903912
1966.224, 10.07252
1966.724, 7.192648
1967.225, 4.135273
1967.725, 6.530978
1968.225, 7.074577
1968.726, 8.556807
1969.226, 7.035443
1969.726, 6.672770
1970.227, 8.403457
1970.727, 6.119389
1971.227, 8.732847
1971.728, 8.599931
1972.228, 9.911171
1972.728, 9.970575
1973.229, 7.861071
1973.729, 5.694891
1974.229, 3.645266
1974.729, 5.435737
1975.230, 7.516869
1975.730, 8.824630
1976.230, 8.360019
1976.731, 7.911240
1977.231, 7.404888
1977.731, 5.308698
1978.232, 3.084967
1978.732, 3.005632
1979.232, 3.887482
1979.733, 3.560478
1980.233, 2.149183
1980.733, 0.5890830
1981.234, 2.096645
1981.734, 4.249606
1982.234, 5.415294
1982.734, 4.706827
1983.235, 2.150469
1983.735, 5.997953
1984.235, 6.840236
1984.736, 8.990022
1985.236, 3.951343
1985.736, 4.196002
1986.237, 4.501666
1986.737, 4.892913
1987.237, 7.323231
1987.738, 6.684391
1988.238, 5.106774
1988.738, 2.568482
1989.239, 6.465511
1989.739, 11.25376
1990.239, 11.49602
1990.740, 7.495873
1991.240, 5.014837
1991.740, 5.140842
1992.240, 8.518559
1992.741, 10.10516
1993.241, 8.843790
1993.741, 4.294126
1994.242, 1.801362
1994.742, 2.051575
1995.242, 1.813010
1995.743, 1.355573
1996.243, 3.227961
1996.743, 1.818716
1997.244, 1.379987
1997.744, 4.572310
1998.244, 5.370945
1998.745, 7.568881
1999.245, 6.824117
1999.745, 6.275574
2000.245, 4.990319
2000.746, 7.881204
2001.246, 9.762154
2001.746, 13.08759
2002.247, 8.036651
2002.747, 6.093801
2003.247, 0.5846010
2003.748, 2.148920
2004.248, 5.874036
2004.748, 7.496452
2005.249, 5.269520
2005.749, 0.6292460
2006.249, 2.025529
2006.750, 5.827305
2007.250, 9.100003
2007.750, 5.529377
2008.250, 4.541791
2008.751, 3.246071
2009.251, 4.964433
2009.751, 5.083359
2010.252, 3.921263
2010.752, 4.719983
2011.252, 6.008107
2011.753, 6.478434
2012.253, 4.654253
2012.753, 2.100408
2013.254, 4.008599
2013.754, 3.844993
2014.254, 4.081196
2014.755, 5.431702
2015.255, 9.455977
2015.755, 12.52423
2016.255, 10.41746
2016.756, 7.520556
2017.256, 5.915616
2017.756, 4.545936
2018.257, 1.707663
2018.757, 0.6592210
2019.257, 0.6122060
2019.758, 1.356642
2020.258, 4.394138
2020.758, 5.275362
2021.259, 7.436412
2021.759, 6.912835
2022.259, 5.862976
2022.760, 5.905950
2023.260, 5.490043
2023.760, 4.829919
2024.260, 4.709917
2024.761, 4.537959
2025.261, 7.130332
2025.761, 7.981464
2026.262, 8.637929
2026.762, 7.396498
2027.262, 4.193585
2027.763, 2.534696
2028.263, 0.7461140
2028.763, 4.966924
2029.264, 3.748474
2029.764, 3.903804
2030.264, 0.7577320
2030.765, 1.371513
2031.265, 1.311314
2031.765, 1.025810
2032.266, 3.921609
2032.766, 6.311817
2033.266, 9.065960
2033.766, 5.965308
2034.267, 5.296986
2034.767, 5.545034
2035.267, 4.134886
2035.768, 2.405020
2036.268, 0.7764750
2036.768, 1.458881
2037.269, 1.464067
2037.769, 3.167451
2038.269, 4.198113
2038.770, 3.640062
2039.270, 0.7969800
2039.770, 4.6539001E-02
2040.271, 0.1354910
2040.771, 0.8724740
2041.271, 0.7910950
2041.771, 1.534742
2042.272, 6.870934
2042.772, 11.97115
2043.272, 13.03078
2043.773, 8.984288
2044.273, 2.981184
2044.773, 1.293169
2045.274, 4.292916
2045.774, 6.806157
2046.274, 6.761630
2046.775, 5.732126
2047.275, 5.849410
2047.775, 7.256312
2048.276, 10.05675
2048.776, 8.964917
2049.276, 6.812425
2049.777, 3.968948
2050.277, 6.627328
2050.777, 9.604603
2051.277, 9.277386
2051.778, 7.409655
2052.278, 4.051441
2052.778, 2.256633
2053.279, 0.6359280
2053.779, 1.498055
2054.279, 5.873579
2054.780, 9.557732
2055.280, 6.751284
2055.780, 2.408923
2056.281, 1.204476
2056.781, 2.773529
2057.281, 3.529006
2057.781, 5.119994
2058.282, 1.687611
2058.782, 0.3764770
2059.282, 2.227262
2059.783, 3.029674
2060.283, 7.163733
2060.783, 8.513392
2061.284, 6.891969
2061.784, 7.728477
2062.284, 7.929774
2062.785, 8.268416
2063.285, 5.714814
2063.785, 5.225202
2064.286, 3.538249
2064.786, 2.882315
2065.286, 3.330770
2065.787, 5.315470
2066.287, 6.878088
2066.787, 8.509973
2067.288, 10.03866
2067.788, 8.422618
2068.288, 2.772521
2068.788, 0.9539150
2069.289, 1.844244
2069.789, 2.377533
2070.289, 2.226714
2070.790, 1.144369
2071.290, 1.512184
2071.790, 3.528981
2072.291, 4.291975
2072.791, 1.419257
2073.291, 1.464775
2073.792, 1.400615
2074.292, 2.783834
2074.792, 6.856249
2075.292, 9.040482
2075.793, 7.474190
2076.293, 5.442663
2076.793, 3.285203
2077.294, 2.312892
2077.794, 2.110708
2078.294, 2.337574
2078.795, 4.601830
2079.295, 5.142009
2079.795, 4.590901
2080.296, 3.362753
2080.796, 4.037167
2081.296, 4.705004
2081.797, 3.493760
2082.297, 3.587128
2082.797, 3.262630
2083.298, 3.717175
2083.798, 3.628602
2084.298, 5.430030
2084.799, 5.576910
2085.299, 2.256695
2085.799, 0.3660140
2086.299, 0.7261100
2086.800, 1.976839
2087.300, 1.189392
2087.800, 2.779317
2088.301, 6.713202
2088.801, 8.315701
2089.301, 6.466901
2089.802, 2.533462
2090.302, 1.334291
2090.802, 3.344563
2091.302, 7.128521
2091.803, 9.444267
2092.303, 9.693768
2092.803, 9.011513
2093.304, 8.472008
2093.804, 6.450780
2094.304, 3.510745
2094.805, 2.366685
2095.305, 3.714867
2095.805, 6.270081
2096.306, 5.970312
2096.806, 3.281393
2097.306, 0.3834650
2097.807, 3.728771
2098.307, 4.287832
2098.807, 6.972535
2099.308, 3.436924
2099.808, 3.786937
2100.308, 0.9749310
2100.809, 1.049936
2101.309, 0.9060950
2101.809, 2.859800
2102.310, 2.387981
2102.810, 3.010553
2103.310, 0.8951090
2103.810, 1.230209
2104.311, 1.213897
2104.811, 4.299483
2105.311, 4.708613
2105.812, 2.769044
2106.312, 3.802005
2106.812, 4.758965
2107.312, 4.213935
2107.813, 0.5592560
2108.313, 3.580483
2108.813, 5.229094
2109.314, 6.935963
2109.814, 4.012414
2110.314, 4.582442
2110.815, 7.146384
2111.315, 7.371051
2111.815, 8.381381
2112.316, 8.614092
2112.816, 10.64278
2113.316, 8.660019
2113.817, 5.371112
2114.317, 1.423502
2114.817, 2.840935
2115.318, 3.706865
2115.818, 7.659277
2116.318, 7.477092
2116.819, 8.209260
2117.319, 8.971803
2117.819, 8.220685
2118.320, 7.136416
2118.820, 5.424866
2119.320, 3.078312
2119.821, 3.470386
2120.321, 3.053829
2120.821, 4.291904
2121.321, 7.350393
2121.822, 3.821331
2122.322, 7.654989
2122.822, 5.854990
2123.323, 8.878810
2123.823, 5.373711
2124.323, 4.211980
2124.823, 3.311485
2125.324, 5.522049
2125.824, 5.709165
2126.324, 5.685259
2126.825, 4.199451
2127.325, 3.840780
2127.825, 4.701056
2128.326, 4.739336
2128.826, 4.441988
2129.326, 5.483209
2129.827, 5.704481
2130.327, 5.673236
2130.827, 5.001102
2131.328, 6.251345
2131.828, 5.819585
2132.328, 5.552553
2132.829, 5.937113
2133.329, 5.862328
2133.829, 4.009296
2134.330, 3.208475
2134.830, 5.145128
2135.330, 10.03059
2135.831, 11.22831
2136.331, 10.13215
2136.831, 7.982848
2137.332, 7.450529
2137.832, 9.520387
2138.332, 8.072446
2138.832, 10.11946
2139.333, 4.288630
2139.833, 4.975426
2140.333, 1.329184
2140.834, 4.915285
2141.334, 5.532337
2141.834, 5.944572
2142.334, 7.249686
2142.835, 4.923512
2143.335, 4.942230
2143.835, 4.632866
2144.336, 5.775896
2144.836, 8.405786
2145.336, 7.538015
2145.837, 8.764402
2146.337, 6.826117
2146.837, 6.926378
2147.338, 6.994663
2147.838, 6.094582
2148.338, 5.864006
2148.839, 3.441114
2149.339, 3.937817
2149.839, 3.179178
2150.340, 1.621321
2150.840, 2.378382
2151.340, 1.874605
2151.841, 5.945524
2152.341, 8.079821
2152.841, 11.08164
2153.342, 9.950824
2153.842, 8.008996
2154.342, 5.775826
2154.843, 2.883570
2155.343, 3.467592
2155.843, 1.380699
2156.343, 3.604258
2156.844, 1.026382
2157.344, 2.023199
2157.844, 2.247425
2158.345, 2.2030000E-03
2158.845, 4.668419
2159.345, 1.685139
2159.845, 4.661188
2160.346, 0.2764320
2160.846, 3.601645
2161.346, 3.326757
2161.847, 3.413252
2162.347, 1.667849
2162.847, 2.8238000E-02
2163.348, 0.1180170
2163.848, 1.541645
2164.348, 1.656393
2164.849, 2.544815
2165.349, 4.012226
2165.849, 7.719333
2166.350, 7.833664
2166.850, 6.128252
2167.350, 2.055481
2167.851, 1.210114
2168.351, 0.8708610
2168.851, 1.230236
2169.352, 1.657438
2169.852, 0.3198570
2170.352, 0.6107220
2170.853, 0.3450810
2171.353, 0.7440240
2171.853, 0.8726080
2172.354, 0.7125280
2172.854, 0.8369290
2173.354, 0.1472070
2173.854, 0.1944180
2174.355, 1.2802000E-02
2174.855, 0.9696710
2175.355, 0.2627680
2175.856, 0.3262370
2176.356, 1.072701
2176.856, 1.780565
2177.356, 2.170061
2177.857, 1.568815
2178.357, 2.076841
2178.857, 3.080421
2179.358, 3.810198
2179.858, 2.664951
2180.358, 1.421692
2180.859, 5.1378001E-02
2181.359, 0.1899910
2181.859, 0.5855710
2182.360, 1.259613
2182.860, 2.621033
2183.360, 2.763372
2183.861, 2.229851
2184.361, 1.301283
2184.861, 0.4212380
2185.362, 0.9916740
2185.862, 2.491148
2186.362, 2.956806
2186.863, 2.664518
2187.363, 3.325174
2187.863, 3.805439
2188.364, 1.265226
2188.864, 3.532461
2189.364, 5.026672
2189.865, 3.220110
2190.365, 0.1005100
2190.865, 2.297703
2191.365, 1.534536
2191.866, 1.130020
2192.366, 1.716742
2192.866, 0.1493260
2193.367, 1.129414
2193.867, 2.354652
2194.367, 5.583572
2194.867, 6.109877
2195.368, 8.436757
2195.868, 6.320646
2196.368, 6.193707
2196.869, 7.724988
2197.369, 6.440986
2197.869, 8.125299
2198.370, 6.453294
2198.870, 7.409343
2199.370, 2.999556
2199.871, 2.948021
2200.371, 3.721148
2200.871, 5.300106
2201.372, 3.360495
2201.872, 1.269548
2202.372, 4.589064
2202.873, 8.082710
2203.373, 9.694387
2203.873, 5.998833
2204.374, 2.605499
2204.874, 4.787296
2205.374, 4.205904
2205.875, 8.842150
2206.375, 7.565033
2206.875, 8.565350
2207.375, 4.437016
2207.876, 1.896128
2208.376, 2.454321
2208.876, 1.770899
2209.377, 4.334394
2209.877, 5.400724
2210.377, 8.039722
2210.878, 7.744100
2211.378, 7.859314
2211.878, 5.713375
2212.378, 5.449371
2212.879, 8.037937
2213.379, 10.29122
2213.879, 10.16605
2214.380, 10.06005
2214.880, 8.190787
2215.380, 9.862992
2215.881, 7.572604
2216.381, 8.689243
2216.881, 6.487055
2217.382, 7.743061
2217.882, 7.885489
2218.382, 6.142214
2218.883, 6.133903
2219.383, 8.510891
2219.883, 10.50965
2220.384, 10.35806
2220.884, 9.057432
2221.384, 9.590344
2221.885, 6.819085
2222.385, 9.887464
2222.885, 9.437908
2223.385, 9.366603
2223.886, 3.940795
2224.386, 3.209253
2224.886, 4.699916
2225.387, 6.440620
2225.887, 10.07949
2226.387, 11.96171
2226.888, 10.72108
2227.388, 6.376959
2227.888, 5.030704
2228.389, 7.323261
2228.889, 12.00684
2229.389, 12.00347
2229.889, 9.266319
2230.390, 5.197264
2230.890, 3.849869
2231.390, 7.561622
2231.891, 11.09831
2232.391, 10.75962
2232.891, 7.337523
2233.392, 5.497275
2233.892, 7.760204
2234.392, 8.304068
2234.893, 8.485199
2235.393, 8.541845
2235.893, 11.57863
2236.394, 14.39795
2236.894, 13.45505
2237.394, 12.35551
2237.895, 8.994572
2238.395, 7.157892
2238.895, 5.375834
2239.396, 5.012753
2239.896, 8.683675
2240.396, 9.707124
2240.896, 7.839718
2241.397, 2.893108
2241.897, 3.983416
2242.397, 7.584009
2242.898, 11.85194
2243.398, 12.22522
2243.898, 11.43211
2244.399, 10.84465
2244.899, 9.457912
2245.399, 5.867349
2245.900, 5.737015
2246.400, 4.994540
2246.900, 7.147880
2247.400, 6.360003
2247.901, 5.287809
2248.401, 4.607073
2248.901, 4.620433
2249.402, 6.838094
2249.902, 10.68787
2250.402, 11.03586
2250.903, 9.380687
2251.403, 6.022429
2251.903, 3.913659
2252.404, 4.545668
2252.904, 5.829220
2253.404, 7.152336
2253.905, 5.149354
2254.405, 5.949792
2254.905, 5.758278
2255.406, 7.759379
2255.906, 5.199140
2256.406, 8.811139
2256.906, 7.695101
2257.407, 9.223703
2257.907, 6.804974
2258.407, 11.18666
2258.908, 14.18872
2259.408, 14.58546
2259.908, 13.42538
2260.409, 8.215450
2260.909, 10.50609
2261.409, 3.649127
2261.910, 4.788281
2262.410, 2.933621
2262.910, 8.937361
2263.411, 7.690329
2263.911, 6.474036
2264.411, 6.358958
2264.911, 7.487832
2265.412, 8.202418
2265.912, 6.713341
2266.412, 8.386140
2266.913, 8.468228
2267.413, 9.095570
2267.913, 7.498786
2268.414, 4.212231
2268.914, 6.144105
2269.414, 9.016662
2269.915, 10.62238
2270.415, 8.564500
2270.915, 5.287668
2271.416, 4.524822
2271.916, 5.080623
2272.416, 7.170627
2272.917, 9.134046
2273.417, 8.297116
2273.917, 6.635369
2274.417, 7.362813
2274.918, 7.829124
2275.418, 8.622454
2275.918, 10.20008
2276.419, 10.43900
2276.919, 6.507752
2277.419, 4.780846
2277.920, 6.671872
2278.420, 11.90489
2278.920, 11.18278
2279.421, 7.007193
2279.921, 5.327887
2280.421, 3.446443
2280.922, 3.511862
2281.422, 3.835232
2281.922, 4.802127
2282.422, 6.346602
2282.923, 5.926169
2283.423, 6.900782
2283.923, 8.596176
2284.424, 11.83417
2284.924, 13.50300
2285.424, 11.60043
2285.925, 10.10029
2286.425, 8.380506
2286.925, 8.958511
2287.426, 8.828341
2287.926, 7.552482
2288.426, 6.171036
2288.927, 3.559181
2289.427, 1.384233
2289.927, 0.1649230
2290.427, 0.6519470
2290.928, 1.836753
2291.428, 3.299115
2291.928, 2.596401
2292.429, 0.7551500
2292.929, 2.131842
2293.429, 0.5994840
2293.930, 2.921889
2294.430, 6.662580
2294.930, 10.70593
2295.431, 11.12553
2295.931, 9.871089
2296.431, 6.381616
2296.932, 4.299342
2297.432, 0.6963520
2297.932, 0.4805960
2298.433, 2.751312
2298.933, 5.537433
2299.433, 3.445757
2299.933, 1.619675
2300.434, 1.213007
2300.934, 3.722085
2301.434, 3.965537
2301.935, 4.756253
2302.435, 5.834385
2302.935, 7.476559
2303.436, 6.266636
2303.936, 4.270577
2304.436, 3.121934
2304.937, 2.862171
2305.437, 2.732238
2305.937, 3.090374
2306.438, 3.165614
2306.938, 4.995010
2307.438, 2.320533
2307.938, 3.230516
2308.439, 2.598906
2308.939, 1.078132
2309.439, 1.913321
2309.940, 1.433758
2310.440, 4.568243
2310.940, 3.825569
2311.441, 4.053079
2311.941, 0.5276010
2312.441, 3.904109
2312.942, 3.722445
2313.442, 2.312490
2313.942, 1.501349
2314.443, 2.396314
2314.943, 5.568347
2315.443, 4.494247
2315.944, 2.214157
2316.444, 1.008384
2316.944, 3.410372
2317.444, 3.576454
2317.945, 3.463805
2318.445, 2.172270
2318.945, 1.431106
2319.446, 1.715049
2319.946, 0.4794100
2320.446, 0.7547740
2320.947, 3.411540
2321.447, 8.578838
2321.947, 10.31650
2322.448, 7.237487
2322.948, 3.689980
2323.448, 1.370100
2323.948, 0.6820670
2324.449, 0.8994950
2324.949, 1.129914
2325.449, 0.9424190
2325.950, 1.312490
2326.450, 5.375361
2326.950, 9.670942
2327.451, 11.55727
2327.951, 10.31736
2328.451, 7.479533
2328.952, 6.193790
2329.452, 7.734202
2329.952, 5.044872
2330.453, 3.632743
2330.953, 1.138986
2331.453, 2.020420
2331.954, 0.2699240
2332.454, 0.3257610
2332.954, 0.2962240
2333.455, 2.796337
2333.955, 2.776019
2334.455, 4.041918
2334.955, 2.804807
2335.456, 2.642750
2335.956, 2.940660
2336.456, 1.860878
2336.957, 0.5704440
2337.457, 1.322279
2337.957, 2.617081
2338.458, 2.966719
2338.958, 7.479520
2339.458, 5.996885
2339.958, 7.250527
2340.459, 2.846772
2340.959, 1.248487
2341.459, 3.940249
2341.960, 4.678731
2342.460, 7.371580
2342.960, 7.665849
2343.461, 10.93713
2343.961, 7.992026
2344.461, 5.405605
2344.962, 1.396099
2345.462, 1.977681
2345.962, 2.126512
2346.463, 2.684194
2346.963, 3.766401
2347.463, 3.947976
2347.964, 2.501147
2348.464, 1.969232
2348.964, 2.155137
2349.465, 4.275574
2349.965, 4.562363
2350.465, 3.978350
2350.966, 3.557312
2351.466, 3.319434
2351.966, 1.436494
2352.466, 0.7549050
2352.967, 2.045916
2353.467, 4.497878
2353.967, 5.863084
2354.468, 5.278276
2354.968, 4.753793
2355.468, 7.337306
2355.969, 7.756338
2356.469, 7.856727
2356.969, 5.526882
2357.469, 2.675345
2357.970, 0.7718230
2358.470, 2.469118
2358.970, 1.078317
2359.471, 3.131410
2359.971, 8.286806
2360.471, 4.841121
2360.972, 1.693500
2361.472, 0.1209260
2361.972, 0.4043040
2362.473, 5.501872
2362.973, 3.204965
2363.473, 5.829682
2363.974, 1.168746
2364.474, 0.8941670
2364.974, 1.3894000E-02
2365.475, 6.392775
2365.975, 7.728252
2366.475, 5.259669
2366.976, 0.7583280
2367.476, 0.6223350
2367.976, 0.9186890
2368.477, 0.7041520
2368.977, 6.8970001E-03
2369.477, 0.6124000
2369.977, 0.5696770
2370.478, 2.864591
2370.978, 2.205384
2371.478, 0.4123490
2371.979, 0.8345000
2372.479, 7.6250002E-02
2372.979, 0.2098500
2373.479, 2.722434
2373.980, 4.800153
2374.480, 5.288439
2374.980, 4.538857
2375.481, 4.438978
2375.981, 3.172086
2376.481, 0.3195560
2376.982, 1.754822
2377.482, 3.207273
2377.982, 5.373804
2378.483, 1.312689
2378.983, 4.317345
2379.483, 4.597441
2379.984, 5.327097
2380.484, 0.7853960
2380.984, 2.251170
2381.485, 3.360084
2381.985, 5.024684
2382.485, 1.695304
2382.986, 5.960258
2383.486, 6.570323
2383.986, 8.532670
2384.487, 3.926946
2384.987, 3.283768
2385.487, 2.290381
2385.988, 2.142064
2386.488, 3.998961
2386.988, 7.571455
2387.488, 10.10608
2387.989, 8.047087
2388.489, 4.958570
2388.989, 2.859221
2389.490, 4.213498
2389.990, 7.544211
2390.490, 8.164849
2390.990, 8.255069
2391.491, 6.653694
2391.991, 7.192757
2392.491, 7.039412
2392.992, 7.696358
2393.492, 8.556522
2393.992, 10.19023
2394.493, 9.636558
2394.993, 8.541020
2395.493, 6.629986
2395.994, 6.824137
2396.494, 5.341298
2396.994, 5.137848
2397.495, 2.733879
2397.995, 5.421937
2398.495, 8.541406
2398.996, 10.27162
2399.496, 10.43991
2399.996, 8.780787
2400.497, 10.93715
2400.997, 10.57545
2401.497, 8.793850
2401.998, 4.773817
2402.498, 1.827779
2402.998, 1.624953
2403.499, 4.743129
2403.999, 8.698543
2404.499, 9.308855
2404.999, 7.088495
2405.500, 5.510960
2406.000, 3.088910
2406.500, 1.979637
2407.001, 0.7854910
2407.501, 4.800119
2408.001, 8.096390
2408.501, 11.21792
2409.002, 8.569560
2409.502, 9.157006
2410.002, 7.268206
2410.503, 11.41679
2411.003, 11.71014
2411.503, 11.73556
2412.004, 12.86704
2412.504, 13.84769
2413.004, 14.98800
2413.505, 11.55247
2414.005, 11.31252
2414.505, 12.35573
2415.006, 12.41097
2415.506, 9.381256
2416.006, 9.330781
2416.507, 9.658329
2417.007, 11.36980
2417.507, 9.883242
2418.008, 10.29623
2418.508, 10.40466
2419.008, 11.87345
2419.509, 12.81104
2420.009, 11.18296
2420.509, 8.714205
2421.010, 8.051149
2421.510, 11.20228
2422.010, 12.75357
2422.510, 11.73266
2423.011, 11.35746
2423.511, 11.89467
2424.011, 10.80944
2424.512, 9.388923
2425.012, 4.859331
2425.512, 4.033404
2426.012, 4.665570
2426.513, 6.613724
2427.013, 9.072781
2427.513, 7.778580
2428.014, 8.612203
2428.514, 6.117017
2429.014, 8.252128
2429.515, 10.00517
2430.015, 12.96057
2430.515, 13.38408
2431.016, 10.86160
2431.516, 9.653799
2432.016, 8.170361
2432.517, 9.031260
2433.017, 8.436329
2433.517, 7.818481
2434.018, 7.348471
2434.518, 8.796314
2435.018, 8.180346
2435.519, 9.133603
2436.019, 9.164830
2436.519, 11.51703
2437.020, 11.07872
2437.520, 11.85497
2438.020, 11.13482
2438.521, 13.86636
2439.021, 12.86581
2439.521, 11.81531
2440.021, 12.42935
2440.522, 10.52258
2441.022, 11.57623
2441.522, 10.62032
2442.023, 13.00638
2442.523, 11.00499
2443.023, 8.523499
2443.523, 8.443280
2444.024, 11.02081
2444.524, 12.01711
2445.024, 12.08522
2445.525, 13.10334
2446.025, 14.46894
2446.525, 16.54276
2447.026, 14.06441
2447.526, 10.76651
2448.026, 7.617093
2448.527, 6.607802
2449.027, 7.144784
2449.527, 3.938896
2450.028, 4.643707
2450.528, 6.536932
2451.028, 8.976968
2451.529, 9.271338
2452.029, 6.229618
2452.529, 8.016662
2453.030, 10.76916
2453.530, 14.99713
2454.030, 14.79079
2454.531, 13.00990
2455.031, 9.851830
2455.531, 9.675756
2456.031, 10.65100
2456.532, 14.05152
2457.032, 15.95654
2457.532, 16.90291
2458.033, 15.52846
2458.533, 13.00667
2459.033, 10.55374
2459.534, 9.863556
2460.034, 10.42145
2460.534, 11.23579
2461.034, 11.74597
2461.535, 11.17514
2462.035, 9.716045
2462.535, 8.222452
2463.036, 9.402082
2463.536, 6.663243
2464.036, 6.845059
2464.537, 2.665068
2465.037, 6.590776
2465.537, 8.300059
2466.038, 11.68280
2466.538, 11.70079
2467.038, 11.92320
2467.539, 12.44004
2468.039, 12.11804
2468.539, 11.05633
2469.040, 10.24979
2469.540, 10.72056
2470.040, 9.516545
2470.541, 9.873985
2471.041, 11.51693
2471.541, 13.02234
2472.042, 13.93237
2472.542, 15.92530
2473.042, 14.70303
2473.542, 12.98380
2474.043, 5.852533
2474.543, 5.374316
2475.043, 6.592329
2475.544, 8.065090
2476.044, 6.194291
2476.544, 4.623735
2477.045, 5.413352
2477.545, 6.643727
2478.045, 6.475698
2478.545, 5.869836
2479.046, 7.257766
2479.546, 7.814900
2480.046, 8.325648
2480.547, 10.07250
2481.047, 7.633611
2481.547, 8.272847
2482.048, 9.100960
2482.548, 11.98750
2483.048, 15.67620
2483.549, 13.04805
2484.049, 10.36775
2484.549, 1.028059
2485.050, 0.1903320
2485.550, 3.371467
2486.050, 6.714962
2486.551, 5.696355
2487.051, 3.698682
2487.551, 6.026282
2488.052, 10.12518
2488.552, 10.75099
2489.052, 7.840620
2489.552, 4.621770
2490.053, 3.497832
2490.553, 3.885868
2491.053, 0.3491310
2491.554, 3.159945
2492.054, 5.403651
2492.554, 7.760581
2493.055, 5.313179
2493.555, 1.513788
2494.055, 5.098380
2494.556, 5.988911
2495.056, 10.19503
2495.556, 8.230678
2496.056, 9.777385
2496.557, 9.148513
2497.057, 9.164228
2497.557, 4.935318
2498.058, 2.671895
2498.558, 1.491538
2499.058, 2.862358
2499.559, 4.782473
2500.059, 4.545324
2500.559, 2.072438
2501.060, 1.311312
2501.560, 4.617001
2502.060, 3.781052
2502.561, 2.556337
2503.061, 1.109206
2503.561, 5.373561
2504.062, 3.411252
2504.562, 5.487947
2505.062, 1.417733
2505.562, 5.751322
2506.063, 5.686385
2506.563, 5.673286
2507.063, 1.312629
2507.564, 1.315608
2508.064, 2.402916
2508.564, 6.860345
2509.065, 8.016261
2509.565, 6.090159
2510.065, 3.005629
2510.566, 0.7032680
2511.066, 1.201862
2511.566, 0.9544680
2512.067, 4.119048
2512.567, 5.805294
2513.067, 6.402621
2513.567, 6.679330
2514.068, 6.093974
2514.568, 3.991284
2515.068, 0.1500280
2515.569, 0.4652890
2516.069, 2.709281
2516.569, 2.287141
2517.070, 0.3283090
2517.570, 0.5560490
2518.070, 1.222723
2518.571, 5.784809
2519.071, 8.246103
2519.571, 9.278108
2520.072, 3.072775
2520.572, 2.152648
2521.072, 2.809569
2521.573, 5.863879
2522.073, 1.920421
2522.573, 1.767307
2523.073, 2.972302
2523.574, 7.144266
2524.074, 8.367900
2524.574, 5.460306
2525.075, 3.510198
2525.575, 0.5564190
2526.075, 8.4108002E-02
2526.576, 0.4062400
2527.076, 0.2343500
2527.576, 1.530674
2528.077, 0.2345030
2528.577, 2.211441
2529.077, 2.413498
2529.578, 3.520533
2530.078, 0.3365190
2530.578, 1.363022
2531.078, 2.691002
2531.579, 4.031965
2532.079, 4.986156
2532.579, 2.571388
2533.080, 0.2165530
2533.580, 0.4850770
2534.080, 1.828800
2534.581, 2.337467
2535.081, 3.993877
2535.581, 3.017445
2536.082, 3.638090
2536.582, 4.053055
2537.082, 4.097242
2537.583, 5.774163
2538.083, 4.967272
2538.583, 5.911386
2539.083, 3.418783
2539.584, 4.800915
2540.084, 5.777184
2540.584, 4.428684
2541.085, 1.607437
2541.585, 1.058968
2542.085, 2.166435
2542.586, 2.638510
2543.086, 1.975328
2543.586, 3.232004
2544.087, 3.591074
2544.587, 4.402418
2545.087, 3.254347
2545.588, 0.5891840
2546.088, 1.870127
2546.588, 3.016195
2547.089, 7.569548
2547.589, 7.382074
2548.089, 9.107153
2548.589, 6.035419
2549.090, 5.599684
2549.590, 3.341270
2550.090, 4.478117
2550.591, 1.073399
2551.091, 1.516506
2551.591, 2.397543
2552.092, 1.264124
2552.592, 6.6340002E-03
2553.092, 2.174875
2553.593, 3.800213
2554.093, 9.643641
2554.593, 3.939297
2555.094, 4.572708
2555.594, 0.2400650
2556.094, 5.990438
2556.594, 6.301373
2557.095, 5.848486
2557.595, 3.617474
2558.095, 0.4122520
2558.596, 0.9557170
2559.096, 1.838097
2559.596, 5.164021
2560.097, 6.503910
2560.597, 5.629618
2561.097, 5.535360
2561.598, 5.922213
2562.098, 3.576944
2562.598, 4.240200
2563.099, 6.055895
2563.599, 8.812481
2564.099, 9.537184
2564.600, 7.833984
2565.100, 6.999645
2565.600, 5.742437
2566.100, 5.799681
2566.601, 6.424946
2567.101, 6.810041
2567.601, 5.397036
2568.102, 3.190817
2568.602, 2.397167
2569.102, 4.203556
2569.603, 8.471750
2570.103, 9.580107
2570.603, 8.933563
2571.104, 10.58068
2571.604, 11.20028
2572.104, 11.09104
2572.604, 4.752731
2573.105, 1.453773
2573.605, 1.060579
2574.105, 2.095039
2574.606, 4.834799
2575.106, 3.863598
2575.606, 5.997316
2576.107, 5.003540
2576.607, 9.068754
2577.107, 10.76060
2577.608, 13.93217
2578.108, 9.473507
2578.608, 6.421824
2579.109, 2.565380
2579.609, 5.434835
2580.109, 5.082718
2580.610, 4.685558
2581.110, 4.123690
2581.610, 7.133198
2582.111, 9.275564
2582.611, 9.745750
2583.111, 6.566845
2583.611, 8.336843
2584.112, 9.518780
2584.612, 12.32623
2585.112, 12.08142
2585.613, 10.55537
2586.113, 10.03084
2586.613, 8.048809
2587.114, 9.077250
2587.614, 8.564249
2588.114, 6.571339
2588.615, 3.169077
2589.115, 0.1035190
2589.615, 1.617773
2590.115, 3.645351
2590.616, 5.604568
2591.116, 5.416391
2591.616, 4.417057
2592.117, 5.315540
2592.617, 7.041107
2593.117, 8.344652
2593.618, 6.861500
2594.118, 3.504263
2594.618, 1.617950
2595.119, 2.611462
2595.619, 3.222809
2596.119, 3.362761
2596.620, 1.325020
2597.120, 2.623892
2597.620, 2.143946
2598.121, 4.105795
2598.621, 1.743979
2599.121, 3.841667
2599.622, 5.497700
2600.122, 6.584957
2600.622, 5.473776
2601.122, 4.805950
2601.623, 5.520849
2602.123, 6.576551
2602.623, 5.110014
2603.124, 4.974966
2603.624, 5.640055
2604.124, 5.775045
2604.625, 7.416161
2605.125, 7.534111
2605.625, 6.433167
2606.125, 2.899319
2606.626, 0.4036480
2607.126, 1.456997
2607.626, 3.191067
2608.127, 6.113487
2608.627, 6.040817
2609.127, 6.044241
2609.628, 2.911575
2610.128, 1.768173
2610.628, 0.5648120
2611.129, 0.7122760
2611.629, 1.574194
2612.129, 2.586796
2612.630, 0.9039120
2613.130, 0.9962770
2613.630, 1.016117
2614.131, 4.431240
2614.631, 5.612663
2615.131, 4.118132
2615.632, 2.941818
2616.132, 1.498907
2616.632, 0.6149370
2617.133, 1.770761
2617.633, 1.062866
2618.133, 0.9249990
2618.633, 1.263470
2619.134, 1.838148
2619.634, 2.280832
2620.134, 1.091543
2620.635, 0.3574640
2621.135, 1.132162
2621.635, 1.402523
2622.135, 2.295296
2622.636, 0.4851490
2623.136, 0.8320450
2623.636, 1.454418
2624.137, 4.714764
2624.637, 5.133472
2625.137, 1.930668
2625.638, 6.8269998E-02
2626.138, 1.390463
2626.638, 3.796959
2627.139, 3.885738
2627.639, 3.244307
2628.139, 1.070063
2628.640, 0.9477630
2629.140, 6.4814001E-02
2629.640, 0.9712850
2630.141, 1.055962
2630.641, 4.485882
2631.141, 5.979713
2631.642, 6.333715
2632.142, 3.238419
2632.642, 0.7089790
2633.143, 0.4557970
2633.643, 0.6007520
2634.143, 0.9761920
2634.644, 2.562738
2635.144, 3.065369
2635.644, 2.446039
2636.144, 1.495583
2636.645, 1.696817
2637.145, 0.5917400
2637.645, 1.219160
2638.146, 3.001404
2638.646, 4.368500
2639.146, 4.402035
2639.646, 3.865391
2640.147, 3.352184
2640.647, 4.922344
2641.147, 4.030201
2641.648, 4.721254
2642.148, 3.638960
2642.648, 4.153395
2643.149, 5.763340
2643.649, 5.866671
2644.149, 5.878309
2644.650, 6.250965
2645.150, 4.411362
2645.650, 4.819311
2646.151, 5.400448
2646.651, 10.90758
2647.151, 11.02951
2647.652, 8.230560
2648.152, 4.382654
2648.652, 3.514706
2649.153, 5.843124
2649.653, 8.612309
2650.153, 10.35060
2650.654, 9.172400
2651.154, 7.831364
2651.654, 8.040735
2652.155, 6.794909
2652.655, 3.947891
2653.155, 0.6744020
2653.655, 3.831264
2654.156, 7.181805
2654.656, 11.05341
2655.156, 10.07170
2655.657, 10.59573
2656.157, 9.326819
2656.657, 5.921526
2657.157, 5.181948
2657.658, 5.904907
2658.158, 9.316494
2658.658, 9.319716
2659.159, 8.309296
2659.659, 5.048486
2660.159, 4.618965
2660.660, 4.043447
2661.160, 3.688269
2661.660, 3.375460
2662.161, 4.070719
2662.661, 6.005568
2663.161, 6.740691
2663.662, 6.828172
2664.162, 7.407588
2664.662, 5.524498
2665.163, 6.989233
2665.663, 5.933271
2666.163, 4.985220
2666.664, 4.721639
2667.164, 5.188631
2667.664, 7.755196
2668.165, 6.234577
2668.665, 7.814989
2669.165, 6.195451
2669.666, 6.835686
2670.166, 5.751767
2670.666, 7.757416
2671.166, 7.123807
2671.667, 5.557579
2672.167, 2.841573
2672.667, 2.238170
2673.168, 2.072453
2673.668, 4.460687
2674.168, 4.308142
2674.668, 4.466457
2675.169, 5.280665
2675.669, 5.903981
2676.169, 8.512859
2676.670, 7.213010
2677.170, 7.389790
2677.670, 2.981838
2678.171, 0.2722670
2678.671, 0.6126850
2679.171, 1.938105
2679.672, 5.457654
2680.172, 7.153726
2680.672, 6.380403
2681.173, 4.607599
2681.673, 2.515373
2682.173, 1.020832
2682.674, 0.1059820
2683.174, 1.008076
2683.674, 0.1810370
2684.175, 2.556879
2684.675, 0.9494670
2685.175, 2.018285
2685.676, 1.896506
2686.176, 7.510417
2686.676, 8.931285
2687.177, 7.373693
2687.677, 7.013277
2688.177, 6.144680
2688.677, 6.103503
2689.178, 5.747066
2689.678, 3.322786
2690.178, 5.459903
2690.679, 2.867240
2691.179, 6.044087
2691.679, 7.451707
2692.179, 8.469799
2692.680, 5.930201
2693.180, 3.764222
2693.680, 5.684049
2694.181, 8.092539
2694.681, 8.174615
2695.181, 6.908856
2695.682, 4.053203
2696.182, 3.057441
2696.682, 5.322710
2697.183, 9.613408
2697.683, 7.486853
2698.183, 5.917307
2698.684, 2.209642
2699.184, 6.341343
2699.684, 6.716173
2700.185, 8.330375
2700.685, 4.102930
2701.185, 0.1134650
2701.686, 1.034313
2702.186, 0.9852480
2702.686, 5.108021
2703.187, 4.109246
2703.687, 6.285697
2704.187, 6.966753
2704.688, 7.968243
2705.188, 4.350304
2705.688, 2.510042
2706.188, 2.749214
2706.689, 4.548217
2707.189, 2.934220
2707.689, 1.869059
2708.190, 1.205440
2708.690, 2.833372
2709.190, 3.635957
2709.690, 4.304253
2710.191, 5.202388
2710.691, 5.172184
2711.191, 7.615628
2711.692, 6.413290
2712.192, 6.554190
2712.692, 6.101348
2713.193, 6.001790
2713.693, 4.650887
2714.193, 2.405130
2714.694, 3.290694
2715.194, 5.131702
2715.694, 6.043772
2716.195, 10.24367
2716.695, 11.89484
2717.195, 11.27668
2717.696, 6.659025
2718.196, 4.317942
2718.696, 2.145291
2719.197, 2.068017
2719.697, 3.368616
2720.197, 5.710171
2720.698, 6.695060
2721.198, 5.167211
2721.698, 5.262458
2722.198, 4.669051
2722.699, 9.011962
2723.199, 13.49714
2723.699, 11.47133
2724.200, 8.608868
2724.700, 5.195943
2725.200, 7.532218
2725.701, 7.309500
2726.201, 4.090694
2726.701, 4.872926
2727.201, 7.317437
2727.702, 11.19802
2728.202, 13.12276
2728.702, 12.10622
2729.203, 10.84941
2729.703, 6.105537
2730.203, 5.653427
2730.704, 5.777676
2731.204, 8.304074
2731.704, 8.611770
2732.205, 8.843501
2732.705, 7.882726
2733.205, 7.601425
2733.706, 6.439102
2734.206, 7.659407
2734.706, 8.002952
2735.207, 7.776445
2735.707, 9.636513
2736.207, 8.736467
2736.708, 10.32577
2737.208, 6.222553
2737.708, 6.223092
2738.208, 6.647837
2738.709, 10.57114
2739.209, 11.70760
2739.709, 11.77007
2740.210, 9.079018
2740.710, 7.584297
2741.210, 4.168532
2741.711, 3.701221
2742.211, 2.148332
2742.711, 2.444098
2743.212, 0.6910790
2743.712, 0.6353630
2744.212, 1.271106
2744.712, 0.6714210
2745.213, 0.6701790
2745.713, 2.115305
2746.213, 1.024619
2746.714, 5.503272
2747.214, 9.768411
2747.714, 6.754022
2748.215, 3.040912
2748.715, 0.3647730
2749.215, 1.088016
2749.716, 1.951900
2750.216, 1.443383
2750.716, 1.843655
2751.217, 2.269532
2751.717, 5.820946
2752.217, 4.918408
2752.718, 8.492116
2753.218, 9.772324
2753.718, 9.516612
2754.219, 5.246855
2754.719, 0.6661650
2755.219, 3.219951
2755.719, 4.888358
2756.220, 7.551006
2756.720, 6.790299
2757.220, 6.078706
2757.721, 6.807489
2758.221, 8.104664
2758.721, 12.12725
2759.222, 12.98569
2759.722, 12.31370
2760.222, 8.417216
2760.723, 3.259600
2761.223, 1.888562
2761.723, 3.446464
2762.223, 7.552155
2762.724, 8.944773
2763.224, 8.567944
2763.724, 6.233125
2764.225, 5.429300
2764.725, 4.775455
2765.225, 8.042435
2765.726, 5.946858
2766.226, 6.122537
2766.726, 4.084503
2767.227, 8.062527
2767.727, 9.539197
2768.227, 10.42120
2768.728, 10.17213
2769.228, 6.950897
2769.728, 4.789600
2770.229, 2.050774
2770.729, 3.471760
2771.229, 1.215815
2771.729, 3.913193
2772.230, 5.038349
2772.730, 9.482189
2773.230, 9.339197
2773.731, 9.493612
2774.231, 8.251617
2774.731, 8.482546
2775.232, 7.360085
2775.732, 6.380339
2776.232, 3.530107
2776.733, 3.174961
2777.233, 4.527082
2777.733, 6.818087
2778.234, 9.737614
2778.734, 10.03546
2779.234, 8.331423
2779.734, 5.478449
2780.235, 5.489290
2780.735, 8.059206
2781.235, 8.952599
2781.736, 7.250681
2782.236, 5.877789
2782.736, 6.526402
2783.237, 9.638380
2783.737, 8.454098
2784.237, 6.043585
2784.738, 3.984161
2785.238, 6.220819
2785.738, 7.197136
2786.239, 8.092300
2786.739, 4.548019
2787.239, 5.584579
2787.740, 2.071766
2788.240, 3.059032
2788.740, 0.8286400
2789.240, 1.319263
2789.741, 5.397427
2790.241, 10.14811
2790.741, 11.13641
2791.242, 7.388493
2791.742, 2.465805
2792.242, 4.998545
2792.743, 5.509743
2793.243, 8.583435
2793.743, 4.404526
2794.244, 4.472685
2794.744, 3.095581
2795.244, 3.972921
2795.745, 3.556396
2796.245, 2.115753
2796.745, 2.053535
2797.245, 1.425421
2797.746, 0.6209870
2798.246, 1.363274
2798.746, 5.059786
2799.247, 0.7469500
2799.747, 2.046041
2800.247, 1.405352
2800.748, 4.581263
2801.248, 5.519251
2801.748, 7.340658
2802.249, 4.565359
2802.749, 1.944580
2803.249, 1.728477
2803.750, 2.455654
2804.250, 1.912113
2804.750, 3.142235
2805.250, 5.953762
2805.751, 6.356085
2806.251, 5.197887
2806.751, 3.801056
2807.252, 5.842796
2807.752, 5.082932
2808.252, 4.977133
2808.753, 1.009531
2809.253, 1.638218
2809.753, 3.905817
2810.254, 6.685642
2810.754, 4.715195
2811.254, 2.713655
2811.755, 3.581585
2812.255, 0.6436520
2812.755, 3.410383
2813.255, 0.8508380
2813.756, 3.229424
2814.256, 1.031542
2814.756, 1.134102
2815.257, 1.638058
2815.757, 3.750032
2816.257, 7.742443
2816.758, 7.452503
2817.258, 4.359045
2817.758, 3.236288
2818.259, 4.232084
2818.759, 1.798510
2819.259, 4.636335
2819.760, 4.738457
2820.260, 5.884588
2820.760, 5.160604
2821.260, 4.776619
2821.761, 2.163143
2822.261, 1.491314
2822.761, 4.6865001E-02
2823.262, 0.4519410
2823.762, 1.629532
2824.262, 0.1646560
2824.763, 3.1620001E-03
2825.263, 2.214104
2825.763, 4.391127
2826.264, 4.253920
2826.764, 1.311560
2827.264, 0.3645950
2827.765, 0.8976330
2828.265, 1.234369
2828.765, 2.234287
2829.266, 1.560303
2829.766, 1.473925
2830.266, 0.9505690
2830.766, 2.981655
2831.267, 2.983429
2831.767, 1.537760
2832.267, 1.902102
2832.768, 3.318640
2833.268, 5.113220
2833.768, 1.108315
2834.269, 0.3886700
2834.769, 0.3623090
2835.269, 3.453281
2835.770, 3.345198
2836.270, 2.787834
2836.770, 1.099001
2837.271, 4.252466
2837.771, 6.858854
2838.271, 9.492851
2838.771, 8.288893
2839.272, 6.386965
2839.772, 3.718346
2840.272, 2.067350
2840.773, 3.053917
2841.273, 3.115875
2841.773, 5.799913
2842.274, 4.234148
2842.774, 2.159779
2843.274, 0.7421400
2843.775, 0.1234260
2844.275, 3.599081
2844.775, 3.727285
2845.276, 6.184340
2845.776, 4.072380
2846.276, 2.467970
2846.777, 4.438728
2847.277, 10.67686
2847.777, 14.92592
2848.277, 12.68279
2848.778, 10.65305
2849.278, 8.695095
2849.778, 9.723122
2850.279, 10.73452
2850.779, 9.164993
2851.279, 6.852100
2851.780, 6.583153
2852.280, 6.354366
2852.780, 5.777359
2853.281, 4.821224
2853.781, 7.870060
2854.281, 10.57934
2854.781, 10.63734
2855.282, 7.479111
2855.782, 6.460350
2856.282, 6.020920
2856.783, 10.37952
2857.283, 9.591412
2857.783, 10.73869
2858.284, 9.856541
2858.784, 11.20954
2859.284, 11.67572
2859.785, 8.435108
2860.285, 6.275326
2860.785, 4.056126
2861.286, 7.076946
2861.786, 8.104122
2862.286, 7.084236
2862.787, 6.641705
2863.287, 6.766827
2863.787, 8.035294
2864.288, 7.104630
2864.788, 4.989529
2865.288, 7.432484
2865.788, 8.614578
2866.289, 9.540260
2866.789, 4.132992
2867.289, 3.169342
2867.790, 4.267712
2868.290, 8.809753
2868.790, 8.273235
2869.291, 7.803452
2869.791, 5.070198
2870.291, 10.21214
2870.792, 9.756130
2871.292, 12.57504
2871.792, 4.202496
2872.292, 5.782364
2872.793, 6.469772
2873.293, 8.503437
2873.793, 10.08278
2874.294, 7.309914
2874.794, 5.456913
2875.294, 2.194633
2875.795, 3.547504
2876.295, 8.993889
2876.795, 9.368462
2877.296, 6.484119
2877.796, 2.254425
2878.296, 2.951797
2878.797, 4.075474
2879.297, 7.195179
2879.797, 8.547642
2880.298, 10.51678
2880.798, 11.05464
2881.298, 8.979088
2881.799, 5.194508
2882.299, 4.680267
2882.799, 4.366726
2883.299, 8.325401
2883.800, 4.895348
2884.300, 5.434135
2884.800, 3.082241
2885.301, 7.211262
2885.801, 5.814339
2886.301, 4.415379
2886.802, 0.2172550
2887.302, 1.225868
2887.802, 2.855621
2888.302, 6.939053
2888.803, 10.79160
2889.303, 10.26143
2889.803, 11.20134
2890.304, 11.22261
2890.804, 8.263931
2891.304, 3.917259
2891.805, 2.973976
2892.305, 4.107983
2892.805, 5.467403
2893.306, 4.854130
2893.806, 4.961926
2894.306, 5.904526
2894.807, 7.365540
2895.307, 8.691936
2895.807, 5.649082
2896.308, 5.480846
2896.808, 3.881283
2897.308, 6.193008
2897.809, 4.446171
2898.309, 5.827171
2898.809, 7.494503
2899.310, 13.00333
2899.810, 13.68808
2900.310, 14.05357
2900.810, 13.47803
2901.311, 13.74783
2901.811, 12.33670
2902.311, 8.467926
2902.812, 8.996414
2903.312, 11.59756
2903.812, 11.80517
2904.312, 12.69935
2904.813, 11.42891
2905.313, 11.18452
2905.813, 9.219147
2906.314, 12.41060
2906.814, 17.53894
2907.314, 19.26094
2907.815, 14.11391
2908.315, 11.86505
2908.815, 8.495731
2909.316, 7.753647
2909.816, 7.776875
2910.316, 9.890099
2910.817, 11.04034
2911.317, 7.311146
2911.817, 3.764694
2912.318, 7.211296
2912.818, 7.091457
2913.318, 12.25113
2913.819, 12.15051
2914.319, 14.82587
2914.819, 12.64247
2915.320, 8.419071
2915.820, 5.577721
2916.320, 2.185650
2916.821, 3.220116
2917.321, 5.059780
2917.821, 8.796268
2918.321, 7.510406
2918.822, 5.763851
2919.322, 3.025448
2919.822, 4.198368
2920.323, 6.140137
2920.823, 7.347080
2921.323, 5.059170
2921.823, 3.242809
2922.324, 1.592327
2922.824, 3.448872
2923.324, 4.623699
2923.825, 5.395817
2924.325, 4.444378
2924.825, 2.581177
2925.326, 7.375813
2925.826, 8.465008
2926.326, 9.171646
2926.827, 5.052135
2927.327, 4.165737
2927.827, 6.637653
2928.328, 6.198879
2928.828, 9.111923
2929.328, 9.850487
2929.829, 12.59949
2930.329, 11.09164
2930.829, 8.097755
2931.330, 5.885181
2931.830, 6.339420
2932.330, 8.013176
2932.831, 10.96717
2933.331, 10.18169
2933.831, 9.453648
2934.332, 7.043015
2934.832, 9.013927
2935.332, 10.86858
2935.832, 11.86465
2936.333, 11.93633
2936.833, 11.42958
2937.333, 7.970287
2937.834, 6.369968
2938.334, 3.249878
2938.834, 4.115086
2939.334, 4.398346
2939.835, 6.084606
2940.335, 9.381969
2940.835, 6.731995
2941.336, 5.448849
2941.836, 2.061447
2942.336, 5.077869
2942.837, 5.828976
2943.337, 5.939636
2943.837, 1.431194
2944.338, 2.992222
2944.838, 3.786263
2945.338, 8.315399
2945.839, 8.938526
2946.339, 10.04353
2946.839, 9.413189
2947.340, 6.884331
2947.840, 4.319916
2948.340, 1.295517
2948.841, 0.1497730
2949.341, 2.932804
2949.841, 6.268036
2950.342, 4.731590
2950.842, 1.329782
2951.342, 3.367393
2951.843, 0.3053250
2952.343, 2.221758
2952.843, 3.121613
2953.343, 2.793972
2953.844, 5.693312
2954.344, 10.19395
2954.844, 7.307081
2955.345, 7.833710
2955.845, 11.20078
2956.345, 14.73991
2956.845, 13.11071
2957.346, 12.32580
2957.846, 11.40825
2958.346, 13.05974
2958.847, 11.01191
2959.347, 11.88692
2959.847, 9.818581
2960.348, 10.15013
2960.848, 12.32882
2961.348, 13.78328
2961.849, 12.92964
2962.349, 12.73635
2962.849, 12.85940
2963.350, 16.83596
2963.850, 16.17574
2964.350, 15.64925
2964.851, 11.79160
2965.351, 9.267321
2965.851, 9.681164
2966.352, 12.68803
2966.852, 9.622116
2967.352, 10.76465
2967.853, 12.77412
2968.353, 15.18839
2968.853, 14.31388
2969.354, 11.68126
2969.854, 13.63457
2970.354, 15.93380
2970.854, 12.35488
2971.355, 13.66257
2971.855, 9.966179
2972.355, 11.73712
2972.856, 8.769707
2973.356, 9.325813
2973.856, 8.901058
2974.356, 10.64745
2974.857, 8.640671
2975.357, 9.900019
2975.857, 7.083838
2976.358, 8.217548
2976.858, 9.372074
2977.358, 11.80341
2977.859, 8.952139
2978.359, 7.172718
2978.859, 8.395752
2979.360, 10.33119
2979.860, 9.685186
2980.360, 5.287285
2980.861, 5.356377
2981.361, 2.892963
2981.861, 4.517019
2982.362, 3.974850
2982.862, 9.984680
2983.362, 8.926323
2983.863, 6.915213
2984.363, 4.208736
2984.863, 6.056192
2985.364, 10.26723
2985.864, 10.38811
2986.364, 10.32934
2986.865, 8.781277
2987.365, 8.716486
2987.865, 7.790707
2988.365, 6.637367
2988.866, 4.128698
2989.366, 2.282883
2989.866, 4.770309
2990.367, 6.738987
2990.867, 5.551102
2991.367, 4.559034
2991.867, 2.793032
2992.368, 3.701229
2992.868, 4.224464
2993.368, 6.640451
2993.869, 9.131763
2994.369, 11.19305
2994.869, 11.68758
2995.370, 11.33677
2995.870, 8.094376
2996.370, 6.701370
2996.871, 6.756502
2997.371, 5.894411
2997.871, 5.515371
2998.372, 6.445309
2998.872, 8.968317
2999.372, 9.308565
2999.873, 7.256990
3000.373, 5.481493
3000.873, 3.723085
3001.374, 0.6944850
3001.874, 0.2673020
3002.374, 0.9755270
3002.875, 6.305157
3003.375, 6.059261
3003.875, 8.055489
3004.375, 6.154100
3004.876, 7.266907
3005.376, 5.170429
3005.876, 3.733057
3006.377, 4.238132
3006.877, 8.708664
3007.377, 9.384298
3007.878, 8.779646
3008.378, 7.430550
3008.878, 7.341099
3009.378, 7.238750
3009.879, 6.312195
3010.379, 11.44101
3010.879, 12.89451
3011.380, 12.65749
3011.880, 6.242680
3012.380, 4.451653
3012.881, 4.622650
3013.381, 6.119848
3013.881, 4.498827
3014.382, 2.893707
3014.882, 3.858208
3015.382, 7.283522
3015.883, 8.177393
3016.383, 10.16087
3016.883, 7.903099
3017.384, 5.599785
3017.884, 1.775475
3018.384, 0.6294920
3018.885, 1.196968
3019.385, 3.371151
3019.885, 7.748222
3020.385, 8.194231
3020.886, 8.697283
3021.386, 6.049444
3021.886, 6.641771
3022.387, 5.169771
3022.887, 4.991102
3023.387, 3.629166
3023.888, 2.259068
3024.388, 1.671879
3024.888, 2.691193
3025.389, 4.152639
3025.889, 5.214516
3026.389, 5.810833
3026.889, 2.345070
3027.390, 0.6225340
3027.890, 2.001091
3028.390, 0.2218060
3028.891, 1.416483
3029.391, 3.219437
3029.891, 4.978062
3030.392, 5.081974
3030.892, 5.635782
3031.392, 2.175539
3031.893, 2.866085
3032.393, 1.607649
3032.893, 3.441271
3033.394, 1.167320
3033.894, 2.562887
3034.394, 2.281324
3034.895, 0.8504010
3035.395, 1.189278
3035.895, 1.252531
3036.396, 2.114761
3036.896, 2.744358
3037.396, 2.462994
3037.896, 3.957445
3038.397, 1.048971
3038.897, 1.611135
3039.397, 1.598560
3039.898, 3.636194
3040.398, 5.186180
3040.898, 4.389095
3041.399, 1.928116
3041.899, 2.109684
3042.399, 3.802902
3042.900, 5.069218
3043.400, 4.283520
3043.900, 3.500340
3044.400, 2.848907
3044.901, 1.705601
3045.401, 1.834938
3045.901, 3.884769
3046.402, 2.052273
3046.902, 2.024708
3047.402, 1.492268
3047.903, 4.428135
3048.403, 3.786964
3048.903, 4.177002
3049.404, 3.845314
3049.904, 5.705116
3050.404, 3.546627
3050.905, 4.145939
3051.405, 4.114147
3051.905, 4.122925
3052.406, 1.242821
3052.906, 0.7033650
3053.406, 4.547318
3053.906, 5.879631
3054.407, 3.921124
3054.907, 0.1933820
3055.407, 1.543114
3055.908, 4.125538
3056.408, 5.330383
3056.908, 6.099907
3057.409, 3.801102
3057.909, 2.373226
3058.409, 2.118607
3058.910, 3.807076
3059.410, 4.934410
3059.910, 3.282536
3060.411, 3.899399
3060.911, 4.220177
3061.411, 10.31946
3061.911, 8.319294
3062.412, 9.633389
3062.912, 6.220009
3063.412, 8.470085
3063.913, 6.626858
3064.413, 7.863560
3064.913, 6.405655
3065.414, 8.157825
3065.914, 8.617882
3066.414, 9.209595
3066.915, 5.908947
3067.415, 0.3818860
3067.915, 2.898369
3068.416, 5.621979
3068.916, 10.12907
3069.416, 7.354416
3069.917, 6.123775
3070.417, 0.7149430
3070.917, 1.342815
3071.417, 0.8313980
3071.918, 4.814651
3072.418, 7.057922
3072.918, 3.973900
3073.419, 0.1149220
3073.919, 1.092407
3074.419, 0.5658040
3074.920, 1.631401
3075.420, 2.093422
3075.920, 3.248543
3076.421, 2.767509
3076.921, 1.892502
3077.421, 0.8759540
3077.922, 1.184097
3078.422, 0.6396180
3078.922, 2.616966
3079.422, 1.376625
3079.923, 0.7863920
3080.423, 1.920609
3080.923, 3.463188
3081.424, 1.196495
3081.924, 4.190437
3082.424, 4.266975
3082.925, 0.5973890
3083.425, 0.9078980
3083.925, 2.968628
3084.426, 4.278091
3084.926, 3.523727
3085.426, 2.854515
3085.927, 3.170013
3086.427, 4.867950
3086.927, 5.778336
3087.427, 4.877975
3087.928, 2.294884
3088.428, 0.2783810
3088.928, 9.2589997E-02
3089.429, 1.433121
3089.929, 0.2716370
3090.429, 1.063339
3090.930, 2.443970
3091.430, 0.2484130
3091.930, 8.5608996E-02
3092.431, 0.4826510
3092.931, 0.2928540
3093.431, 3.934059
3093.932, 2.129417
3094.432, 1.984833
3094.932, 0.7063290
3095.433, 2.504639
3095.933, 3.629433
3096.433, 3.465042
3096.933, 1.915871
3097.434, 0.2321930
3097.934, 0.3924480
3098.434, 3.364670
3098.935, 4.866241
3099.435, 3.211197
3099.935, 0.8486020
3100.436, 0.4982910
3100.936, 0.5834500
3101.436, 0.1237490
3101.937, 0.6632920
3102.437, 0.7365420
3102.937, 1.749641
3103.438, 0.3460920
3103.938, 0.5130620
3104.438, 3.929977
3104.938, 4.825287
3105.439, 5.905304
3105.939, 9.1141000E-02
3106.439, 4.955215
3106.940, 6.067978
3107.440, 6.381088
3107.940, 1.741348
3108.441, 1.717224
3108.941, 0.9967040
3109.441, 4.138458
3109.942, 4.526688
3110.442, 1.514999
3110.942, 0.8126370
3111.443, 0.6188960
3111.943, 0.5026090
3112.443, 0.7929380
3112.944, 1.971512
3113.444, 2.063278
3113.944, 1.872742
3114.444, 3.027191
3114.945, 5.945999
3115.445, 2.927109
3115.945, 0.9922330
3116.446, 3.221893
3116.946, 3.330551
3117.446, 3.493073
3117.947, 4.464447
3118.447, 7.604309
3118.947, 9.470718
3119.448, 11.84735
3119.948, 8.967178
3120.448, 9.126114
3120.948, 3.313858
3121.449, 4.214615
3121.949, 2.004196
3122.449, 3.364304
3122.950, 2.606476
3123.450, 0.8493960
3123.950, 0.6007540
3124.451, 3.430603
3124.951, 6.327835
3125.451, 6.998962
3125.952, 6.503311
3126.452, 6.608795
3126.952, 4.564224
3127.453, 5.117523
3127.953, 6.442352
3128.453, 6.089859
3128.954, 7.193649
3129.454, 8.771637
3129.954, 10.78497
3130.455, 11.22609
3130.955, 10.09108
3131.455, 12.55234
3131.955, 10.91937
3132.456, 9.748871
3132.956, 5.790314
3133.456, 5.209518
3133.957, 6.644119
3134.457, 5.360550
3134.957, 8.323349
3135.458, 9.958450
3135.958, 15.55983
3136.458, 12.12291
3136.958, 10.45833
3137.459, 7.501968
3137.959, 7.451431
3138.459, 5.275696
3138.960, 5.581314
3139.460, 6.286514
3139.960, 10.90152
3140.461, 11.83714
3140.961, 10.60124
3141.461, 7.243027
3141.962, 8.230148
3142.462, 8.442490
3142.962, 10.17502
3143.463, 6.772385
3143.963, 8.876312
3144.463, 13.65584
3144.964, 18.14708
3145.464, 21.40578
3145.964, 20.42082
3146.465, 18.27618
3146.965, 11.03537
3147.465, 5.859222
3147.966, 3.523743
3148.466, 9.973999
3148.966, 13.42570
3149.466, 19.76768
3149.967, 17.02924
3150.467, 15.20607
3150.967, 15.24023
3151.468, 14.47675
3151.968, 16.16588
3152.468, 13.29314
3152.969, 18.33156
3153.469, 19.30089
3153.969, 18.84621
3154.469, 13.19649
3154.970, 12.35429
3155.470, 10.98877
3155.970, 11.83673
3156.471, 9.395462
3156.971, 10.76402
3157.471, 10.52754
3157.972, 11.72455
3158.472, 11.07463
3158.972, 10.91454
3159.473, 11.15802
3159.973, 15.52521
3160.473, 16.46222
3160.974, 16.88676
3161.474, 13.91187
3161.974, 15.45824
3162.475, 19.57204
3162.975, 21.39191
3163.475, 18.07866
3163.976, 13.69064
3164.476, 11.44400
3164.976, 11.57530
3165.477, 11.87239
3165.977, 15.86404
3166.477, 20.56244
3166.977, 20.94431
3167.478, 19.74297
3167.978, 18.24335
3168.478, 18.52673
3168.979, 17.31284
3169.479, 17.01292
3169.979, 15.79863
3170.479, 17.48375
3170.980, 19.57111
3171.480, 21.36884
3171.980, 19.56789
3172.481, 23.30452
3172.981, 19.56924
3173.481, 22.30527
3173.982, 17.20682
3174.482, 21.20016
3174.982, 18.92023
3175.483, 23.03983
3175.983, 20.79715
3176.483, 23.16138
3176.984, 16.46347
3177.484, 17.90176
3177.984, 14.08423
3178.485, 21.23337
3178.985, 21.68518
3179.485, 25.13901
3179.986, 22.96164
3180.486, 26.81656
3180.986, 26.98242
3181.487, 29.20499
3181.987, 28.02374
3182.487, 27.64157
3182.988, 24.05984
3183.488, 25.24243
3183.988, 29.27258
3184.488, 31.98694
3184.989, 28.23724
3185.489, 24.64081
3185.989, 26.32544
3186.490, 32.83517
3186.990, 33.76346
3187.490, 32.01297
3187.990, 28.14465
3188.491, 30.23962
3188.991, 31.34314
3189.491, 32.81946
3189.992, 32.46634
3190.492, 31.28137
3190.992, 32.58575
3191.493, 34.74725
3191.993, 37.57651
3192.493, 34.55179
3192.994, 33.08011
3193.494, 28.56274
3193.994, 32.62234
3194.495, 30.49994
3194.995, 32.94348
3195.495, 29.48975
3195.996, 29.87643
3196.496, 32.04932
3196.996, 34.19415
3197.497, 39.10226
3197.997, 39.45151
3198.497, 40.30017
3198.998, 39.17862
3199.498, 38.87747
3199.998, 36.43417
3200.499, 38.02963
3200.999, 39.75378
3201.499, 42.07843
3201.999, 38.49982
3202.500, 35.86819
3203.000, 34.35037
3203.500, 33.85962
3204.001, 30.94366
3204.501, 32.19351
3205.001, 31.49405
3205.501, 29.18097
3206.002, 31.05582
3206.502, 34.51025
3207.002, 41.59146
3207.503, 41.23938
3208.003, 41.31610
3208.503, 33.39334
3209.004, 37.89883
3209.504, 33.76669
3210.004, 39.92307
3210.505, 35.95566
3211.005, 37.96402
3211.505, 41.49353
3212.006, 46.86505
3212.506, 49.96097
3213.006, 51.12323
3213.507, 46.04837
3214.007, 42.99930
3214.507, 41.21246
3215.008, 36.81445
3215.508, 37.24960
3216.008, 36.00119
3216.509, 39.44806
3217.009, 40.75433
3217.509, 40.85181
3218.010, 43.65601
3218.510, 40.60477
3219.010, 35.36069
3219.510, 31.37878
3220.011, 36.18646
3220.511, 41.17419
3221.011, 36.74268
3221.512, 34.99374
3222.012, 33.42172
3222.512, 38.53207
3223.012, 36.73590
3223.513, 36.93097
3224.013, 37.31433
3224.513, 38.51709
3225.014, 40.48651
3225.514, 39.25571
3226.014, 38.50522
3226.515, 35.51968
3227.015, 35.31586
3227.515, 36.70874
3228.016, 39.71341
3228.516, 36.00977
3229.016, 38.68353
3229.517, 38.32443
3230.017, 39.63779
3230.517, 32.91345
3231.018, 30.39001
3231.518, 33.74277
3232.018, 31.20648
3232.519, 32.43256
3233.019, 31.23627
3233.519, 38.94763
3234.020, 38.68887
3234.520, 38.93250
3235.020, 38.07358
3235.521, 37.87054
3236.021, 37.18781
3236.521, 35.38690
3237.021, 35.15347
3237.522, 40.49026
3238.022, 38.88354
3238.522, 40.67892
3239.023, 32.25177
3239.523, 32.47357
3240.023, 28.19296
3240.523, 33.22778
3241.024, 33.43008
3241.524, 33.03671
3242.024, 30.87097
3242.525, 32.06433
3243.025, 31.03375
3243.525, 33.38159
3244.026, 31.76004
3244.526, 37.03693
3245.026, 31.48703
3245.527, 31.31052
3246.027, 27.29861
3246.527, 29.67346
3247.028, 30.29388
3247.528, 31.86633
3248.028, 33.85400
3248.529, 38.56000
3249.029, 38.90765
3249.529, 37.45898
3250.030, 34.04987
3250.530, 36.93045
3251.030, 39.09579
3251.531, 41.82037
3252.031, 37.58118
3252.531, 34.36810
3253.031, 27.96832
3253.532, 29.86234
3254.032, 29.42444
3254.532, 27.00415
3255.033, 22.05353
3255.533, 21.81989
3256.033, 23.50024
3256.534, 23.70398
3257.034, 22.56775
3257.534, 20.90820
3258.034, 20.89026
3258.535, 19.08551
3259.035, 22.81570
3259.535, 26.62799
3260.036, 28.27451
3260.536, 25.45953
3261.036, 22.08640
3261.537, 21.92941
3262.037, 26.90811
3262.537, 26.47916
3263.038, 25.85233
3263.538, 22.19540
3264.038, 22.97690
3264.539, 21.42154
3265.039, 18.35367
3265.539, 18.65448
3266.040, 20.78323
3266.540, 23.09375
3267.040, 25.46085
3267.541, 21.08356
3268.041, 20.37677
3268.541, 20.80978
3269.042, 24.81607
3269.542, 22.81320
3270.042, 15.00110
3270.542, 13.47638
3271.043, 16.05359
3271.543, 17.80618
3272.043, 16.15805
3272.544, 17.83636
3273.044, 19.19974
3273.544, 19.69370
3274.045, 17.25696
3274.545, 14.75668
3275.045, 15.92694
3275.545, 14.72824
3276.046, 16.78558
3276.546, 15.85645
3277.046, 13.63806
3277.547, 13.37097
3278.047, 12.47717
3278.547, 13.77087
3279.048, 12.38440
3279.548, 14.52711
3280.048, 10.03807
3280.549, 11.28596
3281.049, 7.941757
3281.549, 12.81828
3282.050, 11.86424
3282.550, 12.58240
3283.050, 12.12045
3283.551, 11.56805
3284.051, 12.28235
3284.551, 9.758621
3285.052, 9.471512
3285.552, 8.628815
3286.052, 10.29860
3286.552, 15.32410
3287.053, 14.24338
3287.553, 12.66240
3288.053, 7.543686
3288.554, 7.433487
3289.054, 6.958420
3289.554, 6.666550
3290.055, 9.047867
3290.555, 13.27213
3291.055, 14.58910
3291.556, 13.65854
3292.056, 6.962692
3292.556, 6.621307
3293.056, 4.506042
3293.557, 8.506622
3294.057, 7.056381
3294.557, 5.802765
3295.058, 3.548691
3295.558, 0.8415680
3296.058, 4.093719
3296.559, 3.779221
3297.059, 6.014023
3297.559, 6.229340
3298.060, 8.262589
3298.560, 6.225891
3299.060, 3.434265
3299.561, 5.558914
3300.061, 6.844223
3300.561, 3.961395
3301.062, 2.491577
3301.562, 1.301376
3302.062, 5.507309
3302.562, 5.041473
3303.063, 9.460617
3303.563, 8.627930
3304.063, 5.213211
3304.564, 2.294754
3305.064, 2.846039
3305.564, 3.817642
3306.065, 3.027191
3306.565, 0.4415280
3307.065, 2.008820
3307.566, 4.340576
3308.066, 8.543793
3308.566, 8.000778
3309.067, 4.716263
3309.567, 6.402985
3310.067, 6.962341
3310.567, 11.55536
3311.068, 6.613266
3311.568, 5.206223
3312.068, 1.158203
3312.569, 3.413788
3313.069, 1.227814
3313.569, 0.1194760
3314.070, 5.354156
3314.570, 3.273834
3315.070, 1.864944
3315.571, 1.991638
3316.071, 0.1265110
3316.571, 1.008423
3317.072, 0.1477200
3317.572, 2.342712
3318.072, 1.087494
3318.573, 2.718369
3319.073, 4.840729
3319.573, 0.3158260
3320.073, 1.826584
3320.574, 2.340271
3321.074, 0.9216920
3321.574, 7.3013000E-02
3322.075, 7.8185998E-02
3322.575, 2.195206
3323.075, 4.953491
3323.576, 7.312607
3324.076, 7.794052
3324.576, 3.956299
3325.077, 3.964127
3325.577, 2.227112
3326.077, 4.252899
3326.578, 4.220627
3327.078, 1.674713
3327.578, 0.3037110
3328.078, 1.668732
3328.579, 2.934265
3329.079, 3.039124
3329.579, 0.9596250
3330.080, 1.150940
3330.580, 0.4096980
3331.080, 1.010330
3331.581, 2.095276
3332.081, 2.379440
3332.581, 1.926239
3333.082, 0.8950960
3333.582, 2.019958
3334.082, 2.526672
3334.583, 1.146072
3335.083, 0.6224060
3335.583, 1.440125
3336.083, 1.228271
3336.584, 1.478516
3337.084, 1.814606
3337.584, 0.4146270
3338.085, 1.107925
3338.585, 3.494858
3339.085, 3.405167
3339.586, 2.270798
3340.086, 3.262070
3340.586, 2.479156
3341.087, 2.885635
3341.587, 2.684784
3342.087, 2.850464
3342.588, 1.176895
3343.088, 0.7348790
3343.588, 2.221832
3344.089, 3.479523
3344.589, 1.267883
3345.089, 0.8173220
3345.589, 1.492050
3346.090, 5.524673
3346.590, 4.795822
3347.090, 2.420685
3347.591, 1.707649
3348.091, 3.697655
3348.591, 6.098213
3349.092, 0.2313460
3349.592, 3.9168999E-02
3350.092, 3.873360
3350.593, 0.9793930
3351.093, 2.358727
3351.593, 5.202446
3352.094, 2.481873
3352.594, 1.431900
3353.094, 0.7412640
3353.594, 3.152184
3354.095, 3.423897
3354.595, 2.767700
3355.095, 2.254784
3355.596, 1.716972
3356.096, 2.614372
3356.596, 3.162712
3357.097, 3.673218
3357.597, 5.338097
3358.097, 2.133034
3358.598, 2.162727
3359.098, 2.528938
3359.598, 5.812820
3360.099, 2.792221
3360.599, 1.175583
3361.099, 0.4506610
3361.600, 0.9510500
3362.100, 1.351097
3362.600, 1.625862
3363.100, 2.357819
3363.601, 0.4886020
3364.101, 1.989082
3364.601, 3.139793
3365.102, 1.662231
3365.602, 2.671005
3366.102, 4.864754
3366.603, 5.932968
3367.103, 4.841927
3367.603, 4.072281
3368.104, 5.748032
3368.604, 5.246056
3369.104, 1.247078
3369.604, 0.1037370
3370.105, 1.207573
3370.605, 1.140282
3371.105, 2.140068
3371.606, 4.517578
3372.106, 6.618065
3372.606, 3.814362
3373.107, 2.438126
3373.607, 1.772079
3374.107, 4.724739
3374.608, 3.737839
3375.108, 1.663643
3375.608, 1.683853
3376.109, 2.222473
3376.609, 6.025429
3377.109, 6.567848
3377.610, 7.852959
3378.110, 5.957390
3378.610, 3.005539
3379.111, 2.273819
3379.611, 5.534592
3380.111, 6.558807
3380.611, 10.10892
3381.112, 7.668510
3381.612, 8.335716
3382.112, 6.730812
3382.613, 7.682076
3383.113, 7.834122
3383.613, 3.234062
3384.114, 4.313232
3384.614, 4.450363
3385.114, 9.112896
3385.615, 7.741699
3386.115, 6.593769
3386.615, 2.173504
3387.115, 1.071705
3387.616, 1.555298
3388.116, 4.495472
3388.616, 4.367832
3389.117, 3.449738
3389.617, 2.772137
3390.117, 1.280117
3390.618, 1.473873
3391.118, 0.7111400
3391.618, 1.163784
3392.119, 6.446358
3392.619, 8.536221
3393.119, 9.884727
3393.620, 10.03233
3394.120, 8.011414
3394.620, 5.903439
3395.121, 4.585945
3395.621, 3.861336
3396.121, 2.012836
3396.622, 2.189106
3397.122, 2.085510
3397.622, 6.100822
3398.122, 3.822861
3398.623, 7.690704
3399.123, 8.415886
3399.623, 10.97534
3400.124, 9.062630
3400.624, 9.871098
3401.124, 13.76592
3401.625, 13.27420
3402.125, 9.164593
3402.625, 4.444702
3403.125, 4.234573
3403.626, 6.098438
3404.126, 7.316261
3404.626, 5.994698
3405.127, 9.485325
3405.627, 9.390678
3406.127, 11.10962
3406.628, 7.698414
3407.128, 8.456982
3407.628, 10.69083
3408.129, 11.23721
3408.629, 8.490784
3409.129, 5.437645
3409.630, 6.935139
3410.130, 6.921486
3410.630, 7.675819
3411.131, 5.817852
3411.631, 5.019978
3412.131, 4.381462
3412.632, 0.3046880
3413.132, 0.2267110
3413.632, 1.011948
3414.133, 3.591125
3414.633, 3.437057
3415.133, 2.629299
3415.633, 1.800892
3416.134, 2.756813
3416.634, 3.007053
3417.134, 2.216108
3417.635, 2.766422
3418.135, 4.620337
3418.635, 7.750525
3419.135, 8.871735
3419.636, 7.256557
3420.136, 5.414860
3420.636, 4.719698
3421.137, 5.166695
3421.637, 4.199087
3422.137, 4.268394
3422.638, 4.104969
3423.138, 4.162050
3423.638, 3.387840
3424.139, 2.421875
3424.639, 3.552298
3425.139, 3.564344
3425.640, 3.717312
3426.140, 2.719320
3426.640, 1.754040
3427.141, 2.476652
3427.641, 5.515388
3428.141, 8.419199
3428.642, 7.216627
3429.142, 5.471283
3429.642, 3.898527
3430.143, 4.662569
3430.643, 5.311163
3431.143, 6.240395
3431.644, 5.820208
3432.144, 4.999348
3432.644, 6.776690
3433.144, 8.747715
3433.645, 10.08647
3434.145, 8.223907
3434.645, 6.666122
3435.146, 6.899940
3435.646, 7.715239
3436.146, 6.239967
3436.646, 5.949654
3437.147, 5.536707
3437.647, 7.221449
3438.147, 7.834511
3438.648, 9.210213
3439.148, 10.52307
3439.648, 10.86994
3440.149, 6.185892
3440.649, 5.107878
3441.149, 4.580519
3441.650, 6.554073
3442.150, 8.732153
3442.650, 9.444272
3443.151, 11.19315
3443.651, 10.15977
3444.151, 9.841883
3444.652, 8.507758
3445.152, 7.752690
3445.652, 5.157297
3446.153, 7.839771
3446.653, 8.455828
3447.153, 9.362067
3447.654, 9.003196
3448.154, 8.990784
3448.654, 10.71652
3449.155, 10.30642
3449.655, 11.97219
3450.155, 11.72027
3450.655, 12.22564
3451.156, 11.65884
3451.656, 11.96939
3452.156, 10.65255
3452.657, 11.35619
3453.157, 11.91705
3453.657, 12.59771
3454.157, 12.49264
3454.658, 14.18319
3455.158, 13.60270
3455.658, 12.07078
3456.159, 11.16524
3456.659, 13.87331
3457.159, 12.29766
3457.660, 11.15428
3458.160, 7.660620
3458.660, 10.54443
3459.161, 11.44814
3459.661, 12.06898
3460.161, 11.84486
3460.662, 11.61505
3461.162, 12.33280
3461.662, 9.461549
3462.163, 7.614203
3462.663, 7.180010
3463.163, 7.938345
3463.664, 11.44478
3464.164, 12.27997
3464.664, 14.43865
3465.165, 13.73517
3465.665, 12.93326
3466.165, 10.28114
3466.666, 7.752672
3467.166, 9.665128
3467.666, 12.21114
3468.166, 14.17234
3468.667, 12.62095
3469.167, 13.44139
3469.667, 12.13838
3470.168, 13.37101
3470.668, 12.25377
3471.168, 13.06988
3471.668, 10.08272
3472.169, 9.478552
3472.669, 9.430069
3473.169, 11.29186
3473.670, 12.30439
3474.170, 13.05261
3474.670, 13.22711
3475.171, 12.65309
3475.671, 13.93923
3476.171, 14.53768
3476.672, 13.43445
3477.172, 9.069798
3477.672, 9.310350
3478.173, 9.054667
3478.673, 9.968291
3479.173, 9.478634
3479.674, 9.582854
3480.174, 9.650468
3480.674, 7.153377
3481.175, 6.082376
3481.675, 4.049766
3482.175, 5.322536
3482.676, 3.265761
3483.176, 2.728390
3483.676, 2.449330
3484.177, 6.937439
3484.677, 10.71864
3485.177, 11.41189
3485.677, 9.405419
3486.178, 6.543123
3486.678, 6.338626
3487.178, 6.526235
3487.679, 6.959288
3488.179, 5.955885
3488.679, 7.002264
3489.179, 6.145941
3489.680, 8.221071
3490.180, 6.343455
3490.680, 8.099758
3491.181, 8.059545
3491.681, 11.52990
3492.181, 11.98242
3492.682, 10.09728
3493.182, 9.450174
3493.682, 10.78874
3494.183, 8.250821
3494.683, 6.396615
3495.183, 6.640445
3495.684, 9.891527
3496.184, 10.07869
3496.684, 6.627497
3497.185, 5.892819
3497.685, 7.169366
3498.185, 8.720338
3498.686, 7.418736
3499.186, 8.351404
3499.686, 7.949875
3500.187, 8.204626
3500.687, 5.163861
3501.187, 6.274609
3501.688, 8.019367
3502.188, 11.23246
3502.688, 11.85408
3503.188, 11.05383
3503.689, 7.156339
3504.189, 4.829657
3504.689, 5.334472
3505.190, 7.310824
3505.690, 6.420286
3506.190, 6.879205
3506.690, 5.418476
3507.191, 8.555795
3507.691, 8.960151
3508.191, 9.303391
3508.692, 6.976354
3509.192, 7.132767
3509.692, 6.684864
3510.193, 8.038411
3510.693, 5.380730
3511.193, 5.712611
3511.694, 4.672986
3512.194, 4.248867
3512.694, 4.029932
3513.195, 5.453544
3513.695, 5.900090
3514.195, 8.917192
3514.696, 8.712858
3515.196, 11.30808
3515.696, 9.560882
3516.197, 8.867228
3516.697, 6.488593
3517.197, 4.285065
3517.698, 4.288997
3518.198, 8.406670
3518.698, 8.776283
3519.198, 10.66797
3519.699, 8.052473
3520.199, 6.712626
3520.699, 6.290503
3521.200, 5.215751
3521.700, 9.247654
3522.200, 10.52324
3522.701, 10.70625
3523.201, 11.77125
3523.701, 9.998827
3524.201, 11.16920
3524.702, 8.989801
3525.202, 10.84547
3525.702, 10.90981
3526.203, 11.99029
3526.703, 9.824820
3527.203, 9.439028
3527.704, 9.068501
3528.204, 8.500878
3528.704, 8.101327
3529.205, 7.056946
3529.705, 5.758827
3530.205, 6.942636
3530.706, 7.434126
3531.206, 7.462765
3531.706, 7.180203
3532.207, 6.786502
3532.707, 9.782910
3533.207, 8.489186
3533.708, 8.768321
3534.208, 6.256878
3534.708, 5.820893
3535.208, 2.227072
3535.709, 0.5794280
3536.209, 0.7533710
3536.709, 4.100404
3537.210, 5.390055
3537.710, 6.240063
3538.210, 5.466002
3538.711, 4.898453
3539.211, 3.230883
3539.711, 2.505597
3540.212, 5.209626
3540.712, 7.063730
3541.212, 9.518070
3541.712, 8.789823
3542.213, 8.059048
3542.713, 5.474296
3543.213, 4.772682
3543.714, 1.976531
3544.214, 1.204077
3544.714, 1.945283
3545.215, 6.367999
3545.715, 8.169315
3546.215, 7.876299
3546.716, 8.143509
3547.216, 9.355961
3547.716, 10.28329
3548.217, 7.014144
3548.717, 6.405900
3549.217, 4.692584
3549.718, 5.681102
3550.218, 5.201649
3550.718, 4.100430
3551.219, 5.379610
3551.719, 2.521432
3552.219, 1.183410
3552.719, 2.107990
3553.220, 1.335748
3553.720, 0.7743080
3554.220, 1.128404
3554.721, 2.201415
3555.221, 0.6606200
3555.721, 3.3826999E-02
3556.222, 0.9482190
3556.722, 5.886743
3557.222, 7.018752
3557.723, 6.362627
3558.223, 5.164930
3558.723, 3.725751
3559.223, 1.752069
3559.724, 1.525782
3560.224, 1.447878
3560.724, 2.155000
3561.225, 3.670579
3561.725, 6.012221
3562.225, 5.686911
3562.726, 4.674030
3563.226, 1.423624
3563.726, 1.279727
3564.227, 1.098824
3564.727, 1.692099
3565.227, 1.963991
3565.728, 2.166189
3566.228, 2.9076001E-02
3566.728, 4.727915
3567.229, 1.040071
3567.729, 0.3224790
3568.229, 1.793828
3568.729, 2.915154
3569.230, 0.7467360
3569.730, 0.9159090
3570.230, 1.501657
3570.731, 0.1146800
3571.231, 1.871874
3571.731, 3.351551
3572.232, 1.757104
3572.732, 2.926580
3573.232, 3.479983
3573.733, 7.213305
3574.233, 5.813931
3574.733, 1.656214
3575.234, 0.5994420
3575.734, 2.069152
3576.234, 1.773678
3576.734, 1.879582
3577.235, 1.268054
3577.735, 1.840968
3578.235, 2.882971
3578.736, 5.041043
3579.236, 4.327454
3579.736, 5.750495
3580.237, 6.320273
3580.737, 7.511642
3581.237, 5.866608
3581.738, 0.8719760
3582.238, 2.682035
3582.738, 2.439775
3583.239, 0.9669300
3583.739, 2.225427
3584.239, 8.2209997E-02
3584.740, 1.049189
3585.240, 3.517218
3585.740, 7.359317
3586.240, 6.674462
3586.741, 5.901451
3587.241, 4.089220
3587.741, 4.226269
3588.242, 3.356704
3588.742, 3.685111
3589.242, 2.037376
3589.743, 1.810696
3590.243, 1.946342
3590.743, 1.661916
3591.244, 1.553716
3591.744, 1.215866
3592.244, 4.441054
3592.745, 4.921984
3593.245, 5.236719
3593.745, 2.010936
3594.245, 4.0612001E-02
3594.746, 0.7156540
3595.246, 0.8022400
3595.746, 4.371935
3596.247, 5.940282
3596.747, 6.466775
3597.247, 6.529932
3597.748, 7.711473
3598.248, 6.964796
3598.748, 5.152513
3599.249, 5.509258
3599.749, 7.269832
3600.249, 6.599661
3600.750, 3.240767
3601.250, 1.268231
3601.750, 3.399063
3602.250, 4.169457
3602.751, 5.455247
3603.251, 5.149107
3603.751, 4.813941
3604.252, 3.942581
3604.752, 1.801328
3605.252, 1.648790
3605.753, 1.971812
3606.253, 2.834588
3606.753, 3.040543
3607.254, 1.195660
3607.754, 3.831932
3608.254, 4.039314
3608.755, 4.352976
3609.255, 0.5259000
3609.755, 1.206202
3610.255, 0.5067690
3610.756, 2.972992
3611.256, 3.255075
3611.756, 1.190816
3612.257, 0.2334020
3612.757, 2.442356
3613.257, 4.460668
3613.758, 3.844452
3614.258, 5.301560
3614.758, 5.821798
3615.259, 7.091688
3615.759, 4.618260
3616.259, 4.101376
3616.760, 3.557662
3617.260, 4.449204
3617.760, 4.892536
3618.260, 5.419553
3618.761, 4.847877
3619.261, 6.412145
3619.761, 5.965766
3620.262, 6.729929
3620.762, 4.754227
3621.262, 2.788219
3621.763, 2.613260
3622.263, 0.9292110
3622.763, 3.566101
3623.264, 1.834089
3623.764, 3.792927
3624.264, 4.321819
3624.765, 5.552358
3625.265, 3.950534
3625.765, 4.125087
3626.266, 3.693613
3626.766, 5.897126
3627.266, 7.678778
3627.766, 8.424006
3628.267, 7.382755
3628.767, 5.744569
3629.267, 4.976173
3629.768, 3.587282
3630.268, 1.991720
3630.768, 2.395596
3631.269, 2.308310
3631.769, 3.061430
3632.269, 3.769878
3632.770, 5.846644
3633.270, 5.785958
3633.770, 3.250341
3634.271, 2.853006
3634.771, 2.027401
3635.271, 5.251377
3635.771, 4.624121
3636.272, 2.945650
3636.772, 1.126869
3637.272, 2.5656000E-02
3637.773, 3.180119
3638.273, 4.643106
3638.773, 4.722013
3639.274, 2.370441
3639.774, 1.540474
3640.274, 1.765577
3640.775, 4.512386
3641.275, 3.459564
3641.775, 5.189543
3642.276, 2.666348
3642.776, 2.757626
3643.276, 2.110363
3643.777, 1.955513
3644.277, 0.3636440
3644.777, 0.7064720
3645.277, 1.840586
3645.778, 4.400276
3646.278, 4.376411
3646.778, 5.328129
3647.279, 6.831440
3647.779, 6.990802
3648.279, 6.788727
3648.780, 3.983763
3649.280, 2.823254
3649.780, 1.539888
3650.281, 3.937372
3650.781, 3.049042
3651.281, 4.595774
3651.781, 3.167103
3652.282, 4.147192
3652.782, 2.572889
3653.282, 2.261431
3653.783, 2.126377
3654.283, 4.014730
3654.783, 4.076401
3655.284, 5.917826
3655.784, 6.311932
3656.284, 6.464470
3656.785, 4.947784
3657.285, 2.294155
3657.785, 2.340734
3658.286, 3.432789
3658.786, 5.586363
3659.286, 6.753561
3659.787, 8.064314
3660.287, 6.099426
3660.787, 4.965012
3661.288, 4.339325
3661.788, 5.333351
3662.288, 6.287201
3662.788, 6.347807
3663.289, 6.008854
3663.789, 6.327723
3664.289, 7.514631
3664.790, 8.308580
3665.290, 9.256723
3665.790, 6.175442
3666.291, 6.292702
3666.791, 2.806005
3667.291, 2.281485
3667.792, 2.810066
3668.292, 2.518412
3668.792, 3.864019
3669.292, 4.597548
3669.793, 6.685066
3670.293, 7.646074
3670.793, 5.908594
3671.294, 8.054472
3671.794, 6.336071
3672.294, 6.063578
3672.795, 5.101963
3673.295, 6.329046
3673.795, 7.200171
3674.296, 4.873177
3674.796, 2.929861
3675.296, 3.135189
3675.797, 2.079376
3676.297, 3.023815
3676.797, 1.475695
3677.298, 0.3142950
3677.798, 0.8256840
3678.298, 2.099678
3678.799, 0.1014600
3679.299, 0.2963100
3679.799, 0.8330460
3680.299, 2.121271
3680.800, 3.611542
3681.300, 7.497347
3681.800, 6.653362
3682.301, 6.530470
3682.801, 1.740499
3683.301, 1.010284
3683.802, 0.5289760
3684.302, 2.251543
3684.802, 4.409435
3685.302, 5.347523
3685.803, 4.751041
3686.303, 3.426292
3686.803, 4.196655
3687.304, 0.9923760
3687.804, 0.1808170
3688.304, 0.6224580
3688.805, 3.725704
3689.305, 7.436518
3689.805, 7.136253
3690.306, 7.664820
3690.806, 4.514318
3691.306, 3.903086
3691.807, 2.399084
3692.307, 3.758047
3692.807, 3.945305
3693.308, 4.714056
3693.808, 2.750708
3694.308, 2.712879
3694.809, 0.9423180
3695.309, 3.269663
3695.809, 5.890518
3696.310, 6.675037
3696.810, 5.684603
3697.310, 2.346390
3697.810, 3.945286
3698.311, 3.699308
3698.811, 2.945984
3699.311, 1.512102
3699.812, 1.038609
3700.312, 1.923420
3700.812, 6.197161
3701.312, 8.871408
3701.813, 8.844366
3702.313, 6.854820
3702.813, 6.156954
3703.314, 5.133385
3703.814, 2.390720
3704.314, 2.423340
3704.815, 1.442320
3705.315, 1.190472
3705.815, 1.596975
3706.316, 2.574951
3706.816, 4.665504
3707.316, 5.820379
3707.817, 6.566704
3708.317, 6.408312
3708.817, 6.721569
3709.318, 4.784090
3709.818, 3.671770
3710.318, 2.632050
3710.819, 4.213949
3711.319, 5.109055
3711.819, 5.794775
3712.320, 5.336102
3712.820, 6.026890
3713.320, 5.629827
3713.821, 3.588188
3714.321, 3.913969
3714.821, 2.819288
3715.321, 5.517525
3715.822, 5.087015
3716.322, 6.118225
3716.822, 5.174400
3717.323, 3.054155
3717.823, 2.401127
3718.323, 3.727015
3718.823, 6.290800
3719.324, 5.094538
3719.824, 3.015749
3720.324, 1.339638
3720.825, 1.808598
3721.325, 2.341694
3721.825, 1.574123
3722.326, 1.266319
3722.826, 0.9586680
3723.326, 0.9527020
3723.827, 0.4554250
3724.327, 0.9467960
3724.827, 2.348473
3725.328, 3.228397
3725.828, 4.788843
3726.328, 4.671164
3726.829, 2.513416
3727.329, 1.575523
3727.829, 0.8044930
3728.330, 0.4035610
3728.830, 1.104225
3729.330, 1.531898
3729.831, 3.381317
3730.331, 2.951424
3730.831, 2.085297
3731.332, 3.315495
3731.832, 4.698820
3732.332, 5.310007
3732.832, 3.009548
3733.333, 2.461575
3733.833, 1.292110
3734.333, 2.463524
3734.834, 3.460117
3735.334, 4.545015
3735.834, 3.691647
3736.334, 2.591949
3736.835, 2.956112
3737.335, 1.793827
3737.835, 1.322849
3738.336, 0.6236500
3738.836, 1.255001
3739.336, 2.195881
3739.837, 0.9053380
3740.337, 2.468937
3740.837, 1.374447
3741.338, 2.274170
3741.838, 6.1455000E-02
3742.338, 0.6090010
3742.839, 3.2977998E-02
3743.339, 0.3034780
3743.839, 0.6592790
3744.340, 1.442032
3744.840, 3.006565
3745.340, 2.840797
3745.841, 1.993336
3746.341, 0.9743540
3746.841, 1.103680
3747.342, 0.3983500
3747.842, 0.8892020
3748.342, 0.1746220
3748.843, 0.4277920
3749.343, 0.8628540
3749.843, 1.705914
3750.343, 1.556622
3750.844, 0.2002140
3751.344, 1.107414
3751.844, 0.4697950
3752.345, 2.202209
3752.845, 2.965996
3753.345, 2.697063
3753.845, 0.8887940
3754.346, 1.397877
3754.846, 1.658306
3755.346, 1.685978
3755.847, 1.463791
3756.347, 1.546124
3756.847, 1.523472
3757.348, 1.014538
3757.848, 0.9870070
3758.348, 1.497021
3758.849, 0.8230710
3759.349, 0.9676130
3759.849, 0.7587320
3760.350, 0.4712830
3760.850, 3.083786
3761.350, 1.626682
3761.851, 1.785706
3762.351, 0.8793030
3762.851, 1.153183
3763.352, 0.8143960
3763.852, 1.576736
3764.352, 2.818916
3764.853, 2.858925
3765.353, 1.653206
3765.853, 2.211147
3766.354, 1.861927
3766.854, 3.207977
3767.354, 3.517460
3767.854, 3.030220
3768.355, 1.610363
3768.855, 2.689949
3769.355, 3.902328
3769.856, 5.242012
3770.356, 3.623699
3770.856, 3.364159
3771.356, 2.485447
3771.857, 2.782940
3772.357, 2.021221
3772.857, 1.987305
3773.358, 1.591591
3773.858, 2.186405
3774.358, 0.2748680
3774.859, 1.054924
3775.359, 0.4631160
3775.859, 0.8078540
3776.360, 1.020252
3776.860, 1.394787
3777.360, 2.052753
3777.861, 2.527454
3778.361, 0.4656560
3778.861, 0.6174090
3779.362, 1.351994
3779.862, 2.054111
3780.362, 2.654945
3780.863, 3.888252
3781.363, 3.892979
3781.863, 2.810753
3782.364, 0.2805750
3782.864, 0.1339570
3783.364, 0.8449360
3783.865, 2.089333
3784.365, 2.765301
3784.865, 3.422527
3785.365, 3.962975
3785.866, 3.638252
3786.366, 2.414162
3786.866, 0.6908070
3787.367, 0.5823750
3787.867, 3.586094
3788.367, 4.762115
3788.867, 5.231730
3789.368, 2.028400
3789.868, 2.507736
3790.368, 2.011036
3790.869, 0.4761770
3791.369, 0.3699650
3791.869, 0.8887060
3792.370, 3.514721
3792.870, 4.368113
3793.370, 3.253319
3793.871, 5.315487
3794.371, 6.531057
3794.871, 7.448423
3795.372, 3.326164
3795.872, 1.775650
3796.372, 0.1935650
3796.873, 1.349804
3797.373, 2.730618
3797.873, 4.698969
3798.374, 3.876509
3798.874, 1.215984
3799.374, 1.949047
3799.875, 3.739550
3800.375, 8.820545
3800.875, 6.968662
3801.375, 6.303814
3801.876, 1.932369
3802.376, 4.146955
3802.876, 5.402237
3803.377, 8.516376
3803.877, 8.417215
3804.377, 5.260534
3804.878, 1.905586
3805.378, 0.6814960
3805.878, 2.661694
3806.378, 5.330925
3806.879, 6.673809
3807.379, 7.050991
3807.879, 6.001781
3808.380, 4.235111
3808.880, 4.280500
3809.380, 4.787561
3809.881, 6.681278
3810.381, 7.086620
3810.881, 5.298487
3811.382, 3.262844
3811.882, 3.842745
3812.382, 5.517223
3812.883, 7.150953
3813.383, 7.906212
3813.883, 7.668938
3814.384, 4.877815
3814.884, 4.097368
3815.384, 5.006977
3815.885, 5.485004
3816.385, 4.128351
3816.885, 4.005363
3817.385, 5.908102
3817.886, 5.270462
3818.386, 3.973660
3818.886, 2.599232
3819.387, 0.2915690
3819.887, 1.766911
3820.387, 2.840958
3820.888, 8.093876
3821.388, 6.620707
3821.888, 7.107901
3822.389, 4.851515
3822.889, 3.553589
3823.389, 1.120253
3823.889, 2.052717
3824.390, 2.763241
3824.890, 4.076275
3825.390, 4.183624
3825.891, 5.112617
3826.391, 2.545229
3826.891, 0.1299170
3827.392, 3.205091
3827.892, 5.780985
3828.392, 8.307560
3828.893, 5.076334
3829.393, 7.480637
3829.893, 6.274626
3830.394, 8.404026
3830.894, 6.378948
3831.394, 7.091328
3831.895, 4.481619
3832.395, 4.930779
3832.895, 7.637659
3833.396, 9.871706
3833.896, 7.113764
3834.396, 0.9447690
3834.896, 1.087244
3835.397, 3.937384
3835.897, 6.399153
3836.397, 4.906956
3836.898, 4.041569
3837.398, 4.860703
3837.898, 3.618557
3838.399, 3.387733
3838.899, 2.379852
3839.399, 5.122293
3839.900, 6.169134
3840.400, 5.831043
3840.900, 6.399759
3841.400, 6.134203
3841.901, 7.934780
3842.401, 4.697622
3842.901, 4.566500
3843.402, 3.128706
3843.902, 4.892855
3844.402, 3.385284
3844.903, 2.403473
3845.403, 1.902613
3845.903, 2.755424
3846.404, 5.388906
3846.904, 5.108446
3847.404, 5.495962
3847.905, 2.704620
3848.405, 4.169546
3848.905, 2.927462
3849.406, 4.417217
3849.906, 2.717756
3850.406, 2.831654
3850.906, 0.2196460
3851.407, 2.7014000E-02
3851.907, 0.4283770
3852.407, 3.822298
3852.908, 6.230518
3853.408, 6.027744
3853.908, 4.930151
3854.409, 3.223299
3854.909, 4.345623
3855.409, 5.303738
3855.910, 5.706488
3856.410, 7.272297
3856.910, 8.563148
3857.411, 7.766359
3857.911, 6.786921
3858.411, 6.511959
3858.911, 4.938265
3859.412, 2.643814
3859.912, 0.7926290
3860.412, 0.4978260
3860.913, 2.642061
3861.413, 3.183067
3861.913, 5.659634
3862.414, 5.410429
3862.914, 7.775066
3863.414, 5.680216
3863.915, 4.019379
3864.415, 4.012806
3864.915, 5.672316
3865.416, 7.502979
3865.916, 5.055050
3866.416, 2.358963
3866.917, 1.696087
3867.417, 1.131571
3867.917, 2.350164
3868.417, 1.335695
3868.918, 0.2432860
3869.418, 0.5966360
3869.918, 1.561434
3870.419, 3.003902
3870.919, 3.630068
3871.419, 4.524208
3871.920, 3.321756
3872.420, 2.720133
3872.920, 4.557154
3873.421, 5.657441
3873.921, 6.101218
3874.421, 5.507528
3874.922, 6.708700
3875.422, 4.570656
3875.922, 5.118085
3876.422, 3.015043
3876.923, 4.439951
3877.423, 5.015576
3877.923, 5.731999
3878.424, 4.760799
3878.924, 7.207851
3879.424, 5.760882
3879.925, 8.181446
3880.425, 5.099052
3880.925, 5.061672
3881.426, 3.212849
3881.926, 0.1323360
3882.426, 1.889778
3882.927, 2.101225
3883.427, 3.164423
3883.927, 5.626378
3884.427, 6.872519
3884.928, 2.938994
3885.428, 2.263584
3885.928, 1.383217
3886.429, 0.7825580
3886.929, 1.925604
3887.429, 1.303825
3887.930, 2.503005
3888.430, 0.6924990
3888.930, 0.1570630
3889.431, 1.035099
3889.931, 2.821996
3890.431, 2.506055
3890.932, 0.3793450
3891.432, 1.622290
3891.932, 0.3510550
3892.433, 2.169830
3892.933, 6.486169
3893.433, 6.048122
3893.933, 3.151816
3894.434, 2.454033
3894.934, 2.763509
3895.434, 6.818378
3895.935, 4.658882
3896.435, 4.301206
3896.935, 1.276360
3897.436, 1.405015
3897.936, 0.7304740
3898.436, 0.4956530
3898.937, 1.554747
3899.437, 2.975535
3899.937, 3.447868
3900.438, 6.175970
3900.938, 4.443350
3901.438, 5.066749
3901.938, 4.886666
3902.439, 3.013715
3902.939, 0.7156230
3903.439, 1.098671
3903.940, 0.3531380
3904.440, 3.006923
3904.940, 2.913323
3905.441, 2.611150
3905.941, 0.3093470
3906.441, 1.528266
3906.942, 0.8885630
3907.442, 0.9309290
3907.942, 2.817649
3908.443, 4.694283
3908.943, 4.870176
3909.443, 4.018205
3909.944, 2.673197
3910.444, 3.851361
3910.944, 4.622956
3911.444, 4.022583
3911.945, 2.292097
3912.445, 3.391275
3912.945, 3.799880
3913.446, 2.796661
3913.946, 2.469754
3914.446, 0.2545690
3914.947, 0.4271320
3915.447, 1.1341000E-02
3915.947, 3.908673
3916.448, 3.595385
3916.948, 2.740433
3917.448, 2.897452
3917.948, 4.541564
3918.449, 6.987738
3918.949, 3.769297
3919.449, 4.338879
3919.950, 1.658509
3920.450, 1.262236
3920.950, 0.8733790
3921.451, 1.724981
3921.951, 3.443897
3922.451, 1.318622
3922.952, 2.217882
3923.452, 4.181110
3923.952, 6.656597
3924.453, 4.226746
3924.953, 3.008492
3925.453, 2.811707
3925.954, 3.036121
3926.454, 1.705211
3926.954, 1.250237
3927.455, 1.825160
3927.955, 3.627816
3928.455, 1.934075
3928.955, 4.613570
3929.456, 6.850546
3929.956, 10.23686
3930.456, 9.472354
3930.957, 7.007586
3931.457, 4.317177
3931.957, 2.184503
3932.458, 4.1457001E-02
3932.958, 0.8521150
3933.458, 3.319489
3933.958, 5.368503
3934.459, 7.287250
3934.959, 5.201212
3935.459, 4.640984
3935.960, 5.972757
3936.460, 6.674131
3936.960, 8.505487
3937.461, 9.678762
3937.961, 9.801765
3938.461, 9.086689
3938.962, 5.007566
3939.462, 6.751076
3939.962, 7.001285
3940.463, 7.200313
3940.963, 5.959226
3941.463, 9.448795
3941.964, 8.229486
3942.464, 7.464778
3942.964, 2.310126
3943.465, 5.679593
3943.965, 8.558653
3944.465, 13.32617
3944.966, 13.89661
3945.466, 12.35009
3945.966, 10.93365
3946.466, 8.719069
3946.967, 13.00666
3947.467, 14.95361
3947.967, 16.48722
3948.468, 13.00081
3948.968, 11.13385
3949.468, 13.36995
3949.969, 16.84403
3950.469, 18.69333
3950.969, 17.13724
3951.469, 14.85340
3951.970, 12.92379
3952.470, 16.11585
3952.970, 19.36150
3953.471, 22.10977
3953.971, 22.06665
3954.471, 21.11421
3954.972, 20.49477
3955.472, 19.77962
3955.972, 21.80966
3956.473, 20.30153
3956.973, 20.77571
3957.473, 19.23193
3957.974, 21.35480
3958.474, 21.41991
3958.974, 22.23463
3959.475, 21.71146
3959.975, 25.91931
3960.475, 27.24135
3960.976, 25.29135
3961.476, 22.34609
3961.976, 21.04481
3962.477, 25.56507
3962.977, 26.05240
3963.477, 23.51065
3963.977, 23.46355
3964.478, 21.91844
3964.978, 23.22800
3965.478, 25.23849
3965.979, 23.23289
3966.479, 24.40947
3966.979, 23.72139
3967.479, 24.84103
3967.980, 25.19365
3968.480, 21.93006
3968.980, 24.82153
3969.481, 24.23304
3969.981, 24.20512
3970.481, 21.16454
3970.982, 19.50840
3971.482, 16.03498
3971.982, 16.47865
3972.483, 18.98699
3972.983, 20.44525
3973.483, 20.20496
3973.984, 17.48275
3974.484, 17.45682
3974.984, 16.24778
3975.485, 13.55374
3975.985, 12.36990
3976.485, 12.76179
3976.986, 14.57550
3977.486, 14.61036
3977.986, 10.38086
3978.487, 7.859995
3978.987, 5.797150
3979.487, 8.009745
3979.988, 11.85407
3980.488, 12.72205
3980.988, 10.71298
3981.488, 10.30471
3981.989, 7.076099
3982.489, 6.342955
3982.989, 5.756151
3983.490, 8.254755
3983.990, 8.975855
3984.490, 7.481691
3984.990, 9.066662
3985.491, 8.190159
3985.991, 5.212454
3986.491, 4.657314
3986.992, 3.916267
3987.492, 4.088501
3987.992, 0.8421380
3988.493, 0.2667430
3988.993, 2.397202
3989.493, 4.489086
3989.994, 5.211311
3990.494, 4.914478
3990.994, 6.444714
3991.495, 5.068367
3991.995, 4.772381
3992.495, 6.739059
3992.996, 6.293167
3993.496, 5.647411
3993.996, 2.564430
3994.497, 5.201702
3994.997, 4.196762
3995.497, 4.054087
3995.998, 1.858707
3996.498, 1.503532
3996.998, 0.2455730
3997.499, 3.083517
3997.999, 3.959993
3998.499, 9.899246
3998.999, 6.064024
3999.500, 4.901728
4000.000, 0.0000000E+00
##END=



