##NAMES=Atelisite-(Y)
##RRUFFID=R130043
##IDEAL CHEMISTRY=Y_4_Si_3_O_8_(OH)_8_
##LOCALITY=Stetind quarry, Tysfjord, Norway
##OWNER=Thomas Malcherek
##SOURCE=Thomas Malcherek
##DESCRIPTION=Pale brown to colourless, transparent crystals of dipyramidally terminated. Associated with xenotime-( Y), calcioancylite-(Nd) and La-dominant calcioancylite. Data from Malcherek et al (2012)
##STATUS=The identification of this mineral has been confirmed by X-ray diffraction and chemical analysis
##URL=rruff.info/R130043
##MEASURED CHEMISTRY=(Y_3.11_Yb_0.46_Er_0.19_Dy_0.11_Gd_0.09_Ho_0.01_Tb_0.02_)_Î£=3.99_Si_2.40_O_16_H_10.43_
##ORIENTATION=Laser parallel to -a [-1 0 0]. Fiducial mark perpendicular to laser is parallel to c [0 0 1]
15.00000, 0.0000000E+00
15.50031, 7.111275
16.00063, 9.570000
16.50094, 7.099228
17.00126, 1.082901
17.50157, 0.5177380
18.00188, 1.365829
18.50220, 6.484085
19.00251, 12.69675
19.50282, 13.88419
20.00314, 13.69604
20.50345, 11.33749
21.00377, 12.82711
21.50408, 13.92118
22.00439, 10.69905
22.50471, 5.923019
23.00502, 7.622295
23.50534, 9.925392
24.00565, 10.57462
24.50596, 4.507492
25.00628, 4.972946
25.50659, 10.41298
26.00690, 17.16330
26.50722, 21.09711
27.00753, 22.21023
27.50785, 19.63470
28.00816, 16.90017
28.50847, 15.02388
29.00879, 14.05930
29.50910, 13.66882
30.00942, 12.99233
30.50973, 14.52467
31.01004, 15.92878
31.51036, 16.50828
32.01067, 17.15096
32.51099, 18.12779
33.01130, 22.41748
33.51161, 23.67571
34.01193, 19.42602
34.51224, 12.72307
35.01255, 12.44987
35.51287, 14.97365
36.01318, 18.31398
36.51350, 21.03884
37.01381, 21.71851
37.51413, 21.86183
38.01444, 21.76013
38.51475, 27.23043
39.01506, 27.56870
39.51538, 23.17311
40.01569, 14.56730
40.51601, 11.53626
41.01632, 10.30744
41.51664, 9.577011
42.01695, 9.668346
42.51726, 10.61781
43.01758, 12.78912
43.51789, 14.74710
44.01820, 15.47451
44.51852, 10.92128
45.01883, 5.922012
45.51915, 2.951859
46.01946, 4.779011
46.51978, 6.572628
47.02009, 5.660656
47.52040, 3.299782
48.02071, 2.279133
48.52103, 1.189575
49.02134, 2.440941
49.52166, 4.184689
50.02197, 7.666218
50.52229, 8.688274
51.02260, 6.124382
51.52291, 3.595966
52.02323, 5.672058
52.52354, 8.240005
53.02385, 7.921867
53.52417, 1.707962
54.02448, 1.186493
54.52480, 4.325401
55.02511, 3.344704
55.52542, 1.513161
56.02574, 0.3930050
56.52605, 0.6062770
57.02637, 1.452011
57.52668, 7.843681
58.02699, 9.600922
58.52731, 9.084503
59.02762, 8.283279
59.52794, 11.84104
60.02825, 16.45616
60.52856, 21.21980
61.02888, 23.38029
61.52919, 21.16099
62.02950, 15.78163
62.52982, 8.678307
63.03013, 5.440491
63.53045, 8.006203
64.03076, 11.08511
64.53107, 15.97563
65.03139, 16.54649
65.53170, 15.07262
66.03201, 17.73292
66.53233, 22.22031
67.03265, 29.53244
67.53296, 27.15635
68.03327, 24.15929
68.53358, 23.09318
69.03390, 25.47002
69.53421, 28.80609
70.03452, 30.51882
70.53484, 32.10516
71.03516, 32.37138
71.53547, 33.44698
72.03578, 40.85570
72.53609, 47.11929
73.03641, 51.71637
73.53672, 51.05067
74.03704, 48.98763
74.53735, 50.42705
75.03767, 52.80440
75.53798, 56.37388
76.03829, 61.95818
76.53860, 66.62228
77.03892, 71.06186
77.53923, 69.62123
78.03955, 65.44677
78.53986, 61.22340
79.04018, 60.00140
79.54049, 64.59040
80.04080, 66.74287
80.54111, 68.62090
81.04143, 68.44372
81.54175, 69.38036
82.04206, 70.06540
82.54237, 68.78789
83.04269, 70.45978
83.54300, 75.03152
84.04331, 80.88026
84.54362, 86.09203
85.04395, 86.94554
85.54426, 83.57706
86.04457, 77.42505
86.54488, 73.02893
87.04520, 73.64421
87.54551, 74.17708
88.04582, 73.60750
88.54614, 70.55260
89.04646, 70.29897
89.54677, 71.90671
90.04708, 73.69855
90.54739, 76.99232
91.04771, 81.61922
91.54802, 84.28587
92.04834, 84.15065
92.54865, 80.48161
93.04897, 78.20805
93.54928, 77.53149
94.04959, 73.85329
94.54990, 69.96378
95.05022, 69.43951
95.55054, 73.21680
96.05085, 74.23848
96.55116, 69.66325
97.05148, 65.43294
97.55179, 62.01968
98.05210, 58.21466
98.55241, 52.48315
99.05273, 49.23988
99.55305, 46.74423
100.0534, 46.92926
100.5537, 47.81747
101.0540, 48.67293
101.5543, 49.67645
102.0546, 49.94270
102.5549, 51.60757
103.0552, 52.13655
103.5556, 49.80428
104.0559, 45.46202
104.5562, 40.85292
105.0565, 41.35896
105.5568, 42.60399
106.0571, 43.22984
106.5574, 42.27255
107.0578, 44.11722
107.5581, 44.28152
108.0584, 41.98193
108.5587, 36.95518
109.0590, 34.25281
109.5593, 33.65578
110.0596, 32.65935
110.5600, 29.92523
111.0603, 25.96384
111.5606, 22.79468
112.0609, 20.46251
112.5612, 20.08279
113.0615, 23.71841
113.5618, 24.04770
114.0621, 24.24477
114.5625, 23.90854
115.0628, 30.56203
115.5631, 30.93701
116.0634, 27.96054
116.5637, 23.65820
117.0640, 26.05954
117.5643, 27.07507
118.0647, 27.03751
118.5650, 24.21294
119.0653, 18.35368
119.5656, 16.02325
120.0659, 16.80484
120.5662, 21.19612
121.0665, 16.83270
121.5669, 10.71394
122.0672, 8.744659
122.5675, 13.34306
123.0678, 16.34290
123.5681, 16.12645
124.0684, 13.68069
124.5687, 12.93121
125.0691, 12.81270
125.5694, 9.326279
126.0697, 6.265823
126.5700, 5.138138
127.0703, 9.770889
127.5706, 11.75441
128.0709, 12.34853
128.5712, 12.97255
129.0716, 17.93341
129.5719, 20.71782
130.0722, 23.66704
130.5725, 25.24234
131.0728, 25.97104
131.5731, 23.78516
132.0734, 19.91302
132.5738, 17.45258
133.0741, 15.28143
133.5744, 15.35104
134.0747, 16.67645
134.5750, 17.78070
135.0753, 15.67535
135.5756, 12.03903
136.0760, 11.00705
136.5763, 13.91974
137.0766, 18.73087
137.5769, 18.98480
138.0772, 18.29816
138.5775, 17.61005
139.0778, 19.58411
139.5782, 25.86237
140.0785, 31.06195
140.5788, 34.04694
141.0791, 30.08862
141.5794, 30.84576
142.0797, 37.69199
142.5800, 46.87399
143.0804, 49.62122
143.5807, 47.91739
144.0810, 43.16458
144.5813, 41.63348
145.0816, 44.39642
145.5819, 48.30743
146.0822, 48.64258
146.5826, 47.92255
147.0829, 53.90665
147.5832, 59.83978
148.0835, 58.93677
148.5838, 49.83905
149.0841, 42.88736
149.5844, 41.91962
150.0847, 42.47052
150.5851, 41.34961
151.0854, 36.82486
151.5857, 34.80496
152.0860, 32.62201
152.5863, 30.07257
153.0866, 24.86810
153.5869, 21.67340
154.0872, 14.52393
154.5876, 8.082794
155.0879, 5.175812
155.5882, 11.39203
156.0885, 16.63208
156.5888, 18.18234
157.0891, 14.94302
157.5894, 6.668396
158.0898, 3.172577
158.5901, 0.3963320
159.0904, 2.527039
159.5907, 3.549347
160.0910, 2.992859
160.5913, 5.605469
161.0916, 6.435089
161.5920, 7.543488
162.0923, 4.885132
162.5926, 0.8244020
163.0929, 1.696106
163.5932, 9.730621
164.0935, 14.05240
164.5938, 15.61346
165.0942, 13.03372
165.5945, 14.24847
166.0948, 17.07617
166.5951, 21.29407
167.0954, 24.56573
167.5957, 21.84741
168.0960, 16.20920
168.5964, 11.95084
169.0967, 12.96796
169.5970, 15.00699
170.0973, 14.06195
170.5976, 13.45792
171.0979, 13.58276
171.5982, 15.63736
172.0986, 13.91260
172.5989, 12.65268
173.0992, 10.32309
173.5995, 7.393616
174.0998, 6.250916
174.6001, 5.887939
175.1004, 6.175415
175.6008, 1.257446
176.1011, 4.4617001E-02
176.6014, 5.329407
177.1017, 14.22171
177.6020, 18.96826
178.1023, 15.55078
178.6026, 9.575684
179.1030, 4.779938
179.6033, 3.873230
180.1036, 2.900116
180.6039, 4.279755
181.1042, 4.008606
181.6045, 1.534271
182.1048, 5.382843
182.6051, 10.36624
183.1055, 8.705780
183.6058, 3.946899
184.1061, 3.749146
184.6064, 2.956818
185.1067, 8.430542
185.6070, 12.95670
186.1073, 18.10703
186.6077, 13.24548
187.1080, 7.176025
187.6083, 5.508423
188.1086, 6.397278
188.6089, 5.669220
189.1092, 5.631561
189.6095, 6.614716
190.1098, 4.073334
190.6102, 1.604279
191.1105, 2.118073
191.6108, 3.595001
192.1111, 0.4108580
192.6114, 1.384918
193.1117, 2.057312
193.6120, 2.080811
194.1124, 6.020325
194.6127, 11.68900
195.1130, 11.62167
195.6133, 6.556671
196.1136, 0.2323000
196.6139, 1.268250
197.1142, 4.090088
197.6146, 8.774353
198.1149, 10.92700
198.6152, 9.893494
199.1155, 9.703064
199.6158, 9.961700
200.1161, 8.237762
200.6164, 7.616608
201.1168, 7.693146
201.6171, 5.957611
202.1174, 2.899811
202.6177, 1.428558
203.1180, 0.6648860
203.6183, 0.8711850
204.1186, 3.482025
204.6190, 8.107025
205.1193, 4.178101
205.6196, 3.364807
206.1199, 3.291351
206.6202, 5.485931
207.1205, 3.800293
207.6208, 2.963562
208.1212, 4.772949
208.6215, 4.057068
209.1218, 1.511597
209.6221, 1.462830
210.1224, 3.495422
210.6227, 9.661133
211.1230, 16.03979
211.6234, 17.01764
212.1237, 18.46576
212.6240, 18.81848
213.1243, 25.06543
213.6246, 31.72455
214.1249, 34.09521
214.6252, 31.99634
215.1255, 25.02692
215.6259, 22.63098
216.1262, 27.16571
216.6265, 34.16547
217.1268, 37.13287
217.6271, 42.16589
218.1274, 48.85040
218.6277, 56.89984
219.1281, 59.48212
219.6284, 62.62323
220.1287, 65.33563
220.6290, 64.78674
221.1293, 60.63440
221.6296, 60.09869
222.1299, 63.39520
222.6303, 67.53815
223.1306, 65.66797
223.6309, 59.28387
224.1312, 57.18347
224.6315, 55.45532
225.1318, 57.13300
225.6321, 57.02222
226.1325, 55.69037
226.6328, 54.18555
227.1331, 50.69427
227.6334, 50.79498
228.1337, 51.88971
228.6340, 54.85364
229.1343, 54.63025
229.6347, 51.87592
230.1350, 54.28595
230.6353, 51.39532
231.1356, 49.90381
231.6359, 43.03723
232.1362, 44.10175
232.6365, 45.38446
233.1369, 46.31329
233.6372, 51.62579
234.1375, 62.50403
234.6378, 66.24457
235.1381, 64.78925
235.6384, 59.68207
236.1387, 62.94269
236.6391, 67.55469
237.1394, 73.10840
237.6397, 74.23206
238.1400, 71.54279
238.6403, 65.95215
239.1406, 64.41095
239.6409, 67.34576
240.1412, 71.08789
240.6416, 74.33008
241.1419, 77.87238
241.6422, 80.39532
242.1425, 80.40179
242.6428, 79.28650
243.1431, 77.27802
243.6434, 80.41479
244.1438, 83.83264
244.6441, 84.08636
245.1444, 77.07556
245.6447, 70.97272
246.1450, 69.81842
246.6453, 73.09314
247.1456, 82.90454
247.6460, 90.10919
248.1463, 97.02893
248.6466, 99.33966
249.1469, 105.8959
249.6472, 106.8829
250.1475, 102.4761
250.6478, 94.27734
251.1481, 88.67316
251.6485, 85.92517
252.1488, 85.28046
252.6491, 88.05444
253.1494, 94.37585
253.6497, 106.6060
254.1500, 112.2977
254.6503, 112.5759
255.1507, 108.1606
255.6510, 107.9825
256.1513, 110.2355
256.6516, 112.2180
257.1519, 116.7068
257.6522, 123.1773
258.1526, 125.6439
258.6529, 122.0759
259.1532, 117.8167
259.6535, 125.8545
260.1538, 137.0582
260.6541, 148.4869
261.1544, 151.0939
261.6548, 153.6407
262.1551, 154.5001
262.6554, 156.2274
263.1557, 163.9114
263.6560, 176.1168
264.1563, 188.8943
264.6566, 189.0279
265.1569, 184.4708
265.6573, 183.5095
266.1576, 196.8500
266.6579, 201.6667
267.1582, 203.8767
267.6585, 199.5194
268.1588, 199.3450
268.6591, 203.2767
269.1595, 211.5391
269.6598, 226.4919
270.1601, 236.5367
270.6604, 244.2959
271.1607, 255.3322
271.6610, 265.1934
272.1613, 271.6133
272.6617, 270.7833
273.1620, 271.0707
273.6623, 279.2964
274.1626, 291.9946
274.6629, 302.3001
275.1632, 312.9531
275.6635, 323.2498
276.1638, 335.8157
276.6642, 344.0841
277.1645, 354.3726
277.6648, 364.4080
278.1651, 373.1553
278.6654, 379.8727
279.1657, 391.3811
279.6660, 402.7142
280.1664, 415.3314
280.6667, 427.1174
281.1670, 442.6111
281.6673, 451.3589
282.1676, 457.7574
282.6679, 462.5872
283.1682, 473.8395
283.6685, 491.3491
284.1689, 505.1005
284.6692, 520.2355
285.1695, 531.4926
285.6698, 543.1564
286.1701, 557.4618
286.6704, 563.1830
287.1707, 569.8380
287.6711, 577.4896
288.1714, 592.2318
288.6717, 606.2516
289.1720, 612.6301
289.6723, 618.0864
290.1726, 627.2769
290.6729, 643.6463
291.1732, 657.8540
291.6736, 668.4933
292.1739, 676.1681
292.6742, 683.3384
293.1745, 692.9428
293.6748, 698.6221
294.1751, 703.2819
294.6754, 703.8531
295.1758, 697.6248
295.6761, 691.3046
296.1764, 688.8987
296.6767, 691.0995
297.1770, 693.9241
297.6773, 692.3520
298.1776, 691.0051
298.6780, 692.9272
299.1783, 690.5046
299.6786, 683.8330
300.1789, 668.4990
300.6792, 653.6318
301.1795, 640.6579
301.6798, 628.6401
302.1802, 619.7119
302.6805, 611.2215
303.1808, 603.1693
303.6811, 591.6471
304.1814, 574.1511
304.6817, 553.1168
305.1820, 533.4671
305.6824, 518.8021
306.1827, 509.7041
306.6830, 502.1853
307.1833, 493.5090
307.6836, 483.9872
308.1839, 470.8354
308.6842, 457.8081
309.1846, 443.1154
309.6849, 427.7131
310.1852, 415.7280
310.6855, 404.5383
311.1858, 397.8632
311.6861, 390.9939
312.1864, 388.5607
312.6868, 383.9502
313.1871, 377.0674
313.6874, 366.3120
314.1877, 352.9130
314.6880, 345.6548
315.1883, 334.3118
315.6886, 327.0874
316.1890, 324.0477
316.6893, 321.9808
317.1896, 319.2437
317.6899, 307.5605
318.1902, 301.7726
318.6905, 299.0746
319.1908, 294.2585
319.6912, 289.1918
320.1915, 285.6196
320.6918, 283.2281
321.1921, 279.7772
321.6924, 275.1409
322.1927, 272.0128
322.6930, 269.5562
323.1934, 269.7586
323.6937, 264.7501
324.1940, 256.9155
324.6943, 245.7312
325.1946, 237.1583
325.6949, 232.2874
326.1952, 228.6548
326.6956, 229.5933
327.1959, 232.5805
327.6962, 231.4166
328.1965, 230.3932
328.6968, 229.1632
329.1971, 232.1014
329.6974, 227.9686
330.1978, 216.3769
330.6981, 206.3484
331.1984, 203.5231
331.6987, 203.7273
332.1990, 202.0865
332.6993, 196.2528
333.1996, 191.9391
333.7000, 187.7003
334.2003, 180.9009
334.7006, 172.8297
335.2009, 162.4081
335.7012, 155.5829
336.2015, 151.4694
336.7018, 146.1238
337.2021, 144.2693
337.7025, 140.6331
338.2028, 136.0920
338.7031, 131.4628
339.2034, 127.5656
339.7037, 127.7701
340.2040, 125.7738
340.7043, 123.7961
341.2047, 121.9201
341.7050, 117.8668
342.2053, 112.7156
342.7056, 108.6255
343.2059, 107.3884
343.7062, 109.9296
344.2065, 112.0713
344.7068, 112.4265
345.2072, 108.9085
345.7075, 98.33661
346.2078, 90.16656
346.7081, 85.09308
347.2084, 85.97687
347.7087, 88.12732
348.2090, 88.51025
348.7094, 89.42859
349.2097, 88.09027
349.7100, 87.25055
350.2103, 87.88556
350.7106, 86.67157
351.2109, 82.89398
351.7112, 77.10425
352.2115, 74.43292
352.7119, 74.24384
353.2122, 75.61932
353.7125, 77.04480
354.2128, 79.83588
354.7131, 76.94659
355.2134, 75.96631
355.7137, 76.18506
356.2141, 79.57623
356.7144, 80.99591
357.2147, 79.91705
357.7150, 77.31250
358.2153, 71.06952
358.7156, 71.20105
359.2159, 71.15076
359.7162, 71.50751
360.2166, 66.61389
360.7169, 69.55670
361.2172, 73.94989
361.7175, 74.84766
362.2178, 73.33810
362.7181, 74.66888
363.2184, 73.48199
363.7188, 70.00290
364.2191, 65.50671
364.7194, 65.40082
365.2197, 63.21753
365.7200, 60.28705
366.2203, 59.17480
366.7206, 62.52017
367.2210, 67.32849
367.7213, 72.00735
368.2216, 67.81927
368.7219, 63.90601
369.2222, 57.57642
369.7225, 50.61957
370.2228, 41.02396
370.7232, 34.78268
371.2235, 34.24451
371.7238, 31.65857
372.2241, 29.25800
372.7244, 26.39175
373.2247, 28.63748
373.7250, 28.95837
374.2254, 28.34082
374.7257, 22.75729
375.2260, 17.04343
375.7263, 17.22809
376.2266, 20.06097
376.7269, 16.57214
377.2272, 11.51505
377.7276, 3.896088
378.2279, 2.470703
378.7282, 3.017456
379.2285, 5.861053
379.7288, 5.720612
380.2291, 0.2577820
380.7294, 7.610382
381.2298, 11.05563
381.7301, 8.947937
382.2304, 3.634094
382.7307, 0.2029420
383.2310, 0.3296510
383.7313, 0.2383730
384.2316, 3.552124
384.7320, 7.708954
385.2323, 13.31171
385.7326, 14.39978
386.2329, 13.82932
386.7332, 14.09854
387.2335, 13.55151
387.7338, 11.32864
388.2342, 9.036133
388.7345, 6.776642
389.2348, 5.864777
389.7351, 6.594452
390.2354, 11.35748
390.7357, 7.045044
391.2360, 8.292755
391.7364, 6.205994
392.2367, 11.67743
392.7370, 16.09695
393.2373, 17.40707
393.7376, 20.12994
394.2379, 15.32422
394.7382, 12.98758
395.2386, 10.93900
395.7389, 9.106720
396.2392, 7.800018
396.7395, 6.826691
397.2398, 7.282043
397.7401, 6.229065
398.2404, 4.250977
398.7408, 0.6226500
399.2411, 4.097931
399.7414, 2.318665
400.2417, 1.182953
400.7420, 2.418793
401.2423, 2.326691
401.7426, 7.003448
402.2430, 16.79477
402.7433, 22.61032
403.2436, 26.19879
403.7439, 22.30368
404.2442, 24.66931
404.7445, 29.26474
405.2448, 33.60068
405.7451, 35.65668
406.2455, 38.05783
406.7458, 34.03485
407.2461, 32.70905
407.7464, 33.35269
408.2467, 41.47839
408.7470, 47.08511
409.2473, 51.46329
409.7477, 56.19904
410.2480, 58.79007
410.7483, 59.15530
411.2486, 58.77472
411.7489, 56.97217
412.2492, 62.12097
412.7495, 68.29929
413.2498, 73.26526
413.7502, 71.98608
414.2505, 71.91257
414.7508, 75.43054
415.2511, 79.13748
415.7514, 80.21301
416.2517, 81.39120
416.7520, 81.92099
417.2523, 81.93344
417.7527, 81.93683
418.2530, 81.63525
418.7533, 84.11105
419.2536, 84.50214
419.7539, 84.59091
420.2542, 81.16306
420.7545, 77.80002
421.2549, 73.96094
421.7552, 74.78067
422.2555, 79.36728
422.7558, 81.74704
423.2561, 82.95374
423.7564, 79.84592
424.2567, 77.75858
424.7570, 71.28226
425.2574, 71.52069
425.7577, 74.50558
426.2580, 77.56763
426.7583, 74.27344
427.2586, 71.04752
427.7589, 71.47861
428.2592, 73.57431
428.7596, 76.90845
429.2599, 75.86270
429.7602, 69.79639
430.2605, 68.16763
430.7608, 66.30167
431.2611, 69.14108
431.7614, 68.55060
432.2618, 70.15167
432.7621, 72.33160
433.2624, 72.00644
433.7627, 69.55106
434.2630, 64.40833
434.7633, 60.54282
435.2636, 61.75986
435.7640, 65.86438
436.2643, 69.18982
436.7646, 69.12494
437.2649, 68.64444
437.7652, 68.99561
438.2655, 69.87634
438.7658, 68.86951
439.2662, 63.72961
439.7665, 62.09152
440.2668, 61.72040
440.7671, 63.87643
441.2674, 61.68628
441.7677, 59.09616
442.2680, 60.41473
442.7684, 60.97156
443.2687, 59.95956
443.7690, 54.62601
444.2693, 49.29962
444.7696, 45.10269
445.2699, 44.11740
445.7702, 46.71408
446.2706, 50.49310
446.7709, 50.13089
447.2712, 46.42819
447.7715, 42.79373
448.2718, 41.40854
448.7721, 39.64209
449.2724, 35.59476
449.7728, 32.37262
450.2731, 27.68939
450.7734, 22.17120
451.2737, 22.51642
451.7740, 24.76880
452.2743, 30.44235
452.7746, 28.41486
453.2750, 24.86514
453.7753, 19.10324
454.2756, 18.56244
454.7759, 18.68420
455.2762, 17.28741
455.7765, 11.41800
456.2768, 4.785950
456.7772, 4.164154
457.2775, 4.994598
457.7778, 7.673523
458.2781, 6.048981
458.7784, 4.130798
459.2787, 2.264832
459.7790, 4.635437
460.2794, 9.393341
460.7797, 10.16171
461.2800, 8.795013
461.7803, 4.661011
462.2806, 5.696686
462.7809, 5.939514
463.2812, 3.597809
463.7816, 0.4942320
464.2819, 1.241730
464.7822, 0.7031250
465.2825, 4.775940
465.7828, 9.171875
466.2831, 11.41943
466.7834, 10.82742
467.2838, 8.343628
467.7841, 7.018616
468.2844, 6.124359
468.7847, 4.332550
469.2850, 0.9147640
469.7853, 2.090454
470.2856, 3.532623
470.7859, 1.526703
471.2863, 2.946228
471.7866, 8.212830
472.2869, 9.742615
472.7872, 5.066895
473.2875, 3.224091
473.7878, 2.062408
474.2881, 4.054626
474.7885, 2.447479
475.2888, 0.5874020
475.7891, 0.8927310
476.2894, 0.4685360
476.7897, 1.001251
477.2900, 1.404022
477.7903, 3.658752
478.2906, 6.066223
478.7910, 6.261780
479.2913, 6.190155
479.7916, 3.507050
480.2919, 0.5681460
480.7922, 3.457733
481.2925, 4.432861
481.7928, 2.198517
482.2932, 3.320831
482.7935, 2.672760
483.2938, 0.2263490
483.7941, 5.153473
484.2944, 4.587860
484.7947, 2.275574
485.2950, 2.183350
485.7953, 3.281738
486.2957, 5.368988
486.7960, 4.859436
487.2963, 6.340057
487.7966, 4.749878
488.2969, 2.251984
488.7972, 1.360474
489.2975, 2.069916
489.7979, 4.638306
490.2982, 4.518066
490.7985, 0.6391300
491.2988, 0.8276060
491.7991, 0.9306030
492.2994, 1.600250
492.7997, 7.310577
493.3000, 12.14972
493.8004, 14.51172
494.3007, 15.28375
494.8010, 10.84836
495.3013, 9.486267
495.8016, 9.093811
496.3019, 13.39478
496.8022, 10.49728
497.3026, 6.384827
497.8029, 5.281342
498.3032, 10.36783
498.8035, 14.64865
499.3038, 15.59988
499.8041, 17.50244
500.3044, 16.03751
500.8048, 15.24725
501.3051, 13.13278
501.8054, 13.32788
502.3057, 11.08829
502.8060, 11.67731
503.3063, 13.73935
503.8066, 16.72968
504.3070, 17.37140
504.8073, 15.37079
505.3076, 18.21576
505.8079, 19.75702
506.3082, 22.53625
506.8085, 28.48013
507.3088, 25.45920
507.8092, 24.74475
508.3095, 19.10077
508.8098, 19.59290
509.3101, 19.33777
509.8104, 15.95380
510.3107, 16.94437
510.8110, 19.03842
511.3114, 22.83539
511.8117, 21.31848
512.3120, 22.14896
512.8123, 20.48019
513.3126, 21.44785
513.8129, 22.75394
514.3132, 26.70581
514.8135, 29.60901
515.3138, 28.75653
515.8142, 29.70905
516.3145, 31.47592
516.8148, 25.63519
517.3151, 21.68472
517.8154, 20.11600
518.3157, 28.49173
518.8160, 38.77673
519.3164, 41.83347
519.8167, 38.02670
520.3170, 35.77963
520.8173, 42.79013
521.3176, 46.78671
521.8179, 46.71478
522.3182, 47.24884
522.8186, 52.19485
523.3189, 50.06003
523.8192, 42.38593
524.3195, 41.39294
524.8198, 43.02539
525.3201, 45.97070
525.8204, 46.16489
526.3208, 49.38641
526.8211, 46.09229
527.3214, 43.36713
527.8217, 40.75229
528.3220, 44.99603
528.8223, 47.64615
529.3226, 50.16690
529.8230, 52.69101
530.3233, 54.88266
530.8236, 53.50351
531.3239, 46.05887
531.8242, 44.59088
532.3245, 43.70697
532.8248, 46.49597
533.3252, 43.00644
533.8255, 44.68677
534.3258, 53.14548
534.8261, 56.75641
535.3264, 56.88354
535.8267, 54.60934
536.3270, 56.75470
536.8274, 53.48035
537.3277, 50.19867
537.8280, 49.17606
538.3283, 53.63171
538.8286, 53.64850
539.3289, 50.29239
539.8292, 47.61249
540.3296, 49.96057
540.8299, 54.92569
541.3302, 56.94098
541.8305, 56.34348
542.3308, 52.13300
542.8311, 49.60474
543.3314, 48.28882
543.8318, 51.93069
544.3321, 57.66235
544.8324, 60.35703
545.3327, 59.28482
545.8330, 58.20898
546.3333, 61.28574
546.8336, 60.26624
547.3340, 60.69839
547.8343, 60.63031
548.3346, 63.99951
548.8349, 60.67612
549.3352, 59.42026
549.8355, 55.38724
550.3358, 54.35742
550.8362, 50.05817
551.3365, 50.34235
551.8368, 53.38931
552.3371, 57.44257
552.8374, 59.86230
553.3377, 59.02499
553.8380, 57.07208
554.3384, 57.27460
554.8387, 60.15564
555.3390, 62.79373
555.8393, 63.57147
556.3396, 62.13287
556.8399, 64.96362
557.3402, 63.91473
557.8406, 64.67517
558.3409, 62.13712
558.8412, 63.56918
559.3415, 63.94577
559.8418, 67.25201
560.3421, 70.08423
560.8424, 72.24133
561.3428, 71.73337
561.8431, 72.48029
562.3434, 70.70505
562.8437, 66.45032
563.3440, 65.57156
563.8443, 72.13498
564.3446, 77.24463
564.8450, 79.22214
565.3453, 75.63580
565.8456, 71.89249
566.3459, 66.65997
566.8462, 65.36346
567.3465, 67.79477
567.8468, 70.61377
568.3472, 71.89667
568.8475, 72.80945
569.3478, 71.27374
569.8481, 70.04977
570.3484, 70.50357
570.8487, 74.78806
571.3490, 76.91928
571.8494, 76.23581
572.3497, 71.11258
572.8500, 65.86093
573.3503, 62.58044
573.8506, 66.03851
574.3509, 71.39297
574.8512, 69.02612
575.3516, 67.25314
575.8519, 62.38541
576.3522, 62.19070
576.8525, 63.32559
577.3528, 65.81400
577.8531, 67.73334
578.3534, 64.33591
578.8538, 61.11441
579.3541, 59.00104
579.8544, 59.55588
580.3547, 59.02673
580.8550, 61.01822
581.3553, 60.54550
581.8556, 58.21484
582.3560, 54.05374
582.8563, 51.09552
583.3566, 52.09512
583.8569, 56.02731
584.3572, 62.45789
584.8575, 65.84827
585.3578, 63.45377
585.8582, 58.02744
586.3585, 56.60529
586.8588, 59.05981
587.3591, 60.60956
587.8594, 62.32794
588.3597, 62.20459
588.8600, 62.32852
589.3604, 61.25073
589.8607, 61.45239
590.3610, 64.02066
590.8613, 67.06573
591.3616, 69.66779
591.8619, 69.99503
592.3622, 69.74191
592.8625, 69.24100
593.3629, 66.46353
593.8632, 64.74637
594.3635, 65.04041
594.8638, 66.96680
595.3641, 66.22003
595.8644, 64.25446
596.3647, 61.27914
596.8651, 59.25287
597.3654, 58.66003
597.8657, 60.13126
598.3660, 61.41974
598.8663, 60.93362
599.3666, 60.73114
599.8669, 63.03180
600.3672, 68.96750
600.8676, 67.19302
601.3679, 62.29614
601.8682, 54.64453
602.3685, 53.73520
602.8688, 50.96594
603.3691, 53.69122
603.8694, 53.04468
604.3698, 55.03821
604.8701, 52.31982
605.3704, 53.99042
605.8707, 53.92050
606.3710, 58.43451
606.8713, 62.36627
607.3716, 66.37662
607.8719, 63.05609
608.3723, 58.15845
608.8726, 55.81570
609.3729, 55.21158
609.8732, 56.39697
610.3735, 56.46002
610.8738, 54.80554
611.3741, 48.97858
611.8745, 42.26862
612.3748, 37.16614
612.8751, 37.77988
613.3754, 40.63135
613.8757, 38.37598
614.3760, 37.13150
614.8763, 36.79050
615.3766, 39.31082
615.8770, 36.30692
616.3773, 36.44733
616.8776, 35.73532
617.3779, 35.70349
617.8782, 30.85258
618.3785, 31.53015
618.8788, 34.03680
619.3792, 34.74696
619.8795, 32.03096
620.3798, 31.16574
620.8801, 31.24228
621.3804, 26.37286
621.8807, 21.03244
622.3810, 17.75699
622.8813, 19.25835
623.3817, 18.33122
623.8820, 17.31931
624.3823, 17.03983
624.8826, 14.99921
625.3829, 12.10631
625.8832, 11.11500
626.3835, 12.62793
626.8839, 11.83531
627.3842, 13.58722
627.8845, 15.44041
628.3848, 18.59288
628.8851, 18.10129
629.3854, 15.68054
629.8857, 13.68845
630.3860, 10.43184
630.8864, 9.951569
631.3867, 10.69162
631.8870, 9.101074
632.3873, 8.584015
632.8876, 9.958145
633.3879, 10.99080
633.8882, 8.820236
634.3885, 5.235550
634.8889, 3.852890
635.3892, 5.154678
635.8895, 3.812622
636.3898, 3.440079
636.8901, 2.642410
637.3904, 4.687805
637.8907, 4.430908
638.3911, 3.959015
638.8914, 3.316940
639.3917, 2.677734
639.8920, 8.9523003E-02
640.3923, 1.536285
640.8926, 0.2332920
641.3929, 2.378128
641.8933, 3.473785
642.3936, 4.449432
642.8939, 4.843964
643.3942, 1.295044
643.8945, 1.613434
644.3948, 0.7558750
644.8951, 5.480255
645.3955, 3.115158
645.8958, 1.307251
646.3961, 3.935989
646.8964, 1.023880
647.3967, 0.4477540
647.8970, 0.1783750
648.3973, 2.568497
648.8977, 5.600372
649.3980, 6.023376
649.8983, 3.220688
650.3986, 0.2061770
650.8989, 0.8613890
651.3992, 0.3110050
651.8995, 0.6566310
652.3999, 2.685089
652.9002, 2.165833
653.4005, 1.401596
653.9008, 6.089859
654.4011, 6.471848
654.9014, 2.778320
655.4017, 2.922455
655.9021, 5.411575
656.4024, 4.348099
656.9027, 1.346313
657.4030, 1.418488
657.9033, 3.399155
658.4036, 0.8525390
658.9039, 0.8791050
659.4043, 4.463745
659.9046, 2.750244
660.4049, 1.621628
660.9052, 0.1954650
661.4055, 4.181046
661.9058, 5.190231
662.4061, 4.406082
662.9065, 3.257050
663.4068, 6.635391
663.9071, 11.70862
664.4074, 12.59769
664.9077, 11.84117
665.4080, 14.68866
665.9083, 16.36105
666.4087, 17.21263
666.9090, 14.35017
667.4093, 15.15883
667.9096, 15.01855
668.4099, 13.87137
668.9102, 11.29008
669.4105, 11.08832
669.9109, 10.96255
670.4112, 9.342819
670.9115, 7.167480
671.4118, 6.695709
671.9121, 8.392807
672.4124, 10.38733
672.9127, 14.36203
673.4131, 19.63676
673.9134, 21.16678
674.4137, 14.35411
674.9140, 8.741974
675.4143, 7.618484
675.9146, 10.54672
676.4149, 17.48976
676.9153, 20.02614
677.4156, 21.75298
677.9159, 18.10710
678.4162, 19.63618
678.9165, 23.03143
679.4168, 25.88106
679.9171, 23.58630
680.4175, 22.04787
680.9178, 22.37787
681.4181, 21.18593
681.9184, 25.79547
682.4187, 29.07538
682.9190, 33.64670
683.4193, 30.97688
683.9197, 29.06647
684.4200, 27.67126
684.9203, 26.49727
685.4206, 24.52965
685.9209, 25.42444
686.4212, 28.45384
686.9215, 29.08786
687.4219, 30.31587
687.9222, 32.35356
688.4225, 36.86842
688.9228, 38.78085
689.4231, 38.01070
689.9234, 36.80220
690.4237, 38.03552
690.9241, 39.79425
691.4244, 36.53923
691.9247, 33.71835
692.4250, 29.04312
692.9253, 28.18634
693.4256, 23.90790
693.9259, 20.84521
694.4263, 23.62389
694.9266, 26.35637
695.4269, 27.93607
695.9272, 23.79355
696.4275, 21.55609
696.9278, 23.20360
697.4281, 27.22200
697.9285, 28.36195
698.4288, 25.48759
698.9291, 20.47729
699.4294, 18.06934
699.9297, 18.57135
700.4300, 22.67342
700.9303, 27.43730
701.4307, 30.86713
701.9310, 30.33675
702.4313, 29.28807
702.9316, 28.27711
703.4319, 27.04012
703.9322, 24.30911
704.4325, 23.73183
704.9329, 26.91602
705.4332, 28.04465
705.9335, 27.32715
706.4338, 24.96887
706.9341, 25.53969
707.4344, 28.27049
707.9347, 28.38217
708.4351, 29.76109
708.9354, 30.05644
709.4357, 31.25758
709.9360, 31.53004
710.4363, 31.76738
710.9366, 29.99774
711.4369, 30.71458
711.9373, 35.17822
712.4376, 37.08063
712.9379, 34.70540
713.4382, 28.18343
713.9385, 26.48276
714.4388, 26.74702
714.9391, 30.36609
715.4394, 38.06693
715.9398, 46.52771
716.4401, 51.90416
716.9404, 51.98987
717.4407, 47.49893
717.9410, 42.54988
718.4413, 44.39310
718.9416, 50.35779
719.4420, 55.36948
719.9423, 55.18463
720.4426, 53.92221
720.9429, 53.64705
721.4432, 53.71878
721.9435, 51.76189
722.4438, 47.18578
722.9442, 44.27528
723.4445, 44.93285
723.9448, 48.60982
724.4451, 53.05066
724.9454, 56.94693
725.4457, 56.89520
725.9460, 59.12425
726.4464, 59.37445
726.9467, 59.64366
727.4470, 56.93466
727.9473, 62.19498
728.4476, 68.19565
728.9479, 73.08243
729.4482, 70.18228
729.9485, 66.74954
730.4489, 61.08556
730.9492, 62.44981
731.4495, 66.60876
731.9498, 70.94284
732.4501, 70.51056
732.9504, 70.60864
733.4507, 68.12489
733.9510, 69.02814
734.4514, 70.63496
734.9517, 75.83505
735.4520, 76.43576
735.9523, 77.27252
736.4526, 80.52682
736.9529, 80.24707
737.4532, 78.62418
737.9536, 76.31046
738.4539, 79.26254
738.9542, 83.80917
739.4545, 84.39964
739.9548, 83.65234
740.4551, 81.14572
740.9554, 80.61710
741.4557, 80.16949
741.9561, 78.86446
742.4564, 77.59445
742.9567, 72.79648
743.4570, 69.34268
743.9573, 70.96637
744.4576, 74.78589
744.9579, 74.87830
745.4583, 70.57074
745.9586, 67.65378
746.4589, 68.57758
746.9592, 70.52374
747.4595, 71.14447
747.9598, 70.31339
748.4601, 68.52194
748.9604, 68.39929
749.4608, 69.21539
749.9611, 64.98944
750.4614, 58.57886
750.9617, 55.61340
751.4620, 57.73727
751.9623, 57.35059
752.4626, 54.21964
752.9630, 52.62985
753.4633, 54.60336
753.9636, 58.93219
754.4639, 63.70685
754.9642, 64.20499
755.4645, 59.29999
755.9648, 52.53149
756.4651, 50.07956
756.9655, 51.18460
757.4658, 53.55914
757.9661, 51.66824
758.4664, 50.77426
758.9667, 43.64047
759.4670, 37.90115
759.9673, 33.64871
760.4677, 43.00851
760.9680, 49.07935
761.4683, 50.51907
761.9686, 43.65649
762.4689, 41.54214
762.9692, 36.35471
763.4695, 35.04269
763.9698, 31.40356
764.4702, 30.09760
764.9705, 26.93759
765.4708, 30.52841
765.9711, 29.17447
766.4714, 28.66101
766.9717, 22.32977
767.4720, 21.47089
767.9724, 17.63849
768.4727, 16.90079
768.9730, 16.52707
769.4733, 15.29422
769.9736, 14.57114
770.4739, 12.96857
770.9742, 8.575165
771.4745, 8.336182
771.9749, 13.77649
772.4752, 16.36157
772.9755, 10.94791
773.4758, 2.994934
773.9761, 2.364502
774.4764, 3.880157
774.9767, 4.678345
775.4771, 0.9793090
775.9774, 2.128082
776.4777, 2.071594
776.9780, 5.3801998E-02
777.4783, 0.7560120
777.9786, 7.516541
778.4789, 13.76178
778.9793, 13.44931
779.4796, 7.291595
779.9799, 3.648773
780.4802, 3.097412
780.9805, 1.492249
781.4808, 2.076202
781.9811, 2.817535
782.4815, 0.8027650
782.9818, 5.863251
783.4821, 12.65384
783.9824, 18.78717
784.4827, 22.79675
784.9830, 19.17908
785.4833, 13.54391
785.9837, 8.922180
786.4840, 9.859741
786.9843, 9.933533
787.4846, 8.342407
787.9849, 9.005615
788.4852, 11.31970
788.9855, 15.11523
789.4859, 14.69391
789.9862, 13.07953
790.4865, 12.94165
790.9868, 11.44141
791.4871, 13.32666
791.9874, 16.07489
792.4877, 20.69629
792.9881, 19.67340
793.4884, 14.65649
793.9887, 17.24988
794.4890, 21.42285
794.9893, 25.82281
795.4896, 23.61823
795.9899, 23.92230
796.4903, 19.81409
796.9906, 14.16895
797.4909, 6.297729
797.9912, 4.802612
798.4915, 3.797668
798.9918, 0.7372440
799.4921, 0.5003660
799.9925, 2.864746
800.4928, 10.88922
800.9931, 14.52881
801.4934, 17.18665
801.9937, 18.02582
802.4940, 16.78204
802.9943, 11.26001
803.4947, 6.274475
803.9950, 3.927612
804.4953, 5.656067
804.9956, 10.39276
805.4959, 9.436829
805.9962, 6.467773
806.4965, 3.996094
806.9969, 8.807373
807.4972, 13.41998
807.9975, 9.906494
808.4978, 1.058655
808.9981, 8.021912
809.4984, 14.57660
809.9987, 23.70502
810.4991, 25.89343
810.9994, 26.33557
811.4997, 20.85797
812.0000, 23.52435
812.5003, 28.62445
813.0006, 31.56860
813.5009, 34.74048
814.0013, 38.56720
814.5016, 45.02173
815.0019, 47.69806
815.5022, 47.61505
816.0025, 50.14624
816.5028, 54.69470
817.0031, 56.79535
817.5035, 55.03015
818.0038, 54.52527
818.5041, 62.33026
819.0044, 67.25073
819.5047, 72.45856
820.0050, 72.68073
820.5053, 78.21545
821.0057, 81.60895
821.5060, 85.75922
822.0063, 95.04962
822.5066, 99.11841
823.0069, 99.46368
823.5072, 97.08221
824.0075, 102.0119
824.5079, 107.2918
825.0082, 119.1453
825.5085, 131.2811
826.0088, 143.0220
826.5091, 144.5750
827.0094, 145.1223
827.5097, 151.4719
828.0101, 161.9159
828.5104, 171.8702
829.0107, 178.9617
829.5110, 185.0905
830.0113, 189.2025
830.5116, 200.4934
831.0119, 212.3175
831.5123, 226.2133
832.0126, 236.8576
832.5129, 253.4418
833.0132, 264.3577
833.5135, 280.2002
834.0138, 287.4266
834.5141, 304.2119
835.0145, 318.2567
835.5148, 336.7483
836.0151, 351.8842
836.5154, 357.6958
837.0157, 365.4175
837.5160, 378.7717
838.0163, 397.7462
838.5167, 414.0354
839.0170, 424.5250
839.5173, 441.9427
840.0176, 460.5588
840.5179, 480.8915
841.0182, 495.5918
841.5185, 515.4751
842.0189, 534.7936
842.5192, 556.2845
843.0195, 573.0096
843.5198, 594.9601
844.0201, 619.2310
844.5204, 639.4658
845.0207, 660.2733
845.5211, 678.8571
846.0214, 708.1553
846.5217, 736.6467
847.0220, 754.8008
847.5223, 773.2622
848.0226, 803.0802
848.5229, 843.1874
849.0233, 881.8481
849.5236, 913.5695
850.0239, 941.2766
850.5242, 977.8551
851.0245, 1005.733
851.5248, 1040.011
852.0251, 1069.140
852.5255, 1110.399
853.0258, 1155.177
853.5261, 1202.133
854.0264, 1252.086
854.5267, 1301.440
855.0270, 1343.985
855.5273, 1381.670
856.0276, 1429.799
856.5280, 1485.462
857.0283, 1544.614
857.5286, 1591.068
858.0289, 1637.615
858.5292, 1697.037
859.0295, 1768.513
859.5298, 1844.816
860.0302, 1908.907
860.5305, 1970.785
861.0308, 2037.075
861.5311, 2117.405
862.0314, 2206.863
862.5317, 2290.225
863.0320, 2369.024
863.5323, 2446.153
864.0327, 2535.622
864.5330, 2637.637
865.0333, 2733.815
865.5336, 2839.574
866.0339, 2942.426
866.5342, 3057.807
867.0345, 3165.348
867.5349, 3270.617
868.0352, 3382.273
868.5355, 3497.859
869.0358, 3618.983
869.5361, 3734.459
870.0364, 3849.736
870.5367, 3979.219
871.0370, 4120.988
871.5374, 4254.409
872.0377, 4375.101
872.5380, 4492.740
873.0383, 4622.189
873.5386, 4751.022
874.0389, 4881.883
874.5392, 5009.505
875.0396, 5128.480
875.5399, 5236.612
876.0402, 5347.350
876.5405, 5460.875
877.0408, 5567.451
877.5411, 5670.843
878.0414, 5778.140
878.5417, 5882.889
879.0421, 5962.440
879.5424, 6018.026
880.0427, 6076.916
880.5430, 6145.017
881.0433, 6224.375
881.5436, 6292.425
882.0439, 6341.256
882.5443, 6358.893
883.0446, 6367.563
883.5449, 6392.229
884.0452, 6424.690
884.5455, 6435.763
885.0458, 6415.371
885.5461, 6394.333
886.0464, 6391.426
886.5468, 6389.081
887.0471, 6367.284
887.5474, 6318.364
888.0477, 6262.798
888.5480, 6222.978
889.0483, 6171.447
889.5486, 6119.732
890.0490, 6050.428
890.5493, 5989.746
891.0496, 5918.172
891.5499, 5826.519
892.0502, 5725.543
892.5505, 5633.165
893.0508, 5559.957
893.5511, 5480.544
894.0515, 5367.259
894.5518, 5251.677
895.0521, 5140.012
895.5524, 5057.636
896.0527, 4965.288
896.5530, 4870.280
897.0533, 4759.896
897.5536, 4630.933
898.0540, 4508.184
898.5543, 4405.981
899.0546, 4315.752
899.5549, 4209.122
900.0552, 4085.249
900.5555, 3983.585
901.0558, 3873.349
901.5562, 3771.104
902.0565, 3657.289
902.5568, 3568.414
903.0571, 3476.362
903.5574, 3376.423
904.0577, 3264.370
904.5580, 3162.977
905.0584, 3075.294
905.5587, 3003.899
906.0590, 2923.249
906.5593, 2831.929
907.0596, 2746.368
907.5599, 2667.958
908.0602, 2588.939
908.5606, 2503.197
909.0609, 2423.062
909.5612, 2349.727
910.0615, 2283.644
910.5618, 2218.488
911.0621, 2161.049
911.5624, 2107.930
912.0627, 2056.890
912.5631, 2001.804
913.0634, 1944.520
913.5637, 1875.141
914.0640, 1804.890
914.5643, 1736.067
915.0646, 1677.111
915.5649, 1614.354
916.0653, 1556.357
916.5656, 1494.922
917.0659, 1450.068
917.5662, 1398.212
918.0665, 1344.287
918.5668, 1297.708
919.0671, 1261.986
919.5675, 1238.437
920.0678, 1207.663
920.5681, 1174.121
921.0684, 1142.622
921.5687, 1117.353
922.0690, 1084.167
922.5693, 1059.802
923.0697, 1035.672
923.5700, 1021.196
924.0703, 993.9602
924.5706, 958.9144
925.0709, 923.9773
925.5712, 885.6320
926.0715, 858.2295
926.5719, 834.7053
927.0722, 816.4290
927.5725, 791.1445
928.0728, 768.8070
928.5731, 754.7009
929.0734, 740.2297
929.5737, 720.5846
930.0741, 696.5421
930.5744, 674.2090
931.0747, 657.5991
931.5750, 626.4438
932.0753, 592.5497
932.5756, 556.4388
933.0759, 532.7576
933.5763, 507.2577
934.0766, 489.0249
934.5769, 475.2469
935.0772, 458.3221
935.5775, 436.7559
936.0778, 418.9320
936.5781, 411.2832
937.0785, 406.3014
937.5788, 404.4003
938.0791, 398.8199
938.5794, 385.5543
939.0797, 365.5869
939.5800, 349.9520
940.0803, 337.0820
940.5807, 319.2910
941.0810, 298.4661
941.5813, 283.0367
942.0816, 273.9269
942.5819, 268.9285
943.0822, 266.3246
943.5825, 262.8458
944.0829, 254.0770
944.5832, 245.0681
945.0835, 238.5129
945.5838, 238.0463
946.0841, 234.4052
946.5844, 225.0464
947.0847, 224.5248
947.5851, 216.5962
948.0854, 212.8577
948.5857, 199.0887
949.0860, 188.0135
949.5863, 176.3987
950.0866, 165.6982
950.5869, 147.8771
951.0873, 127.2749
951.5876, 105.2217
952.0879, 89.17114
952.5882, 71.63342
953.0885, 62.34106
953.5888, 53.67517
954.0891, 49.08350
954.5895, 34.83984
955.0898, 22.46204
955.5901, 13.64233
956.0904, 7.602051
956.5907, 4.539307
957.0910, 1.942749
957.5913, 2.953369
958.0917, 9.681641
958.5920, 18.06934
959.0923, 31.35010
959.5926, 33.11804
960.0929, 30.81641
960.5932, 23.59131
961.0935, 32.24927
961.5939, 43.54749
962.0942, 43.43274
962.5945, 39.16992
963.0948, 36.79370
963.5951, 39.92346
964.0954, 41.46680
964.5957, 39.93115
965.0961, 35.16785
965.5964, 25.68286
966.0967, 29.70923
966.5970, 32.79761
967.0973, 42.47986
967.5976, 38.37317
968.0979, 35.07764
968.5983, 32.39893
969.0986, 34.74463
969.5989, 35.55322
970.0992, 31.52771
970.5995, 23.30664
971.0998, 25.57422
971.6001, 33.70361
972.1005, 24.69531
972.6008, 15.59192
973.1011, 11.52747
973.6014, 22.68115
974.1017, 24.36194
974.6020, 16.23206
975.1023, 14.27686
975.6027, 22.62158
976.1030, 26.00305
976.6033, 22.90698
977.1036, 13.22961
977.6039, 8.503174
978.1042, 7.178833
978.6045, 2.927490
979.1049, 2.567627
979.6052, 6.170410
980.1055, 12.23926
980.6058, 10.83960
981.1061, 2.068848
981.6064, 7.732666
982.1067, 2.771484
982.6071, 1.080444
983.1074, 1.121704
983.6077, 13.22229
984.1080, 16.95068
984.6083, 9.798706
985.1086, 2.072266
985.6089, 0.7073970
986.1093, 0.9478760
986.6096, 10.76575
987.1099, 12.47498
987.6102, 14.90625
988.1105, 21.61560
988.6108, 13.62732
989.1111, 6.583862
989.6115, 2.748901
990.1118, 10.10437
990.6121, 28.89331
991.1124, 32.57239
991.6127, 28.09668
992.1130, 24.69238
992.6133, 31.22632
993.1136, 37.46375
993.6140, 36.46655
994.1143, 29.79578
994.6146, 33.62231
995.1149, 39.60962
995.6152, 53.82849
996.1155, 55.01794
996.6158, 55.99414
997.1161, 50.84912
997.6165, 45.92383
998.1168, 48.80542
998.6171, 60.19287
999.1174, 70.56238
999.6177, 71.07666
1000.118, 67.19324
1000.618, 71.62683
1001.119, 79.62537
1001.619, 90.59131
1002.119, 92.99561
1002.620, 103.5712
1003.120, 111.6393
1003.620, 118.9597
1004.121, 119.5819
1004.621, 130.3575
1005.121, 129.1620
1005.621, 131.1350
1006.122, 121.4929
1006.622, 127.1199
1007.122, 131.2183
1007.623, 138.5708
1008.123, 153.7334
1008.623, 169.0950
1009.124, 178.9398
1009.624, 178.5264
1010.124, 177.8195
1010.625, 184.6288
1011.125, 194.8412
1011.625, 189.0153
1012.126, 181.8627
1012.626, 174.1775
1013.126, 183.0211
1013.626, 187.4323
1014.127, 186.6418
1014.627, 188.7013
1015.127, 189.9844
1015.628, 204.3616
1016.128, 207.3165
1016.628, 206.0975
1017.129, 198.4989
1017.629, 197.4043
1018.129, 215.8011
1018.630, 225.7108
1019.130, 228.9335
1019.630, 219.9492
1020.131, 217.3966
1020.631, 214.9647
1021.131, 211.5114
1021.632, 205.8920
1022.132, 207.5533
1022.632, 202.0988
1023.132, 201.5544
1023.633, 201.3962
1024.133, 200.0891
1024.633, 204.7410
1025.134, 205.2410
1025.634, 210.3727
1026.134, 202.3938
1026.635, 192.7234
1027.135, 184.8326
1027.635, 186.5281
1028.136, 188.9545
1028.636, 185.3521
1029.136, 180.5126
1029.636, 175.0767
1030.137, 174.5216
1030.637, 176.0625
1031.137, 183.0009
1031.638, 181.3544
1032.138, 173.1591
1032.638, 162.0522
1033.139, 164.5380
1033.639, 168.4250
1034.139, 170.8964
1034.640, 175.1530
1035.140, 176.3068
1035.640, 190.3831
1036.141, 196.3871
1036.641, 197.6147
1037.141, 185.9469
1037.642, 180.0129
1038.142, 186.0957
1038.642, 195.8861
1039.142, 199.5311
1039.643, 197.2430
1040.143, 198.3658
1040.643, 204.1318
1041.144, 209.5210
1041.644, 226.8345
1042.144, 237.6409
1042.645, 252.9469
1043.145, 252.5881
1043.645, 259.7595
1044.146, 266.7107
1044.646, 270.7261
1045.146, 269.0162
1045.647, 267.6365
1046.147, 271.6246
1046.647, 277.5828
1047.147, 284.3252
1047.648, 296.0175
1048.148, 310.3776
1048.648, 318.6313
1049.149, 311.5569
1049.649, 301.9553
1050.149, 297.6003
1050.650, 299.1128
1051.150, 301.3308
1051.650, 312.8364
1052.151, 315.6880
1052.651, 320.4120
1053.151, 317.6194
1053.652, 325.9656
1054.152, 329.4803
1054.652, 328.2852
1055.153, 331.0182
1055.653, 329.4233
1056.153, 331.5466
1056.653, 334.1681
1057.154, 346.9650
1057.654, 354.9224
1058.154, 354.5554
1058.655, 352.3494
1059.155, 355.4700
1059.655, 367.3507
1060.156, 370.8407
1060.656, 369.4497
1061.156, 364.7904
1061.657, 364.7582
1062.157, 359.9609
1062.657, 357.4886
1063.158, 363.3989
1063.658, 375.8243
1064.158, 382.1887
1064.658, 383.5983
1065.159, 386.7825
1065.659, 389.7545
1066.159, 395.8746
1066.660, 399.6018
1067.160, 409.0099
1067.660, 419.9580
1068.161, 430.5806
1068.661, 430.6301
1069.161, 422.8954
1069.662, 433.0944
1070.162, 439.4550
1070.662, 447.2532
1071.163, 441.3943
1071.663, 450.0299
1072.163, 462.7039
1072.664, 476.8909
1073.164, 491.5784
1073.664, 502.5881
1074.164, 507.6217
1074.665, 516.0061
1075.165, 526.1858
1075.665, 531.3428
1076.166, 531.1743
1076.666, 530.8809
1077.166, 539.6013
1077.667, 555.5504
1078.167, 566.2777
1078.667, 568.3152
1079.168, 565.2576
1079.668, 576.3464
1080.168, 594.7036
1080.669, 606.2736
1081.169, 613.7318
1081.669, 619.7388
1082.169, 627.4917
1082.670, 630.8132
1083.170, 635.5330
1083.670, 639.8599
1084.171, 645.6890
1084.671, 647.8108
1085.171, 655.3353
1085.672, 659.8950
1086.172, 656.7911
1086.672, 640.6565
1087.173, 638.2693
1087.673, 639.3998
1088.173, 652.0493
1088.674, 652.9878
1089.174, 656.5325
1089.674, 654.9899
1090.175, 655.1586
1090.675, 661.0449
1091.175, 666.8865
1091.675, 663.9304
1092.176, 662.7622
1092.676, 655.1438
1093.176, 648.5085
1093.677, 645.7527
1094.177, 644.9733
1094.677, 645.2521
1095.178, 638.8533
1095.678, 638.9485
1096.178, 637.9229
1096.679, 629.9204
1097.179, 618.0198
1097.679, 609.1564
1098.180, 608.7076
1098.680, 599.5474
1099.180, 592.6786
1099.680, 581.7174
1100.181, 576.5343
1100.681, 564.2402
1101.181, 556.6387
1101.682, 563.7996
1102.182, 570.1660
1102.682, 572.4775
1103.183, 565.9795
1103.683, 563.8474
1104.183, 556.9312
1104.684, 542.2625
1105.184, 525.4966
1105.684, 521.8522
1106.185, 517.3553
1106.685, 512.8274
1107.185, 493.7953
1107.686, 473.7922
1108.186, 454.5854
1108.686, 457.6122
1109.186, 468.4783
1109.687, 473.1522
1110.187, 461.7542
1110.687, 450.8557
1111.188, 443.5997
1111.688, 430.7383
1112.188, 417.1309
1112.689, 411.0149
1113.189, 395.4684
1113.689, 381.4814
1114.190, 364.1051
1114.690, 362.3580
1115.190, 362.4344
1115.691, 361.4669
1116.191, 359.9653
1116.691, 355.8452
1117.191, 350.8813
1117.692, 332.7361
1118.192, 313.8687
1118.692, 300.1754
1119.193, 300.4276
1119.693, 305.0128
1120.193, 300.5402
1120.694, 289.6097
1121.194, 283.6348
1121.694, 281.1069
1122.195, 283.5929
1122.695, 278.0012
1123.195, 266.3755
1123.696, 253.5872
1124.196, 246.1523
1124.696, 243.4451
1125.197, 245.5819
1125.697, 237.2595
1126.197, 225.4297
1126.697, 209.6335
1127.198, 201.4081
1127.698, 210.1415
1128.198, 208.5989
1128.699, 199.1455
1129.199, 174.2637
1129.699, 165.1244
1130.200, 171.9851
1130.700, 184.1383
1131.200, 184.1611
1131.701, 172.8430
1132.201, 166.0394
1132.701, 170.2517
1133.202, 168.8364
1133.702, 158.9673
1134.202, 146.3762
1134.702, 134.0540
1135.203, 136.4359
1135.703, 136.0065
1136.203, 134.4601
1136.704, 127.3794
1137.204, 124.5264
1137.704, 126.5299
1138.205, 121.6160
1138.705, 114.7474
1139.205, 117.6954
1139.706, 119.5187
1140.206, 117.9910
1140.706, 101.7490
1141.207, 85.84729
1141.707, 78.43628
1142.207, 80.83789
1142.708, 71.13916
1143.208, 70.04980
1143.708, 69.20471
1144.208, 83.55688
1144.709, 84.36108
1145.209, 81.49219
1145.709, 74.44421
1146.210, 68.64893
1146.710, 69.99109
1147.210, 69.53186
1147.711, 68.99731
1148.211, 61.11768
1148.711, 56.52820
1149.212, 49.79492
1149.712, 44.90845
1150.212, 39.03967
1150.713, 35.17749
1151.213, 34.50903
1151.713, 36.92688
1152.213, 32.47095
1152.714, 22.64282
1153.214, 15.84192
1153.714, 16.95520
1154.215, 23.63892
1154.715, 24.38049
1155.215, 22.88147
1155.716, 15.43726
1156.216, 15.67358
1156.716, 17.52063
1157.217, 18.40784
1157.717, 18.64612
1158.217, 12.08057
1158.718, 10.59192
1159.218, 6.875732
1159.718, 4.168945
1160.219, 1.020508
1160.719, 6.192993
1161.219, 6.088379
1161.719, 1.465820
1162.220, 9.170654
1162.720, 12.70386
1163.220, 3.653564
1163.721, 7.760010
1164.221, 16.25867
1164.721, 15.49500
1165.222, 7.265381
1165.722, 0.2496340
1166.222, 4.191162
1166.723, 8.127197
1167.223, 11.68860
1167.723, 6.010254
1168.224, 9.140625
1168.724, 14.30151
1169.224, 16.40125
1169.724, 17.26123
1170.225, 10.33276
1170.725, 9.849854
1171.225, 8.510010
1171.726, 15.79346
1172.226, 19.38794
1172.726, 16.00635
1173.227, 11.96350
1173.727, 14.38330
1174.227, 13.37585
1174.728, 19.34644
1175.228, 17.25916
1175.728, 21.41394
1176.229, 11.62500
1176.729, 4.566284
1177.229, 1.435547
1177.729, 6.978760
1178.230, 11.76978
1178.730, 8.908691
1179.230, 6.470093
1179.731, 7.925781
1180.231, 18.44836
1180.731, 19.85767
1181.232, 16.93542
1181.732, 15.07520
1182.232, 10.52429
1182.733, 4.810669
1183.233, 4.158325
1183.733, 3.972656
1184.234, 3.248535
1184.734, 6.211914
1185.234, 11.64539
1185.734, 16.39233
1186.235, 15.68604
1186.735, 14.84399
1187.235, 13.22314
1187.736, 14.90588
1188.236, 16.51648
1188.736, 21.37427
1189.237, 24.87708
1189.737, 22.81262
1190.237, 26.89539
1190.738, 29.39392
1191.238, 40.26660
1191.738, 44.63306
1192.239, 48.65027
1192.739, 52.16321
1193.239, 56.27905
1193.740, 60.86560
1194.240, 62.63794
1194.740, 58.88794
1195.240, 59.44873
1195.741, 60.42322
1196.241, 64.40637
1196.741, 69.30237
1197.242, 76.09790
1197.742, 83.52722
1198.242, 86.65625
1198.743, 95.03003
1199.243, 103.0496
1199.743, 108.9436
1200.244, 107.7944
1200.744, 108.1849
1201.244, 108.2061
1201.745, 109.3370
1202.245, 109.6417
1202.745, 114.6321
1203.245, 115.4299
1203.746, 116.6327
1204.246, 123.6613
1204.746, 131.9845
1205.247, 134.3784
1205.747, 126.9922
1206.247, 129.4717
1206.748, 140.2511
1207.248, 151.6051
1207.748, 155.6812
1208.249, 151.5988
1208.749, 144.5833
1209.249, 145.0258
1209.750, 155.4380
1210.250, 170.6143
1210.750, 177.8153
1211.250, 178.9935
1211.751, 180.0594
1212.251, 185.9186
1212.751, 189.2635
1213.252, 192.0564
1213.752, 191.5886
1214.252, 197.6638
1214.753, 201.1301
1215.253, 194.2546
1215.753, 184.9374
1216.254, 180.7502
1216.754, 178.6138
1217.254, 181.2198
1217.755, 181.2037
1218.255, 194.0870
1218.755, 201.6642
1219.255, 208.0945
1219.756, 200.9711
1220.256, 202.1526
1220.756, 202.7345
1221.257, 215.9224
1221.757, 217.3866
1222.257, 214.5536
1222.758, 208.7311
1223.258, 213.0364
1223.758, 218.2434
1224.259, 226.4789
1224.759, 219.4163
1225.259, 225.2593
1225.760, 235.9463
1226.260, 248.6709
1226.760, 241.9208
1227.260, 221.9011
1227.761, 208.2725
1228.261, 203.9949
1228.761, 199.0853
1229.262, 190.6381
1229.762, 184.7274
1230.262, 185.5828
1230.763, 190.2054
1231.263, 194.3364
1231.763, 200.6805
1232.264, 206.7289
1232.764, 212.2592
1233.264, 208.5330
1233.765, 200.1790
1234.265, 195.5686
1234.765, 182.3959
1235.266, 178.1965
1235.766, 173.0432
1236.266, 179.0417
1236.766, 176.8451
1237.267, 173.5238
1237.767, 174.6157
1238.267, 169.1344
1238.768, 163.8896
1239.268, 155.5969
1239.768, 147.9319
1240.269, 143.2598
1240.769, 142.2162
1241.269, 144.1094
1241.770, 141.0310
1242.270, 141.4764
1242.770, 131.6492
1243.271, 128.1493
1243.771, 116.5243
1244.271, 119.9131
1244.771, 119.0048
1245.272, 117.5912
1245.772, 112.8390
1246.272, 118.7708
1246.773, 110.3762
1247.273, 113.8900
1247.773, 106.8262
1248.274, 110.3948
1248.774, 104.0752
1249.274, 98.17944
1249.775, 89.95264
1250.275, 97.09265
1250.775, 95.19055
1251.276, 105.7700
1251.776, 97.23572
1252.276, 92.49609
1252.776, 88.52271
1253.277, 85.53210
1253.777, 81.27527
1254.277, 76.17517
1254.778, 80.56494
1255.278, 84.16284
1255.778, 79.10144
1256.279, 71.59448
1256.779, 72.93884
1257.279, 76.65552
1257.780, 65.83252
1258.280, 64.16223
1258.780, 61.04053
1259.281, 72.57336
1259.781, 72.91833
1260.281, 75.85913
1260.781, 76.31897
1261.282, 62.62793
1261.782, 48.76917
1262.282, 32.16675
1262.783, 38.53369
1263.283, 44.37134
1263.783, 45.85950
1264.284, 36.80750
1264.784, 37.21509
1265.284, 49.66980
1265.785, 54.96753
1266.285, 45.62463
1266.785, 33.05676
1267.286, 27.80115
1267.786, 28.16003
1268.286, 26.57251
1268.787, 21.93164
1269.287, 25.30859
1269.787, 25.23120
1270.287, 32.17712
1270.788, 24.79907
1271.288, 19.36499
1271.788, 11.49011
1272.289, 9.584351
1272.789, 11.82434
1273.289, 8.626709
1273.790, 18.12085
1274.290, 22.50891
1274.790, 26.99963
1275.291, 17.29468
1275.791, 8.607666
1276.291, 3.337402
1276.792, 2.767822
1277.292, 2.649292
1277.792, 8.474731
1278.292, 15.49658
1278.793, 16.24133
1279.293, 17.53235
1279.793, 20.26965
1280.294, 22.75195
1280.794, 26.77539
1281.294, 19.49890
1281.795, 10.44568
1282.295, 3.826294
1282.795, 0.1997070
1283.296, 6.205566
1283.796, 11.62341
1284.296, 14.66980
1284.797, 16.92090
1285.297, 25.72229
1285.797, 14.87134
1286.298, 6.525146
1286.798, 4.986084
1287.298, 1.530151
1287.798, 8.228516
1288.299, 11.44006
1288.799, 16.37878
1289.299, 13.07141
1289.800, 19.21411
1290.300, 21.33777
1290.800, 18.91577
1291.301, 6.325439
1291.801, 4.635010
1292.301, 7.029053
1292.802, 5.217163
1293.302, 2.620361
1293.802, 3.709351
1294.303, 1.848145
1294.803, 2.273926
1295.303, 2.703369
1295.803, 8.073730
1296.304, 16.86157
1296.804, 14.78870
1297.304, 15.57971
1297.805, 2.274170
1298.305, 1.823120
1298.805, 14.96106
1299.306, 17.38599
1299.806, 21.18213
1300.306, 16.93665
1300.807, 10.66052
1301.307, 5.555908
1301.807, 16.25366
1302.308, 19.23083
1302.808, 28.56531
1303.308, 31.48987
1303.809, 41.07104
1304.309, 45.58984
1304.809, 39.38806
1305.309, 30.50671
1305.810, 37.42871
1306.310, 47.35706
1306.810, 59.54297
1307.311, 56.57104
1307.811, 58.88306
1308.311, 62.17200
1308.812, 63.18835
1309.312, 72.04236
1309.812, 79.24500
1310.313, 89.45105
1310.813, 95.06470
1311.313, 105.6906
1311.814, 116.7756
1312.314, 119.7134
1312.814, 112.3395
1313.314, 106.3861
1313.815, 97.24561
1314.315, 105.9529
1314.815, 112.8920
1315.316, 129.5043
1315.816, 139.0803
1316.316, 147.0980
1316.817, 147.4369
1317.317, 149.2820
1317.817, 150.5154
1318.318, 161.7616
1318.818, 165.5557
1319.318, 166.7351
1319.819, 162.9193
1320.319, 164.3416
1320.819, 175.3068
1321.320, 191.6653
1321.820, 203.6477
1322.320, 202.4922
1322.820, 205.7284
1323.321, 207.9589
1323.821, 222.9597
1324.321, 233.4600
1324.822, 243.3649
1325.322, 248.8347
1325.822, 252.9681
1326.323, 261.9264
1326.823, 269.4926
1327.323, 278.1294
1327.824, 283.4878
1328.324, 289.5508
1328.824, 292.2062
1329.325, 294.0828
1329.825, 297.3815
1330.325, 302.7765
1330.825, 309.2179
1331.326, 313.5071
1331.826, 318.8906
1332.326, 325.4237
1332.827, 330.5347
1333.327, 330.3040
1333.827, 329.9700
1334.328, 335.3982
1334.828, 330.7930
1335.328, 335.1787
1335.829, 337.8235
1336.329, 345.5354
1336.829, 343.9878
1337.330, 347.0374
1337.830, 357.0781
1338.330, 364.6257
1338.831, 372.3896
1339.331, 371.1738
1339.831, 370.5216
1340.331, 357.3256
1340.832, 346.6401
1341.332, 339.6660
1341.832, 343.6549
1342.333, 350.6243
1342.833, 352.0159
1343.333, 351.4528
1343.834, 352.8938
1344.334, 351.9844
1344.834, 347.0115
1345.335, 343.2322
1345.835, 347.3823
1346.335, 356.1287
1346.836, 364.2513
1347.336, 367.1552
1347.836, 371.9089
1348.336, 370.0714
1348.837, 371.7892
1349.337, 365.3049
1349.837, 362.2014
1350.338, 358.6738
1350.838, 355.5393
1351.338, 360.7366
1351.839, 359.0050
1352.339, 365.6520
1352.839, 366.2302
1353.340, 365.2849
1353.840, 359.4684
1354.340, 359.8826
1354.841, 367.2678
1355.341, 372.9136
1355.841, 374.9429
1356.342, 376.9167
1356.842, 373.8862
1357.342, 373.4171
1357.842, 372.6409
1358.343, 375.9630
1358.843, 377.4059
1359.343, 385.1238
1359.844, 402.6147
1360.344, 405.4048
1360.844, 405.5356
1361.345, 404.5485
1361.845, 411.5358
1362.345, 411.5503
1362.846, 403.3047
1363.346, 399.3862
1363.846, 399.4224
1364.347, 397.5740
1364.847, 397.1447
1365.347, 399.5555
1365.847, 398.9019
1366.348, 403.3956
1366.848, 408.2385
1367.348, 413.9803
1367.849, 408.6101
1368.349, 399.8038
1368.849, 397.1450
1369.350, 401.2776
1369.850, 410.4598
1370.350, 417.2064
1370.851, 413.1667
1371.351, 400.4497
1371.851, 393.7208
1372.352, 402.1761
1372.852, 413.6094
1373.352, 416.7429
1373.853, 411.9688
1374.353, 404.2705
1374.853, 408.8594
1375.353, 411.5784
1375.854, 417.8479
1376.354, 420.2289
1376.854, 425.8090
1377.355, 426.7198
1377.855, 425.3447
1378.355, 426.3279
1378.856, 428.7069
1379.356, 432.3032
1379.856, 432.2009
1380.357, 431.4814
1380.857, 425.0654
1381.357, 420.5569
1381.858, 417.9880
1382.358, 418.5883
1382.858, 425.2156
1383.358, 432.5059
1383.859, 429.7471
1384.359, 421.6425
1384.859, 422.9464
1385.360, 436.5111
1385.860, 446.8929
1386.360, 446.3794
1386.861, 435.0691
1387.361, 436.5344
1387.861, 430.8503
1388.362, 432.6991
1388.862, 424.9777
1389.362, 435.7728
1389.863, 449.9812
1390.363, 456.5283
1390.863, 454.1478
1391.364, 450.8585
1391.864, 452.8678
1392.364, 445.4374
1392.864, 443.3318
1393.365, 432.4611
1393.865, 430.9419
1394.365, 428.8459
1394.866, 435.4049
1395.366, 436.5985
1395.866, 433.5951
1396.367, 438.5452
1396.867, 442.4786
1397.367, 442.2825
1397.868, 434.0664
1398.368, 436.4249
1398.868, 439.9347
1399.369, 441.0084
1399.869, 439.0369
1400.369, 432.4834
1400.869, 414.0455
1401.370, 409.1317
1401.870, 404.1388
1402.370, 413.3278
1402.871, 408.1244
1403.371, 408.1356
1403.871, 410.3229
1404.372, 412.4165
1404.872, 413.6199
1405.372, 407.5446
1405.873, 401.2070
1406.373, 387.7784
1406.873, 386.9065
1407.374, 384.8679
1407.874, 385.0162
1408.374, 378.6185
1408.875, 377.0436
1409.375, 378.6589
1409.875, 370.8322
1410.375, 372.8705
1410.876, 368.6113
1411.376, 379.1216
1411.876, 372.0770
1412.377, 368.9182
1412.877, 360.4164
1413.377, 355.0089
1413.878, 347.5320
1414.378, 336.4529
1414.878, 342.5488
1415.379, 353.6368
1415.879, 366.8835
1416.379, 365.8304
1416.880, 362.9766
1417.380, 357.6188
1417.880, 349.4283
1418.380, 341.6045
1418.881, 335.4277
1419.381, 336.0660
1419.881, 338.1127
1420.382, 334.0935
1420.882, 326.9299
1421.382, 321.4249
1421.883, 324.1145
1422.383, 321.8781
1422.883, 315.9261
1423.384, 313.5581
1423.884, 310.1968
1424.384, 309.3051
1424.885, 299.2952
1425.385, 290.2699
1425.885, 281.6378
1426.385, 278.7076
1426.886, 281.3717
1427.386, 285.3069
1427.886, 284.6788
1428.387, 275.2396
1428.887, 267.1932
1429.387, 257.8079
1429.888, 257.1816
1430.388, 254.6329
1430.888, 251.7173
1431.389, 239.4446
1431.889, 224.0457
1432.389, 218.1736
1432.890, 224.5138
1433.390, 233.0718
1433.890, 235.5007
1434.391, 230.7588
1434.891, 222.1847
1435.391, 219.7979
1435.891, 211.6016
1436.392, 203.1145
1436.892, 190.5974
1437.392, 183.9286
1437.893, 180.5923
1438.393, 172.9655
1438.893, 166.1570
1439.394, 171.2435
1439.894, 171.6659
1440.394, 167.7482
1440.895, 157.1708
1441.395, 157.6879
1441.895, 162.3956
1442.396, 161.7006
1442.896, 153.0487
1443.396, 135.1973
1443.896, 123.8608
1444.397, 118.2997
1444.897, 127.1233
1445.397, 123.1918
1445.898, 116.3294
1446.398, 105.7615
1446.898, 104.7454
1447.399, 108.1646
1447.899, 103.8922
1448.399, 96.88538
1448.900, 86.51038
1449.400, 81.99768
1449.900, 80.44049
1450.401, 76.57617
1450.901, 77.66296
1451.401, 74.04083
1451.901, 66.83582
1452.402, 56.17261
1452.902, 50.87146
1453.402, 51.80731
1453.903, 51.50500
1454.403, 48.70795
1454.903, 49.92633
1455.404, 53.67084
1455.904, 53.67700
1456.404, 47.83350
1456.905, 39.89087
1457.405, 34.77466
1457.905, 32.32141
1458.406, 32.05695
1458.906, 34.63843
1459.406, 37.58026
1459.906, 34.18774
1460.407, 25.78357
1460.907, 18.62164
1461.407, 14.83838
1461.908, 11.26099
1462.408, 9.753540
1462.908, 13.48761
1463.409, 14.12537
1463.909, 6.022461
1464.409, 1.547241
1464.910, 4.0894002E-02
1465.410, 3.552612
1465.910, 0.5271000
1466.411, 1.706116
1466.911, 0.5344850
1467.411, 2.960693
1467.911, 7.119141
1468.412, 7.119934
1468.912, 2.268188
1469.412, 1.211426
1469.913, 5.663269
1470.413, 2.762146
1470.913, 10.85760
1471.414, 10.71454
1471.914, 12.41760
1472.414, 16.43677
1472.915, 16.09381
1473.415, 8.157593
1473.915, 3.079834
1474.416, 3.579224
1474.916, 7.948242
1475.416, 8.220947
1475.917, 8.436340
1476.417, 9.197937
1476.917, 9.276367
1477.417, 11.42102
1477.918, 17.45569
1478.418, 20.48676
1478.918, 14.42004
1479.419, 12.23096
1479.919, 8.314087
1480.419, 12.77478
1480.920, 13.12036
1481.420, 14.18164
1481.920, 13.29590
1482.421, 10.11902
1482.921, 8.800049
1483.421, 12.06793
1483.922, 14.67194
1484.422, 14.99701
1484.922, 7.395386
1485.422, 4.914429
1485.923, 9.096130
1486.423, 18.57697
1486.923, 18.94543
1487.424, 12.51892
1487.924, 3.171082
1488.424, 3.3507999E-02
1488.925, 5.984741
1489.425, 10.70691
1489.925, 6.867859
1490.426, 2.929382
1490.926, 0.2025150
1491.426, 2.084839
1491.927, 0.7700810
1492.427, 2.336243
1492.927, 1.668213
1493.427, 1.025146
1493.928, 6.233582
1494.428, 7.452698
1494.928, 0.9265140
1495.429, 6.585205
1495.929, 8.763000
1496.429, 5.846069
1496.930, 5.614624
1497.430, 6.712708
1497.930, 5.005615
1498.431, 2.962402
1498.931, 3.352051
1499.431, 5.551056
1499.932, 10.46451
1500.432, 8.718903
1500.932, 12.04117
1501.432, 12.71494
1501.933, 17.46033
1502.433, 16.97800
1502.933, 15.83194
1503.434, 16.35696
1503.934, 17.12909
1504.434, 17.63760
1504.935, 20.63354
1505.435, 19.68530
1505.935, 22.44769
1506.436, 25.17007
1506.936, 30.96512
1507.436, 32.24905
1507.937, 29.81110
1508.437, 25.22989
1508.937, 23.89029
1509.438, 27.28601
1509.938, 32.51685
1510.438, 33.75616
1510.938, 32.51733
1511.439, 32.51068
1511.939, 30.86786
1512.439, 30.53244
1512.940, 31.17194
1513.440, 35.62033
1513.940, 38.19254
1514.441, 39.81238
1514.941, 40.37970
1515.441, 39.68854
1515.942, 39.48758
1516.442, 42.18213
1516.942, 40.58572
1517.443, 42.15591
1517.943, 45.33154
1518.443, 52.07187
1518.943, 51.96997
1519.444, 49.15045
1519.944, 48.99280
1520.444, 52.06931
1520.945, 52.43185
1521.445, 49.46579
1521.945, 50.84000
1522.446, 57.02011
1522.946, 62.64758
1523.446, 64.32303
1523.947, 60.25705
1524.447, 54.22437
1524.947, 49.68787
1525.448, 50.86572
1525.948, 56.72888
1526.448, 59.46695
1526.948, 57.01367
1527.449, 59.51010
1527.949, 60.27371
1528.449, 63.19724
1528.950, 64.70059
1529.450, 64.06787
1529.950, 62.99637
1530.451, 62.21628
1530.951, 66.40759
1531.451, 71.37482
1531.952, 72.64804
1532.452, 71.58817
1532.952, 73.21210
1533.453, 77.83218
1533.953, 76.80209
1534.453, 73.66034
1534.953, 64.69595
1535.454, 65.06845
1535.954, 65.48422
1536.454, 70.49896
1536.955, 73.38776
1537.455, 73.20703
1537.955, 69.93134
1538.456, 65.60464
1538.956, 63.27158
1539.456, 63.90482
1539.957, 71.62201
1540.457, 74.89059
1540.957, 77.48151
1541.458, 69.54706
1541.958, 65.94296
1542.458, 60.79318
1542.959, 60.86044
1543.459, 62.56589
1543.959, 64.69199
1544.459, 66.12506
1544.960, 64.10815
1545.460, 60.27979
1545.960, 58.41873
1546.461, 61.91379
1546.961, 66.76434
1547.461, 67.76508
1547.962, 64.06815
1548.462, 62.76556
1548.962, 63.47638
1549.463, 62.54779
1549.963, 60.95828
1550.463, 58.95499
1550.964, 56.54388
1551.464, 53.44687
1551.964, 48.46890
1552.464, 49.09601
1552.965, 46.43784
1553.465, 45.10602
1553.965, 44.31436
1554.466, 44.78064
1554.966, 47.79922
1555.466, 51.92261
1555.967, 55.44196
1556.467, 61.18268
1556.967, 61.16574
1557.468, 61.08102
1557.968, 52.13287
1558.468, 49.12350
1558.969, 48.07440
1559.469, 48.51266
1559.969, 49.12320
1560.470, 50.14981
1560.970, 51.91696
1561.470, 49.04239
1561.970, 45.84433
1562.471, 47.43353
1562.971, 47.39743
1563.471, 48.27713
1563.972, 43.45166
1564.472, 42.89127
1564.972, 43.76932
1565.473, 49.51434
1565.973, 50.70352
1566.473, 49.71277
1566.974, 47.40228
1567.474, 44.47440
1567.974, 42.89279
1568.475, 42.98172
1568.975, 45.39447
1569.475, 48.46582
1569.975, 47.85312
1570.476, 48.91760
1570.976, 46.66183
1571.476, 48.20218
1571.977, 50.85422
1572.477, 51.97882
1572.977, 48.00278
1573.478, 42.44043
1573.978, 41.75330
1574.478, 43.49628
1574.979, 45.11792
1575.479, 41.19730
1575.979, 43.33365
1576.480, 43.14389
1576.980, 45.14796
1577.480, 41.24422
1577.981, 42.80392
1578.481, 45.26656
1578.981, 47.54706
1579.481, 46.26956
1579.982, 45.68799
1580.482, 47.14740
1580.982, 45.25223
1581.483, 46.02519
1581.983, 39.91045
1582.483, 38.11270
1582.984, 33.18744
1583.484, 34.63815
1583.984, 37.65039
1584.485, 36.62155
1584.985, 36.07205
1585.485, 34.49591
1585.986, 36.08652
1586.486, 37.87149
1586.986, 33.80043
1587.486, 30.70662
1587.987, 31.10559
1588.487, 34.84970
1588.987, 37.97646
1589.488, 38.65515
1589.988, 39.18462
1590.488, 35.57426
1590.989, 29.97148
1591.489, 27.67145
1591.989, 30.29965
1592.490, 34.22177
1592.990, 35.34926
1593.490, 32.34435
1593.991, 33.76894
1594.491, 28.77191
1594.991, 30.28505
1595.492, 29.94070
1595.992, 37.65073
1596.492, 40.42860
1596.992, 40.51443
1597.493, 37.04608
1597.993, 33.56761
1598.493, 31.33739
1598.994, 31.98354
1599.494, 32.67032
1599.994, 32.76184
1600.495, 29.02602
1600.995, 32.81776
1601.495, 31.05954
1601.996, 31.28842
1602.496, 27.21443
1602.996, 26.81406
1603.497, 29.39999
1603.997, 30.97479
1604.497, 32.63110
1604.997, 32.21951
1605.498, 29.63187
1605.998, 27.76582
1606.498, 28.37910
1606.999, 25.15953
1607.499, 21.63873
1607.999, 21.69630
1608.500, 26.11000
1609.000, 28.44165
1609.500, 27.81390
1610.001, 27.16710
1610.501, 27.62849
1611.001, 25.98590
1611.502, 24.87442
1612.002, 24.44243
1612.502, 23.43973
1613.003, 21.65167
1613.503, 21.60989
1614.003, 21.98041
1614.503, 24.46362
1615.004, 20.88029
1615.504, 21.92747
1616.004, 23.08517
1616.505, 26.83969
1617.005, 23.07625
1617.505, 22.44913
1618.006, 23.65939
1618.506, 25.32251
1619.006, 22.53113
1619.507, 17.97943
1620.007, 17.66333
1620.507, 18.67885
1621.008, 16.95665
1621.508, 17.07283
1622.008, 15.50713
1622.508, 19.08502
1623.009, 19.11215
1623.509, 17.38499
1624.009, 13.98099
1624.510, 13.21985
1625.010, 14.90996
1625.510, 16.50452
1626.011, 16.33533
1626.511, 16.33536
1627.011, 19.17508
1627.512, 22.61478
1628.012, 19.32358
1628.512, 19.32964
1629.013, 17.94669
1629.513, 18.67326
1630.013, 14.27980
1630.514, 11.42821
1631.014, 11.42142
1631.514, 10.37274
1632.014, 10.69908
1632.515, 14.72076
1633.015, 17.79643
1633.515, 15.68831
1634.016, 10.87758
1634.516, 9.290588
1635.016, 11.39070
1635.517, 9.260773
1636.017, 9.053635
1636.517, 7.504303
1637.018, 10.14221
1637.518, 10.00684
1638.018, 8.480484
1638.519, 9.141449
1639.019, 10.07195
1639.519, 13.74637
1640.019, 17.37994
1640.520, 16.76643
1641.020, 13.75967
1641.520, 11.02937
1642.021, 14.60959
1642.521, 15.76271
1643.021, 16.01227
1643.522, 12.21988
1644.022, 14.73132
1644.522, 15.40895
1645.023, 18.97414
1645.523, 17.76018
1646.023, 18.89738
1646.524, 19.39171
1647.024, 20.40688
1647.524, 21.87242
1648.025, 22.03674
1648.525, 19.91580
1649.025, 17.68939
1649.525, 14.14021
1650.026, 12.56010
1650.526, 9.614059
1651.026, 11.88878
1651.527, 14.60028
1652.027, 15.91910
1652.527, 13.58180
1653.028, 15.81329
1653.528, 17.08009
1654.028, 15.57593
1654.529, 11.75919
1655.029, 9.036438
1655.529, 8.052917
1656.030, 6.429123
1656.530, 9.819092
1657.030, 14.42905
1657.530, 16.57895
1658.031, 13.05606
1658.531, 11.72679
1659.031, 15.64513
1659.532, 19.54720
1660.032, 18.98355
1660.532, 15.21082
1661.033, 13.27347
1661.533, 12.04250
1662.033, 10.33958
1662.534, 10.49237
1663.034, 12.63065
1663.534, 14.80574
1664.035, 18.67821
1664.535, 20.44638
1665.035, 17.27295
1665.536, 13.57040
1666.036, 10.26297
1666.536, 11.18657
1667.036, 8.955429
1667.537, 5.190750
1668.037, 6.345718
1668.537, 8.894714
1669.038, 10.82715
1669.538, 8.156799
1670.038, 5.600693
1670.539, 7.183212
1671.039, 10.26282
1671.539, 12.69673
1672.040, 14.77371
1672.540, 16.70151
1673.040, 14.52322
1673.541, 13.62999
1674.041, 11.88216
1674.541, 11.06924
1675.041, 10.28072
1675.542, 8.764114
1676.042, 9.008636
1676.542, 6.640656
1677.043, 4.639938
1677.543, 4.462845
1678.043, 5.992386
1678.544, 7.613541
1679.044, 7.193863
1679.544, 6.377655
1680.045, 3.231644
1680.545, 2.805573
1681.045, 1.261917
1681.546, 4.379059
1682.046, 7.278793
1682.546, 8.254395
1683.047, 7.716034
1683.547, 6.558823
1684.047, 6.511475
1684.547, 4.515488
1685.048, 1.344254
1685.548, 1.527100
1686.048, 2.181923
1686.549, 0.1811980
1687.049, 3.196091
1687.549, 7.262878
1688.050, 5.452072
1688.550, 1.861366
1689.050, 0.7126010
1689.551, 1.649269
1690.051, 2.578987
1690.551, 2.388596
1691.052, 2.382767
1691.552, 0.5016020
1692.052, 2.492989
1692.552, 1.002136
1693.053, 0.5166850
1693.553, 3.456779
1694.053, 4.694641
1694.554, 5.361542
1695.054, 2.975685
1695.554, 0.5569760
1696.055, 1.095406
1696.555, 0.7371140
1697.055, 6.5613002E-02
1697.556, 0.1304320
1698.056, 2.034187
1698.556, 2.906708
1699.057, 1.047134
1699.557, 0.5581590
1700.057, 2.558426
1700.557, 0.6022340
1701.058, 1.929276
1701.558, 2.687653
1702.058, 0.3953550
1702.559, 2.975281
1703.059, 1.308426
1703.559, 3.401825
1704.060, 5.787643
1704.560, 5.152206
1705.060, 2.377373
1705.561, 1.815865
1706.061, 2.049767
1706.561, 4.372887
1707.062, 5.115799
1707.562, 4.752739
1708.062, 3.581802
1708.562, 2.108521
1709.063, 0.3885570
1709.563, 0.6811450
1710.063, 1.763870
1710.564, 2.001266
1711.064, 1.584389
1711.564, 6.1501000E-02
1712.065, 0.4602430
1712.565, 4.238533
1713.065, 5.488899
1713.566, 7.086594
1714.066, 2.407433
1714.566, 2.371361
1715.067, 0.6442260
1715.567, 2.525833
1716.067, 2.406471
1716.568, 0.8155440
1717.068, 1.958611
1717.568, 3.365051
1718.068, 0.4667740
1718.569, 3.191162
1719.069, 5.202087
1719.569, 5.484573
1720.070, 9.437195
1720.570, 11.71606
1721.070, 11.79565
1721.571, 11.92094
1722.071, 11.27554
1722.571, 11.19918
1723.072, 11.11494
1723.572, 12.90883
1724.072, 14.26092
1724.573, 13.55459
1725.073, 10.35767
1725.573, 6.077148
1726.073, 3.979149
1726.574, 6.327492
1727.074, 8.766891
1727.574, 11.63601
1728.075, 11.49013
1728.575, 13.30596
1729.075, 15.46299
1729.576, 14.80585
1730.076, 12.56062
1730.576, 11.12360
1731.077, 14.16755
1731.577, 18.52814
1732.077, 19.30553
1732.578, 21.00073
1733.078, 21.50770
1733.578, 20.21999
1734.078, 16.47842
1734.579, 12.39598
1735.079, 9.155014
1735.579, 6.326080
1736.080, 5.522705
1736.580, 6.248955
1737.080, 7.197395
1737.581, 7.659317
1738.081, 9.135231
1738.581, 12.68480
1739.082, 15.39198
1739.582, 18.95522
1740.082, 19.79713
1740.583, 22.10162
1741.083, 21.48124
1741.583, 21.05898
1742.083, 18.61876
1742.584, 15.40433
1743.084, 10.41534
1743.584, 8.055954
1744.085, 7.238228
1744.585, 7.944992
1745.085, 8.438026
1745.586, 9.907661
1746.086, 13.84005
1746.586, 14.88712
1747.087, 11.83291
1747.587, 9.290222
1748.087, 11.14482
1748.588, 15.54523
1749.088, 20.91547
1749.588, 16.78067
1750.089, 14.61398
1750.589, 8.858742
1751.089, 12.15041
1751.589, 14.82423
1752.090, 16.85927
1752.590, 18.27568
1753.090, 18.01883
1753.591, 17.09960
1754.091, 15.69557
1754.591, 13.70777
1755.092, 11.15121
1755.592, 12.57869
1756.092, 9.382965
1756.593, 9.474991
1757.093, 5.144157
1757.593, 8.650940
1758.094, 9.638809
1758.594, 9.895943
1759.094, 10.33821
1759.594, 12.25455
1760.095, 12.48071
1760.595, 10.24307
1761.095, 10.38035
1761.596, 13.63437
1762.096, 15.44652
1762.596, 15.83719
1763.097, 19.69803
1763.597, 18.52732
1764.097, 15.99717
1764.598, 12.71136
1765.098, 16.49654
1765.598, 20.32166
1766.099, 19.07159
1766.599, 16.71442
1767.099, 14.77266
1767.599, 13.75632
1768.100, 12.62386
1768.600, 11.49564
1769.100, 8.557449
1769.601, 6.851601
1770.101, 6.201515
1770.601, 6.562096
1771.102, 6.400215
1771.602, 4.700584
1772.102, 7.204765
1772.603, 11.05445
1773.103, 14.69299
1773.603, 14.31750
1774.104, 13.65000
1774.604, 13.09743
1775.104, 12.97060
1775.604, 13.55067
1776.105, 12.38503
1776.605, 7.890388
1777.105, 7.932304
1777.606, 5.915344
1778.106, 8.970406
1778.606, 2.724068
1779.107, 1.763176
1779.607, 1.370087
1780.107, 6.964638
1780.608, 12.29020
1781.108, 13.04697
1781.608, 11.21764
1782.109, 8.390030
1782.609, 7.251938
1783.109, 5.988693
1783.609, 5.254021
1784.110, 6.800507
1784.610, 7.614861
1785.110, 9.199188
1785.611, 14.70764
1786.111, 17.32905
1786.611, 15.34308
1787.112, 9.758972
1787.612, 8.110809
1788.112, 10.02666
1788.613, 10.59493
1789.113, 11.63674
1789.613, 9.267776
1790.114, 4.103775
1790.614, 0.4426570
1791.114, 1.145523
1791.615, 6.289551
1792.115, 7.892227
1792.615, 8.706825
1793.115, 11.30630
1793.616, 12.07106
1794.116, 13.98975
1794.616, 10.76978
1795.117, 6.751717
1795.617, 2.551369
1796.117, 1.861183
1796.618, 9.369316
1797.118, 11.61622
1797.618, 12.35592
1798.119, 8.822449
1798.619, 6.454025
1799.119, 6.218628
1799.620, 7.854752
1800.120, 10.06459
1800.620, 10.62374
1801.120, 9.269455
1801.621, 5.692368
1802.121, 6.363113
1802.621, 5.768372
1803.122, 6.695679
1803.622, 5.748451
1804.122, 8.242378
1804.623, 8.501465
1805.123, 8.040802
1805.623, 6.363068
1806.124, 8.753960
1806.624, 8.557831
1807.124, 8.000153
1807.625, 7.928993
1808.125, 10.01376
1808.625, 14.42028
1809.125, 15.45914
1809.626, 12.86404
1810.126, 7.169289
1810.626, 7.176857
1811.127, 5.415176
1811.627, 8.848221
1812.127, 6.009277
1812.628, 8.447067
1813.128, 2.870743
1813.628, 2.053978
1814.129, 4.323158
1814.629, 8.770172
1815.129, 10.84986
1815.630, 8.950592
1816.130, 6.925560
1816.630, 6.133568
1817.131, 6.188713
1817.631, 5.850296
1818.131, 6.224976
1818.631, 3.311974
1819.132, 0.6262820
1819.632, 1.931831
1820.132, 1.541077
1820.633, 3.696831
1821.133, 6.028313
1821.633, 9.601868
1822.134, 10.06697
1822.634, 10.69724
1823.134, 10.18206
1823.635, 6.317894
1824.135, 7.0381001E-02
1824.635, 4.288246
1825.136, 1.714081
1825.636, 3.077774
1826.136, 4.368103
1826.636, 3.946411
1827.137, 4.406143
1827.637, 2.447578
1828.137, 1.494766
1828.638, 0.1995770
1829.138, 5.699173
1829.638, 12.85581
1830.139, 12.09235
1830.639, 9.000076
1831.139, 4.193115
1831.640, 1.528297
1832.140, 2.346619
1832.640, 6.165649
1833.141, 9.935844
1833.641, 9.682510
1834.141, 6.809441
1834.642, 5.642525
1835.142, 6.653473
1835.642, 7.423195
1836.142, 5.816185
1836.643, 4.851532
1837.143, 6.495415
1837.643, 10.25600
1838.144, 11.05013
1838.644, 9.944267
1839.144, 6.197014
1839.645, 4.971878
1840.145, 3.920471
1840.645, 1.861420
1841.146, 3.314728
1841.646, 4.121979
1842.146, 3.713997
1842.647, 0.7680890
1843.147, 1.437263
1843.647, 4.991486
1844.147, 5.433365
1844.648, 3.270782
1845.148, 2.141418
1845.648, 3.791107
1846.149, 4.952721
1846.649, 2.554924
1847.149, 4.543365
1847.650, 7.302132
1848.150, 10.37190
1848.650, 10.32265
1849.151, 8.296082
1849.651, 9.785622
1850.151, 8.128853
1850.652, 5.742729
1851.152, 2.764679
1851.652, 2.304092
1852.153, 2.518425
1852.653, 1.773987
1853.153, 3.218269
1853.653, 7.774780
1854.154, 9.866211
1854.654, 7.167397
1855.154, 1.503464
1855.655, 2.527710
1856.155, 0.2667690
1856.655, 4.549164
1857.156, 7.290230
1857.656, 8.950615
1858.156, 7.107414
1858.657, 8.189552
1859.157, 6.141762
1859.657, 7.600739
1860.158, 9.072174
1860.658, 6.535973
1861.158, 2.369530
1861.658, 0.3729480
1862.159, 0.2563480
1862.659, 1.304993
1863.159, 4.803032
1863.660, 9.194099
1864.160, 11.14153
1864.660, 9.534996
1865.161, 6.607185
1865.661, 4.158394
1866.161, 4.130035
1866.662, 2.697571
1867.162, 0.7827990
1867.662, 3.034264
1868.163, 8.323509
1868.663, 10.31726
1869.163, 9.161110
1869.664, 7.013062
1870.164, 9.463524
1870.664, 9.396408
1871.164, 9.796387
1871.665, 8.805779
1872.165, 8.459381
1872.665, 8.659286
1873.166, 8.111221
1873.666, 7.116341
1874.166, 7.459152
1874.667, 8.686974
1875.167, 10.10820
1875.667, 10.42303
1876.168, 8.168770
1876.668, 5.704826
1877.168, 5.660553
1877.669, 8.113106
1878.169, 8.424950
1878.669, 8.217117
1879.169, 7.194733
1879.670, 10.58828
1880.170, 8.537277
1880.670, 9.634697
1881.171, 7.002518
1881.671, 6.162971
1882.171, 4.788971
1882.672, 5.963860
1883.172, 7.866745
1883.672, 8.173470
1884.173, 7.085030
1884.673, 6.009247
1885.173, 6.704674
1885.674, 9.125122
1886.174, 10.12329
1886.674, 7.326775
1887.175, 4.495766
1887.675, 3.224960
1888.175, 3.607254
1888.675, 6.007317
1889.176, 1.464127
1889.676, 1.513100
1890.176, 2.114754
1890.677, 5.348824
1891.177, 5.350273
1891.677, 3.912788
1892.178, 0.1521070
1892.678, 0.1905060
1893.178, 4.533463
1893.679, 5.813087
1894.179, 6.558281
1894.679, 5.168861
1895.180, 5.097733
1895.680, 5.691261
1896.180, 5.545067
1896.680, 6.789452
1897.181, 7.384514
1897.681, 5.414642
1898.181, 3.319229
1898.682, 3.320610
1899.182, 7.703453
1899.682, 7.642906
1900.183, 12.83273
1900.683, 8.409508
1901.183, 10.57736
1901.684, 8.880096
1902.184, 13.92599
1902.684, 14.22274
1903.185, 8.765076
1903.685, 6.014587
1904.185, 6.119957
1904.686, 9.449211
1905.186, 11.71095
1905.686, 11.54944
1906.186, 10.60059
1906.687, 10.29689
1907.187, 9.150177
1907.687, 7.614426
1908.188, 6.111740
1908.688, 3.527115
1909.188, 3.093559
1909.689, 2.594582
1910.189, 4.155663
1910.689, 7.616600
1911.190, 10.60720
1911.690, 11.76447
1912.190, 9.988907
1912.691, 9.292709
1913.191, 5.175682
1913.691, 0.1237870
1914.191, 1.643745
1914.692, 5.074455
1915.192, 11.01891
1915.692, 10.71619
1916.193, 11.07665
1916.693, 11.59364
1917.193, 12.40498
1917.694, 9.632523
1918.194, 5.929031
1918.694, 2.982414
1919.195, 3.253166
1919.695, 5.174309
1920.195, 4.993408
1920.696, 2.273369
1921.196, 0.1420970
1921.696, 3.574692
1922.197, 8.635506
1922.697, 9.455933
1923.197, 8.690140
1923.697, 7.859024
1924.198, 7.830086
1924.698, 7.623909
1925.198, 4.248512
1925.699, 3.853584
1926.199, 2.252190
1926.699, 2.413795
1927.200, 1.045540
1927.700, 1.110443
1928.200, 2.218079
1928.701, 8.124550
1929.201, 8.769119
1929.701, 6.624763
1930.202, 5.959938
1930.702, 7.244164
1931.202, 6.991753
1931.702, 5.552116
1932.203, 1.931244
1932.703, 1.291573
1933.203, 0.7266460
1933.704, 2.226151
1934.204, 4.136810
1934.704, 4.041611
1935.205, 4.852371
1935.705, 8.248596
1936.205, 11.38548
1936.706, 12.85354
1937.206, 9.260643
1937.706, 8.414520
1938.207, 5.791756
1938.707, 7.436859
1939.207, 5.674927
1939.708, 7.875763
1940.208, 7.853485
1940.708, 3.369461
1941.208, 0.9180980
1941.709, 1.089500
1942.209, 5.099327
1942.709, 6.996796
1943.210, 10.00254
1943.710, 9.535637
1944.210, 8.059296
1944.711, 6.384354
1945.211, 5.311722
1945.711, 6.179039
1946.212, 7.244408
1946.712, 6.059410
1947.212, 4.736298
1947.713, 5.609550
1948.213, 5.582756
1948.713, 2.337456
1949.213, 2.543785
1949.714, 3.603958
1950.214, 2.097687
1950.714, 4.519051
1951.215, 6.554070
1951.715, 3.644852
1952.215, 4.502007
1952.716, 4.960434
1953.216, 5.017410
1953.716, 3.138451
1954.217, 5.967453
1954.717, 5.928421
1955.217, 9.473854
1955.718, 8.194443
1956.218, 8.839500
1956.718, 8.313622
1957.219, 3.695793
1957.719, 3.958923
1958.219, 4.744926
1958.719, 4.480484
1959.220, 2.884415
1959.720, 2.120697
1960.220, 4.397240
1960.721, 5.408745
1961.221, 4.900208
1961.721, 6.170425
1962.222, 7.175613
1962.722, 7.214355
1963.222, 7.356560
1963.723, 4.193314
1964.223, 0.9459760
1964.723, 2.045532
1965.224, 0.8452530
1965.724, 5.204384
1966.224, 8.313507
1966.724, 8.743690
1967.225, 10.24592
1967.725, 8.837723
1968.225, 7.355377
1968.726, 2.939674
1969.226, 2.415451
1969.726, 3.549164
1970.227, 0.4877620
1970.727, 1.169724
1971.227, 1.153381
1971.728, 3.597343
1972.228, 2.542389
1972.728, 0.5310970
1973.229, 2.605743
1973.729, 3.482536
1974.229, 4.848488
1974.729, 8.489395
1975.230, 9.352348
1975.730, 10.95268
1976.230, 9.603088
1976.731, 7.693771
1977.231, 4.018814
1977.731, 1.797211
1978.232, 4.059219
1978.732, 8.196724
1979.232, 8.528473
1979.733, 2.622673
1980.233, 0.8147810
1980.733, 0.4635930
1981.234, 4.150162
1981.734, 4.932213
1982.234, 3.841827
1982.734, 3.719658
1983.235, 6.668541
1983.735, 9.030388
1984.235, 5.708839
1984.736, 0.8691790
1985.236, 2.053719
1985.736, 0.6972430
1986.237, 3.067070
1986.737, 5.872368
1987.237, 6.617577
1987.738, 3.777596
1988.238, 2.870384
1988.738, 2.981262
1989.239, 5.498299
1989.739, 5.361458
1990.239, 5.056763
1990.740, 6.469261
1991.240, 6.886871
1991.740, 6.563370
1992.240, 6.650475
1992.741, 5.218407
1993.241, 3.192986
1993.741, 0.9533000
1994.242, 0.8052980
1994.742, 2.852974
1995.242, 3.721199
1995.743, 3.222626
1996.243, 2.241257
1996.743, 1.885452
1997.244, 2.594864
1997.744, 3.658501
1998.244, 3.672020
1998.745, 1.484428
1999.245, 2.779022
1999.745, 4.610214
2000.245, 5.953285
2000.746, 6.380836
2001.246, 9.158295
2001.746, 10.83449
2002.247, 10.40537
2002.747, 6.530182
2003.247, 7.518013
2003.748, 9.497917
2004.248, 10.96473
2004.748, 7.904625
2005.249, 4.764542
2005.749, 4.913956
2006.249, 6.359306
2006.750, 7.532516
2007.250, 4.230469
2007.750, 4.648651
2008.250, 5.850685
2008.751, 7.771950
2009.251, 6.345215
2009.751, 4.042679
2010.252, 4.574142
2010.752, 3.637825
2011.252, 3.804695
2011.753, 4.346771
2012.253, 7.798256
2012.753, 7.327469
2013.254, 5.199005
2013.754, 3.665520
2014.254, 4.192429
2014.755, 5.941277
2015.255, 7.261963
2015.755, 7.384964
2016.255, 8.254555
2016.756, 9.697433
2017.256, 10.99406
2017.756, 10.62159
2018.257, 8.966431
2018.757, 8.106712
2019.257, 7.428909
2019.758, 8.350060
2020.258, 7.883179
2020.758, 7.080551
2021.259, 6.748192
2021.759, 6.929810
2022.259, 7.835175
2022.760, 6.207077
2023.260, 6.591789
2023.760, 6.294662
2024.260, 7.566277
2024.761, 6.950775
2025.261, 7.610367
2025.761, 5.927940
2026.262, 8.124252
2026.762, 7.459625
2027.262, 12.84420
2027.763, 10.41191
2028.263, 10.60721
2028.763, 6.429657
2029.264, 6.330017
2029.764, 3.825836
2030.264, 3.972176
2030.765, 7.151855
2031.265, 10.63498
2031.765, 9.330276
2032.266, 7.998116
2032.766, 7.930977
2033.266, 10.27020
2033.766, 6.516869
2034.267, 4.529510
2034.767, 3.585754
2035.267, 4.780952
2035.768, 5.040604
2036.268, 4.614632
2036.768, 4.754944
2037.269, 6.563347
2037.769, 7.100769
2038.269, 7.228279
2038.770, 6.979958
2039.270, 7.889824
2039.770, 7.632660
2040.271, 4.499664
2040.771, 1.802544
2041.271, 2.054649
2041.771, 3.345764
2042.272, 5.293098
2042.772, 5.582863
2043.272, 3.987404
2043.773, 3.246361
2044.273, 2.636978
2044.773, 1.561783
2045.274, 1.764214
2045.774, 2.806503
2046.274, 1.454971
2046.775, 6.478828
2047.275, 7.891304
2047.775, 5.088715
2048.276, 1.097183
2048.776, 4.712410
2049.276, 1.253456
2049.777, 4.092781
2050.277, 8.537926
2050.777, 7.583557
2051.277, 7.148888
2051.778, 6.596390
2052.278, 8.957520
2052.778, 6.533440
2053.279, 6.358543
2053.779, 0.8762590
2054.279, 1.845581
2054.780, 3.897530
2055.280, 9.565559
2055.780, 6.005432
2056.281, 3.572304
2056.781, 1.875595
2057.281, 5.062080
2057.781, 7.613266
2058.282, 6.773254
2058.782, 5.958183
2059.282, 3.859665
2059.783, 2.824081
2060.283, 2.326439
2060.783, 1.139610
2061.284, 2.008308
2061.784, 1.245361
2062.284, 2.548264
2062.785, 4.215111
2063.285, 6.203415
2063.785, 7.403748
2064.286, 4.423698
2064.786, 0.7644040
2065.286, 3.285027
2065.787, 2.469070
2066.287, 0.2552490
2066.787, 3.790421
2067.288, 8.953018
2067.788, 10.52803
2068.288, 9.736755
2068.788, 6.755737
2069.289, 4.641617
2069.789, 2.207436
2070.289, 1.424019
2070.790, 5.199318
2071.290, 8.351013
2071.790, 7.854256
2072.291, 2.862686
2072.791, 1.896461
2073.291, 4.321655
2073.792, 8.138115
2074.292, 9.173698
2074.792, 8.955017
2075.292, 10.32723
2075.793, 12.31716
2076.293, 12.68719
2076.793, 11.06632
2077.294, 9.859840
2077.794, 9.626961
2078.294, 7.892822
2078.795, 4.601311
2079.295, 2.356323
2079.795, 3.468109
2080.296, 8.080254
2080.796, 12.59637
2081.296, 14.72297
2081.797, 12.02452
2082.297, 6.260437
2082.797, 2.685349
2083.298, 2.398445
2083.798, 5.734245
2084.298, 7.958221
2084.799, 7.625465
2085.299, 6.808929
2085.799, 6.179062
2086.299, 7.372993
2086.800, 6.881035
2087.300, 7.935394
2087.800, 9.824852
2088.301, 11.93398
2088.801, 14.56553
2089.301, 14.35330
2089.802, 10.44387
2090.302, 6.617489
2090.802, 3.415455
2091.302, 6.774410
2091.803, 6.337193
2092.303, 5.141136
2092.803, 6.404953
2093.304, 6.105583
2093.804, 7.544415
2094.304, 4.814407
2094.805, 7.356323
2095.305, 7.656166
2095.805, 9.091324
2096.306, 8.859474
2096.806, 14.74982
2097.306, 18.12025
2097.807, 21.01271
2098.307, 16.38159
2098.807, 13.47780
2099.308, 8.689331
2099.808, 4.305595
2100.308, 4.160698
2100.809, 4.351044
2101.309, 6.944893
2101.809, 6.305843
2102.310, 4.506821
2102.810, 4.445621
2103.310, 5.285286
2103.810, 8.972103
2104.311, 11.68679
2104.811, 12.29517
2105.311, 8.199810
2105.812, 7.197891
2106.312, 4.850529
2106.812, 5.883839
2107.312, 4.658192
2107.813, 2.899738
2108.313, 7.492546
2108.813, 7.741646
2109.314, 14.52442
2109.814, 11.96064
2110.314, 15.98225
2110.815, 6.897556
2111.315, 7.726307
2111.815, 6.751537
2112.316, 11.87308
2112.816, 11.95702
2113.316, 10.98416
2113.817, 13.87040
2114.317, 10.71582
2114.817, 5.559299
2115.318, 8.498985
2115.818, 12.33149
2116.318, 18.13022
2116.819, 10.33411
2117.319, 7.990730
2117.819, 4.937218
2118.320, 8.518543
2118.820, 11.78078
2119.320, 14.04317
2119.821, 17.25048
2120.321, 12.26752
2120.821, 13.50846
2121.321, 9.385406
2121.822, 13.30715
2122.322, 9.783726
2122.822, 10.16782
2123.323, 11.10403
2123.823, 14.19740
2124.323, 14.33784
2124.823, 14.05324
2125.324, 13.10958
2125.824, 14.28822
2126.324, 14.03945
2126.825, 14.96209
2127.325, 12.30565
2127.825, 13.11577
2128.326, 8.176365
2128.826, 9.124908
2129.326, 9.087494
2129.827, 13.45814
2130.327, 14.47720
2130.827, 12.84523
2131.328, 12.67382
2131.828, 11.18682
2132.328, 10.90636
2132.829, 10.11735
2133.329, 11.12279
2133.829, 15.86578
2134.330, 14.97218
2134.830, 14.83419
2135.330, 11.53792
2135.831, 11.77244
2136.331, 12.48023
2136.831, 14.51381
2137.332, 16.00477
2137.832, 16.08768
2138.332, 14.79578
2138.832, 13.26086
2139.333, 10.83115
2139.833, 12.01630
2140.333, 13.13192
2140.834, 15.14537
2141.334, 13.38684
2141.834, 12.92698
2142.334, 14.09194
2142.835, 14.02172
2143.335, 14.65910
2143.835, 13.36166
2144.336, 11.15627
2144.836, 10.22857
2145.336, 9.343235
2145.837, 8.987103
2146.337, 9.780701
2146.837, 9.288151
2147.338, 8.505566
2147.838, 12.12846
2148.338, 10.65990
2148.839, 14.25237
2149.339, 7.884392
2149.839, 11.21064
2150.340, 9.660225
2150.840, 9.636978
2151.340, 9.077377
2151.841, 9.172890
2152.341, 11.07089
2152.841, 8.807396
2153.342, 5.879002
2153.842, 0.6513480
2154.342, 1.596882
2154.843, 3.556232
2155.343, 10.29789
2155.843, 9.213318
2156.343, 8.962635
2156.844, 6.077751
2157.344, 5.333900
2157.844, 4.674412
2158.345, 3.556900
2158.845, 2.355137
2159.345, 3.778507
2159.845, 2.093693
2160.346, 4.335873
2160.846, 5.842644
2161.346, 6.136269
2161.847, 4.658596
2162.347, 1.342552
2162.847, 0.6100690
2163.348, 5.5256002E-02
2163.848, 1.703693
2164.348, 0.4511640
2164.849, 2.273987
2165.349, 0.6129340
2165.849, 1.390076
2166.350, 2.612194
2166.850, 4.138096
2167.350, 2.372696
2167.851, 3.644405
2168.351, 0.6756290
2168.851, 0.8379970
2169.352, 2.6870999E-02
2169.852, 0.9528920
2170.352, 1.522900
2170.853, 2.243279
2171.353, 2.093102
2171.853, 3.311600
2172.354, 4.166885
2172.854, 4.714947
2173.354, 4.701519
2173.854, 3.913288
2174.355, 1.888828
2174.855, 1.714645
2175.355, 1.169907
2175.856, 1.414333
2176.356, 0.5544050
2176.856, 1.981140
2177.356, 2.748749
2177.857, 2.317944
2178.357, 2.308624
2178.857, 0.2533610
2179.358, 0.7785870
2179.858, 0.5176810
2180.358, 4.2560998E-02
2180.859, 0.5843700
2181.359, 0.7270970
2181.859, 4.8981000E-02
2182.360, 0.1753040
2182.860, 0.7957310
2183.360, 0.6231960
2183.861, 1.231876
2184.361, 1.799007
2184.861, 7.8354001E-02
2185.362, 2.501888
2185.862, 1.377331
2186.362, 0.2944600
2186.863, 0.9665790
2187.363, 1.651505
2187.863, 1.224014
2188.364, 0.5708960
2188.864, 0.8078580
2189.364, 1.406998
2189.865, 0.6544040
2190.365, 1.683067
2190.865, 3.232288
2191.365, 4.677959
2191.866, 4.715698
2192.366, 3.922367
2192.866, 2.309814
2193.367, 3.700741
2193.867, 5.213306
2194.367, 3.957096
2194.867, 2.486366
2195.368, 7.4326001E-02
2195.868, 3.770863
2196.368, 6.269131
2196.869, 5.906521
2197.369, 7.060986
2197.869, 5.321236
2198.370, 9.544586
2198.870, 5.682232
2199.370, 4.771626
2199.871, 1.846794
2200.371, 2.248711
2200.871, 2.515953
2201.372, 2.206741
2201.872, 3.386993
2202.372, 6.742352
2202.873, 10.97271
2203.373, 11.23108
2203.873, 8.770466
2204.374, 5.249893
2204.874, 7.078838
2205.374, 7.321461
2205.875, 7.150253
2206.375, 5.487133
2206.875, 5.116283
2207.375, 6.353436
2207.876, 8.379559
2208.376, 7.518097
2208.876, 8.632099
2209.377, 7.896362
2209.877, 7.440659
2210.377, 6.315334
2210.878, 5.773537
2211.378, 6.907803
2211.878, 6.499229
2212.378, 5.906090
2212.879, 8.572792
2213.379, 9.281258
2213.879, 10.86781
2214.380, 9.114880
2214.880, 6.941547
2215.380, 8.359856
2215.881, 6.030972
2216.381, 10.13888
2216.881, 8.304638
2217.382, 13.36390
2217.882, 9.735477
2218.382, 11.34474
2218.883, 5.409966
2219.383, 7.989803
2219.883, 7.535908
2220.384, 11.68287
2220.884, 11.47039
2221.384, 9.258965
2221.885, 6.605862
2222.385, 6.731300
2222.885, 7.083694
2223.385, 11.68806
2223.886, 12.94568
2224.386, 14.46135
2224.886, 11.00985
2225.387, 5.025925
2225.887, 7.161972
2226.387, 10.50452
2226.888, 13.73969
2227.388, 9.930954
2227.888, 5.919861
2228.389, 4.930389
2228.889, 4.188427
2229.389, 6.426136
2229.889, 7.709698
2230.390, 6.855293
2230.890, 5.212349
2231.390, 7.106823
2231.891, 8.722092
2232.391, 6.469944
2232.891, 4.708179
2233.392, 3.613472
2233.892, 6.098549
2234.392, 5.157433
2234.893, 7.611298
2235.393, 8.731285
2235.893, 7.528210
2236.394, 7.070374
2236.894, 3.630638
2237.394, 4.136429
2237.895, 3.333202
2238.395, 6.208820
2238.895, 6.509548
2239.396, 6.932442
2239.896, 4.044189
2240.396, 5.706085
2240.896, 6.031113
2241.397, 11.30575
2241.897, 7.940224
2242.397, 10.19353
2242.898, 6.225334
2243.398, 9.325741
2243.898, 7.824986
2244.399, 10.61066
2244.899, 11.46592
2245.399, 11.50809
2245.900, 9.040981
2246.400, 6.557991
2246.900, 5.173985
2247.400, 8.496326
2247.901, 12.68251
2248.401, 13.36405
2248.901, 9.615486
2249.402, 4.142956
2249.902, 3.787540
2250.402, 3.792900
2250.903, 4.761082
2251.403, 3.523022
2251.903, 5.502399
2252.404, 4.710766
2252.904, 3.384750
2253.404, 2.703880
2253.905, 3.200939
2254.405, 7.751190
2254.905, 8.610985
2255.406, 13.19778
2255.906, 7.727989
2256.406, 7.613808
2256.906, 6.661980
2257.407, 11.07092
2257.907, 6.861279
2258.407, 6.342735
2258.908, 5.753311
2259.408, 5.049221
2259.908, 4.221756
2260.409, 1.207478
2260.909, 5.027184
2261.409, 1.985531
2261.910, 4.034592
2262.410, 3.159794
2262.910, 5.148170
2263.411, 3.625031
2263.911, 4.896721
2264.411, 6.331749
2264.911, 6.963303
2265.412, 3.927216
2265.912, 3.098866
2266.412, 4.946629
2266.913, 7.012836
2267.413, 7.891075
2267.913, 9.422993
2268.414, 7.877003
2268.914, 7.277851
2269.414, 5.002861
2269.915, 3.931835
2270.415, 0.1978990
2270.915, 0.4293170
2271.416, 3.225563
2271.916, 7.962269
2272.416, 6.213123
2272.917, 5.438507
2273.417, 0.8651730
2273.917, 0.3707500
2274.417, 1.699066
2274.918, 2.691105
2275.418, 3.674778
2275.918, 6.256439
2276.419, 5.865253
2276.919, 6.491394
2277.419, 4.498653
2277.920, 3.717522
2278.420, 5.613293
2278.920, 8.416382
2279.421, 7.573826
2279.921, 2.759338
2280.421, 0.9618000
2280.922, 1.741989
2281.422, 4.610527
2281.922, 4.328133
2282.422, 1.622108
2282.923, 2.027000
2283.423, 4.455795
2283.923, 4.777130
2284.424, 5.103699
2284.924, 6.329628
2285.424, 8.139725
2285.925, 8.292885
2286.425, 6.578011
2286.925, 4.017624
2287.426, 4.248283
2287.926, 6.217499
2288.426, 9.137222
2288.927, 9.853409
2289.427, 7.530922
2289.927, 3.531075
2290.427, 1.890594
2290.928, 2.891396
2291.428, 2.137634
2291.928, 1.031731
2292.429, 4.916393
2292.929, 3.776581
2293.429, 0.6409230
2293.930, 3.696594
2294.430, 4.116814
2294.930, 3.456703
2295.431, 2.997841
2295.931, 3.411041
2296.431, 2.755157
2296.932, 4.183815
2297.432, 2.752792
2297.932, 1.302368
2298.433, 1.591743
2298.933, 2.078468
2299.433, 3.148705
2299.933, 1.161285
2300.434, 1.075989
2300.934, 2.672630
2301.434, 1.518326
2301.935, 2.677925
2302.435, 0.5689770
2302.935, 4.750275
2303.436, 7.888214
2303.936, 9.284668
2304.436, 6.685532
2304.937, 4.255035
2305.437, 3.821144
2305.937, 5.547020
2306.438, 5.166473
2306.938, 3.760262
2307.438, 1.072403
2307.938, 3.023186
2308.439, 2.637802
2308.939, 4.391777
2309.439, 5.700279
2309.940, 6.873260
2310.440, 3.340790
2310.940, 2.574089
2311.441, 2.008148
2311.941, 6.890549
2312.441, 6.256447
2312.942, 8.357063
2313.442, 6.355629
2313.942, 5.514954
2314.443, 5.595589
2314.943, 9.255516
2315.443, 7.614944
2315.944, 6.831177
2316.444, 3.755836
2316.944, 5.741783
2317.444, 4.353683
2317.945, 4.606888
2318.445, 3.487663
2318.945, 5.404610
2319.446, 4.812508
2319.946, 4.785431
2320.446, 5.738113
2320.947, 7.988579
2321.447, 6.608116
2321.947, 4.033615
2322.448, 2.256798
2322.948, 5.303162
2323.448, 7.080406
2323.948, 6.092918
2324.449, 2.399178
2324.949, 0.4616240
2325.449, 2.572418
2325.950, 6.979935
2326.450, 10.54883
2326.950, 11.64356
2327.451, 11.19807
2327.951, 12.91766
2328.451, 13.87712
2328.952, 14.43806
2329.452, 12.69018
2329.952, 10.22015
2330.453, 6.882347
2330.953, 4.968567
2331.453, 2.357712
2331.954, 0.6691360
2332.454, 0.9210820
2332.954, 2.126007
2333.455, 1.566719
2333.955, 0.7105710
2334.455, 8.6944997E-02
2334.955, 2.634583
2335.456, 5.835014
2335.956, 10.05322
2336.456, 10.37178
2336.957, 7.224892
2337.457, 3.529686
2337.957, 3.893143
2338.458, 7.560173
2338.958, 9.093239
2339.458, 11.65936
2339.958, 8.731033
2340.459, 8.629242
2340.959, 3.846085
2341.459, 7.087364
2341.960, 4.675484
2342.460, 6.665146
2342.960, 1.094978
2343.461, 1.561241
2343.961, 1.069832
2344.461, 2.879951
2344.962, 4.342079
2345.462, 7.408241
2345.962, 9.476997
2346.463, 7.703735
2346.963, 4.687073
2347.463, 4.447617
2347.964, 4.747238
2348.464, 7.129730
2348.964, 6.643021
2349.465, 4.389908
2349.965, 1.808281
2350.465, 2.993889
2350.966, 4.342087
2351.466, 5.075249
2351.966, 4.889076
2352.466, 6.579033
2352.967, 7.472794
2353.467, 4.944016
2353.967, 2.653046
2354.468, 0.5984270
2354.968, 1.201584
2355.468, 2.542892
2355.969, 5.431068
2356.469, 5.579094
2356.969, 5.547997
2357.469, 4.367477
2357.970, 7.266640
2358.470, 7.852219
2358.970, 11.42035
2359.471, 9.649277
2359.971, 8.698814
2360.471, 6.668350
2360.972, 1.507065
2361.472, 3.141464
2361.972, 0.7381130
2362.473, 6.846657
2362.973, 6.530334
2363.473, 8.683685
2363.974, 8.928909
2364.474, 5.697098
2364.974, 3.834381
2365.475, 5.685699
2365.975, 8.541527
2366.475, 8.842728
2366.976, 7.545235
2367.476, 8.888161
2367.976, 7.018135
2368.477, 5.487160
2368.977, 2.346336
2369.477, 0.5781630
2369.977, 2.419014
2370.478, 0.1898420
2370.978, 6.984100
2371.478, 10.26543
2371.979, 6.438484
2372.479, 0.5086750
2372.979, 2.100349
2373.479, 2.473007
2373.980, 5.391197
2374.480, 6.302170
2374.980, 4.960091
2375.481, 6.147766
2375.981, 5.523872
2376.481, 6.980476
2376.982, 6.750534
2377.482, 5.537041
2377.982, 5.458328
2378.483, 4.006104
2378.983, 8.765152
2379.483, 7.176674
2379.984, 6.358131
2380.484, 5.073387
2380.984, 5.948029
2381.485, 8.263969
2381.985, 5.302689
2382.485, 3.019928
2382.986, 3.688232
2383.486, 6.094116
2383.986, 6.173546
2384.487, 5.448624
2384.987, 3.748367
2385.487, 5.429558
2385.988, 2.821648
2386.488, 3.958252
2386.988, 5.386612
2387.488, 8.193657
2387.989, 5.256660
2388.489, 1.799057
2388.989, 1.573410
2389.490, 3.661987
2389.990, 3.570328
2390.490, 2.300690
2390.990, 1.481293
2391.491, 3.824432
2391.991, 3.805939
2392.491, 3.495415
2392.992, 3.097305
2393.492, 4.963417
2393.992, 5.845032
2394.493, 3.787735
2394.993, 0.8777010
2395.493, 0.1269610
2395.994, 2.122971
2396.494, 4.901894
2396.994, 3.423561
2397.495, 6.085403
2397.995, 4.758224
2398.495, 4.985374
2398.996, 0.1381150
2399.496, 3.542328
2399.996, 4.621559
2400.497, 3.370758
2400.997, 3.847115
2401.497, 10.67093
2401.998, 12.90488
2402.498, 9.231323
2402.998, 4.898514
2403.499, 4.081390
2403.999, 5.640610
2404.499, 9.106163
2404.999, 8.172234
2405.500, 7.122856
2406.000, 7.061615
2406.500, 8.713837
2407.001, 6.045792
2407.501, 1.349838
2408.001, 1.817909
2408.501, 6.368523
2409.002, 9.464622
2409.502, 7.676041
2410.002, 7.077255
2410.503, 7.933022
2411.003, 4.946373
2411.503, 3.583305
2412.004, 1.757095
2412.504, 4.526924
2413.004, 8.358200
2413.505, 10.14935
2414.005, 8.325333
2414.505, 4.780685
2415.006, 6.374893
2415.506, 8.427261
2416.006, 6.631821
2416.507, 0.3785170
2417.007, 1.236404
2417.507, 4.930267
2418.008, 9.603622
2418.508, 10.13134
2419.008, 7.887589
2419.509, 8.036163
2420.009, 9.624702
2420.509, 12.39207
2421.010, 11.13374
2421.510, 11.27594
2422.010, 9.811760
2422.510, 7.761902
2423.011, 2.509499
2423.511, 0.3396300
2424.011, 0.6185230
2424.512, 3.033623
2425.012, 2.922295
2425.512, 5.484062
2426.012, 4.505913
2426.513, 7.032379
2427.013, 7.795975
2427.513, 8.381439
2428.014, 8.106628
2428.514, 7.776260
2429.014, 6.399246
2429.515, 4.653069
2430.015, 5.143448
2430.515, 8.371719
2431.016, 9.760971
2431.516, 8.598312
2432.016, 5.633354
2432.517, 3.719757
2433.017, 2.076103
2433.517, 2.097084
2434.018, 3.653221
2434.518, 5.800377
2435.018, 7.570747
2435.519, 6.580574
2436.019, 4.683800
2436.519, 5.482430
2437.020, 8.165688
2437.520, 6.985580
2438.020, 3.222282
2438.521, 3.817001
2439.021, 5.228081
2439.521, 6.721291
2440.021, 5.288109
2440.522, 6.342339
2441.022, 9.523865
2441.522, 8.448769
2442.023, 8.427574
2442.523, 5.778580
2443.023, 7.845909
2443.523, 7.086403
2444.024, 5.936218
2444.524, 5.557312
2445.024, 6.722321
2445.525, 9.619263
2446.025, 9.981171
2446.525, 9.740669
2447.026, 9.322350
2447.526, 9.367065
2448.026, 10.18333
2448.527, 7.345421
2449.027, 1.672905
2449.527, 0.5277480
2450.028, 2.732552
2450.528, 7.894699
2451.028, 6.592392
2451.529, 1.714989
2452.029, 2.322502
2452.529, 7.759613
2453.030, 12.21074
2453.530, 11.68877
2454.030, 10.98611
2454.531, 11.47558
2455.031, 10.60644
2455.531, 5.799370
2456.031, 3.754654
2456.532, 4.490311
2457.032, 5.305016
2457.532, 6.129837
2458.033, 5.312904
2458.533, 6.158302
2459.033, 5.438393
2459.534, 4.140350
2460.034, 6.274460
2460.534, 9.574852
2461.034, 7.458786
2461.535, 6.776794
2462.035, 2.177765
2462.535, 7.511246
2463.036, 0.1014330
2463.536, 1.192696
2464.036, 4.881065
2464.537, 0.6070860
2465.037, 1.901672
2465.537, 0.5050740
2466.038, 2.494186
2466.538, 6.276146
2467.038, 10.91129
2467.539, 10.05099
2468.039, 9.140594
2468.539, 5.266510
2469.040, 6.248466
2469.540, 5.633629
2470.040, 7.618660
2470.541, 5.946556
2471.041, 3.185394
2471.541, 5.844635
2472.042, 6.476784
2472.542, 7.660393
2473.042, 2.233070
2473.542, 1.371025
2474.043, 1.982315
2474.543, 3.568947
2475.043, 5.125084
2475.544, 4.972771
2476.044, 6.035660
2476.544, 3.440826
2477.045, 2.855820
2477.545, 1.520775
2478.045, 4.976830
2478.545, 6.812439
2479.046, 10.18639
2479.546, 7.686172
2480.046, 6.402908
2480.547, 3.068085
2481.047, 5.309784
2481.547, 6.160538
2482.048, 7.134140
2482.548, 5.267433
2483.048, 6.315701
2483.549, 8.286865
2484.049, 6.212303
2484.549, 8.334747
2485.050, 2.572598
2485.550, 2.564346
2486.050, 2.644489
2486.551, 0.4827460
2487.051, 2.221828
2487.551, 4.817684
2488.052, 6.393387
2488.552, 6.396328
2489.052, 5.232460
2489.552, 3.130161
2490.053, 3.867920
2490.553, 6.808403
2491.053, 9.927433
2491.554, 9.727200
2492.054, 7.276829
2492.554, 2.271839
2493.055, 1.305359
2493.555, 1.004604
2494.055, 6.389503
2494.556, 8.904709
2495.056, 8.883816
2495.556, 3.373749
2496.056, 3.512260
2496.557, 5.860298
2497.057, 7.500732
2497.557, 5.358101
2498.058, 4.060928
2498.558, 3.769306
2499.058, 3.865166
2499.559, 7.552643
2500.059, 7.521870
2500.559, 6.403252
2501.060, 2.306728
2501.560, 0.8577190
2502.060, 2.327511
2502.561, 6.039921
2503.061, 5.953728
2503.561, 4.428024
2504.062, 0.2519990
2504.562, 0.5834270
2505.062, 2.504616
2505.562, 4.746601
2506.063, 3.674423
2506.563, 1.458256
2507.063, 3.301109
2507.564, 5.291271
2508.064, 5.148567
2508.564, 2.825527
2509.065, 2.923264
2509.565, 3.158043
2510.065, 3.747211
2510.566, 2.911499
2511.066, 4.440720
2511.566, 4.756340
2512.067, 6.845123
2512.567, 4.641445
2513.067, 6.956848
2513.567, 4.781586
2514.068, 8.507488
2514.568, 5.471809
2515.068, 6.838482
2515.569, 3.156128
2516.069, 3.765881
2516.569, 5.007610
2517.070, 5.942204
2517.570, 5.815308
2518.070, 6.387802
2518.571, 6.392765
2519.071, 3.242836
2519.571, 1.097183
2520.072, 0.9271740
2520.572, 5.278973
2521.072, 4.408268
2521.573, 9.943138
2522.073, 10.54286
2522.573, 10.28994
2523.073, 3.579304
2523.574, 2.102116
2524.074, 2.665150
2524.574, 3.231297
2525.075, 2.311134
2525.575, 2.828903
2526.075, 2.866520
2526.576, 0.9371340
2527.076, 0.4765850
2527.576, 2.410168
2528.077, 4.386837
2528.577, 4.847008
2529.077, 3.487740
2529.578, 5.479568
2530.078, 3.022102
2530.578, 1.581615
2531.078, 1.297798
2531.579, 3.393845
2532.079, 4.219868
2532.579, 2.546974
2533.080, 1.200901
2533.580, 0.7074240
2534.080, 5.314644
2534.581, 8.874584
2535.081, 9.632301
2535.581, 10.54612
2536.082, 10.45079
2536.582, 7.326576
2537.082, 2.973743
2537.583, 0.6738820
2538.083, 3.266064
2538.583, 6.648067
2539.083, 8.198566
2539.584, 4.734329
2540.084, 4.279774
2540.584, 4.272305
2541.085, 6.535316
2541.585, 4.650372
2542.085, 2.488708
2542.586, 2.808701
2543.086, 5.967922
2543.586, 8.309437
2544.087, 9.795074
2544.587, 8.807133
2545.087, 7.176060
2545.588, 4.269321
2546.088, 0.4480550
2546.588, 0.2038690
2547.089, 3.205437
2547.589, 6.590218
2548.089, 6.473492
2548.589, 5.987732
2549.090, 5.750771
2549.590, 6.050186
2550.090, 5.579803
2550.591, 4.262856
2551.091, 5.908657
2551.591, 7.353298
2552.092, 8.153687
2552.592, 6.268009
2553.092, 4.525459
2553.593, 3.146473
2554.093, 3.934021
2554.593, 3.692799
2555.094, 3.605499
2555.594, 1.524483
2556.094, 2.520424
2556.594, 6.585938
2557.095, 9.506878
2557.595, 7.547752
2558.095, 5.253250
2558.596, 6.394447
2559.096, 7.147499
2559.596, 5.895023
2560.097, 2.392269
2560.597, 4.498756
2561.097, 5.902241
2561.598, 9.499550
2562.098, 4.155388
2562.598, 4.728649
2563.099, 1.869514
2563.599, 3.715885
2564.099, 1.155800
2564.600, 1.141323
2565.100, 4.488605
2565.600, 5.206467
2566.100, 4.222065
2566.601, 3.750942
2567.101, 8.470882
2567.601, 11.49607
2568.102, 9.823448
2568.602, 6.473640
2569.102, 7.427036
2569.603, 7.519859
2570.103, 10.06273
2570.603, 7.156933
2571.104, 8.716946
2571.604, 6.857895
2572.104, 9.325523
2572.604, 10.91427
2573.105, 10.71170
2573.605, 11.05977
2574.105, 11.19361
2574.606, 12.59246
2575.106, 10.19011
2575.606, 9.359158
2576.107, 8.348566
2576.607, 8.865940
2577.107, 8.180372
2577.608, 8.003359
2578.108, 11.20702
2578.608, 12.70155
2579.109, 10.59415
2579.609, 8.210079
2580.109, 6.634945
2580.610, 8.383694
2581.110, 8.777338
2581.610, 9.274010
2582.111, 11.16325
2582.611, 11.83656
2583.111, 13.22303
2583.611, 13.05288
2584.112, 12.61860
2584.612, 11.64805
2585.112, 9.711437
2585.613, 6.658787
2586.113, 6.527241
2586.613, 8.322483
2587.114, 12.53237
2587.614, 11.09172
2588.114, 8.023651
2588.615, 5.798038
2589.115, 7.446926
2589.615, 12.01457
2590.115, 11.68338
2590.616, 5.741154
2591.116, 0.3197480
2591.616, 3.754993
2592.117, 0.5678960
2592.617, 1.706352
2593.117, 7.737797
2593.618, 7.296101
2594.118, 8.038990
2594.618, 8.669605
2595.119, 11.60938
2595.619, 11.11725
2596.119, 8.379745
2596.620, 7.237572
2597.120, 9.672497
2597.620, 11.26644
2598.121, 13.83501
2598.621, 11.53101
2599.121, 11.28808
2599.622, 5.594688
2600.122, 3.382580
2600.622, 2.286692
2601.122, 3.868988
2601.623, 5.995190
2602.123, 5.867823
2602.623, 4.749573
2603.124, 6.232378
2603.624, 7.888903
2604.124, 6.471897
2604.625, 6.172478
2605.125, 4.061197
2605.625, 7.976501
2606.125, 4.043205
2606.626, 3.442860
2607.126, 1.071493
2607.626, 0.9086860
2608.127, 0.2895760
2608.627, 0.2842010
2609.127, 3.067032
2609.628, 4.153788
2610.128, 3.511049
2610.628, 3.179350
2611.129, 2.416748
2611.629, 3.831882
2612.129, 1.727392
2612.630, 4.558800
2613.130, 4.647045
2613.630, 6.034325
2614.131, 3.260744
2614.631, 1.198473
2615.131, 2.089184
2615.632, 1.649960
2616.132, 1.593874
2616.632, 0.3901180
2617.133, 1.664293
2617.633, 1.836058
2618.133, 1.952721
2618.633, 0.6101280
2619.134, 1.645573
2619.634, 2.119976
2620.134, 2.018902
2620.635, 7.6076999E-02
2621.135, 0.3779600
2621.635, 0.9601760
2622.135, 1.528702
2622.636, 0.7642900
2623.136, 1.541557
2623.636, 1.028158
2624.137, 0.6000060
2624.637, 2.102921
2625.137, 1.206940
2625.638, 1.116705
2626.138, 0.9096130
2626.638, 1.393177
2627.139, 2.157328
2627.639, 1.607203
2628.139, 7.1425997E-02
2628.640, 0.6099800
2629.140, 0.4942190
2629.640, 1.041927
2630.141, 1.877691
2630.641, 2.696856
2631.141, 2.196518
2631.642, 1.958832
2632.142, 0.9991320
2632.642, 1.626474
2633.143, 1.163502
2633.643, 1.497154
2634.143, 0.3967630
2634.644, 1.675898
2635.144, 2.016802
2635.644, 0.7168980
2636.144, 1.633577
2636.645, 4.766359
2637.145, 4.840740
2637.645, 3.524584
2638.146, 1.458843
2638.646, 2.470465
2639.146, 4.459709
2639.646, 2.023680
2640.147, 1.234043
2640.647, 0.7249200
2641.147, 5.659184
2641.648, 5.254807
2642.148, 4.200922
2642.648, 4.254433
2643.149, 6.555553
2643.649, 9.092573
2644.149, 7.718189
2644.650, 5.104172
2645.150, 2.057550
2645.650, 0.9011990
2646.151, 3.379219
2646.651, 5.769043
2647.151, 7.763264
2647.652, 6.710096
2648.152, 6.652189
2648.652, 6.116251
2649.153, 6.322353
2649.653, 7.530199
2650.153, 8.619732
2650.654, 8.602034
2651.154, 5.408035
2651.654, 4.134710
2652.155, 6.729061
2652.655, 8.456715
2653.155, 6.184685
2653.655, 5.013050
2654.156, 4.500475
2654.656, 4.419815
2655.156, 7.192659
2655.657, 11.38314
2656.157, 13.09903
2656.657, 10.92527
2657.157, 7.243822
2657.658, 8.891388
2658.158, 8.938293
2658.658, 9.820385
2659.159, 8.406704
2659.659, 7.467209
2660.159, 7.549282
2660.660, 7.670168
2661.160, 11.80045
2661.660, 11.92642
2662.161, 12.18550
2662.661, 7.062351
2663.161, 9.224428
2663.662, 11.90815
2664.162, 13.25481
2664.662, 10.35641
2665.163, 8.555847
2665.663, 6.968697
2666.163, 8.217503
2666.664, 7.136600
2667.164, 8.257717
2667.664, 9.282330
2668.165, 10.85563
2668.665, 13.66503
2669.165, 13.88036
2669.666, 13.48620
2670.166, 8.755264
2670.666, 5.451714
2671.166, 3.656654
2671.667, 4.922598
2672.167, 6.429499
2672.667, 7.318960
2673.168, 8.072701
2673.668, 8.040047
2674.168, 8.935150
2674.668, 12.63064
2675.169, 14.77235
2675.669, 16.13695
2676.169, 14.42805
2676.670, 13.51825
2677.170, 13.84697
2677.670, 12.47827
2678.171, 10.76129
2678.671, 10.74352
2679.171, 10.32313
2679.672, 8.921841
2680.172, 4.657324
2680.672, 0.1156580
2681.173, 1.412394
2681.673, 1.178207
2682.173, 6.468807
2682.674, 8.410460
2683.174, 3.461681
2683.674, 0.9915700
2684.175, 1.570824
2684.675, 4.707527
2685.175, 4.675617
2685.676, 4.609077
2686.176, 3.580448
2686.676, 3.438175
2687.177, 2.808491
2687.677, 4.122208
2688.177, 5.167023
2688.677, 5.043118
2689.178, 5.188419
2689.678, 7.495819
2690.178, 8.549015
2690.679, 4.607853
2691.179, 2.429382
2691.679, 5.147171
2692.179, 10.95411
2692.680, 11.27089
2693.180, 6.991699
2693.680, 4.966587
2694.181, 5.874603
2694.681, 9.425446
2695.181, 10.51947
2695.682, 8.874275
2696.182, 7.732517
2696.682, 8.573402
2697.183, 7.442326
2697.683, 2.152077
2698.183, 0.1720920
2698.684, 0.8153340
2699.184, 2.959194
2699.684, 5.731918
2700.185, 8.953812
2700.685, 11.42587
2701.185, 9.565346
2701.686, 7.139954
2702.186, 7.720959
2702.686, 6.292744
2703.187, 5.766823
2703.687, 4.268368
2704.187, 7.168980
2704.688, 8.704811
2705.188, 10.22852
2705.688, 9.432297
2706.188, 8.417301
2706.689, 9.400700
2707.189, 9.270996
2707.689, 8.523338
2708.190, 5.081902
2708.690, 4.980083
2709.190, 4.828499
2709.690, 4.373280
2710.191, 5.419960
2710.691, 7.854523
2711.191, 10.42041
2711.692, 10.16414
2712.192, 10.85104
2712.692, 10.83852
2713.193, 8.179539
2713.693, 7.859875
2714.193, 10.76226
2714.694, 11.95110
2715.194, 8.286095
2715.694, 5.523895
2716.195, 4.848186
2716.695, 5.247307
2717.195, 2.950699
2717.696, 3.776459
2718.196, 7.404713
2718.696, 8.280716
2719.197, 5.904579
2719.697, 4.855762
2720.197, 8.363224
2720.698, 11.20436
2721.198, 9.647778
2721.698, 7.949959
2722.198, 6.331623
2722.699, 5.288719
2723.199, 1.119511
2723.699, 1.396996
2724.200, 2.031185
2724.700, 2.830898
2725.200, 2.546864
2725.701, 2.644287
2726.201, 3.729488
2726.701, 5.468578
2727.201, 7.036022
2727.702, 9.148396
2728.202, 9.358177
2728.702, 10.65916
2729.203, 7.167183
2729.703, 8.290768
2730.203, 8.544189
2730.704, 10.57830
2731.204, 6.270035
2731.704, 6.433243
2732.205, 7.951248
2732.705, 11.76733
2733.205, 9.329449
2733.706, 8.096066
2734.206, 9.403687
2734.706, 9.642906
2735.207, 8.588070
2735.707, 2.396030
2736.207, 1.966450
2736.708, 0.9592320
2737.208, 3.991676
2737.708, 7.710968
2738.208, 8.467594
2738.709, 8.230885
2739.209, 8.677368
2739.709, 8.582905
2740.210, 4.649727
2740.710, 1.169094
2741.210, 1.058289
2741.711, 2.118362
2742.211, 6.773449
2742.711, 7.589493
2743.212, 10.35856
2743.712, 10.52091
2744.212, 10.55753
2744.712, 9.501106
2745.213, 6.744694
2745.713, 4.403152
2746.213, 5.297722
2746.714, 8.113758
2747.214, 9.242920
2747.714, 7.758286
2748.215, 4.757439
2748.715, 2.858574
2749.215, 2.181561
2749.716, 2.462608
2750.216, 4.047039
2750.716, 5.369064
2751.217, 8.240131
2751.717, 9.533024
2752.217, 8.662754
2752.718, 6.099579
2753.218, 7.708763
2753.718, 9.122242
2754.219, 10.01806
2754.719, 4.811218
2755.219, 4.477196
2755.719, 4.254215
2756.220, 6.653717
2756.720, 5.541641
2757.220, 6.283596
2757.721, 8.622974
2758.221, 9.475700
2758.721, 10.45749
2759.222, 12.48123
2759.722, 12.21724
2760.222, 11.56602
2760.723, 9.823277
2761.223, 9.787403
2761.723, 7.536373
2762.223, 8.237904
2762.724, 11.21128
2763.224, 12.01037
2763.724, 6.817146
2764.225, 5.780529
2764.725, 4.053226
2765.225, 5.810204
2765.726, 1.886871
2766.226, 3.691566
2766.726, 1.221596
2767.227, 2.452679
2767.727, 6.656666
2768.227, 11.99673
2768.728, 11.20326
2769.228, 5.058125
2769.728, 1.062035
2770.229, 2.778484
2770.729, 4.785530
2771.229, 5.668800
2771.729, 7.498177
2772.230, 10.13256
2772.730, 10.47662
2773.230, 5.439857
2773.731, 5.3490002E-02
2774.231, 0.7852020
2774.731, 3.273178
2775.232, 5.362770
2775.732, 5.214577
2776.232, 5.405399
2776.733, 8.429466
2777.233, 8.861549
2777.733, 7.651070
2778.234, 3.567760
2778.734, 3.075466
2779.234, 1.194077
2779.734, 4.627590
2780.235, 3.225166
2780.735, 5.163540
2781.235, 3.848156
2781.736, 6.046272
2782.236, 4.994678
2782.736, 5.035339
2783.237, 6.031906
2783.737, 6.830730
2784.237, 7.249565
2784.738, 7.836536
2785.238, 6.393124
2785.738, 5.519077
2786.239, 0.1355020
2786.739, 2.599861
2787.239, 0.7786640
2787.740, 3.9871000E-02
2788.240, 0.4603120
2788.740, 5.129269
2789.240, 7.255199
2789.741, 4.777485
2790.241, 4.500225
2790.741, 5.148777
2791.242, 8.003494
2791.742, 9.029812
2792.242, 10.48961
2792.743, 10.06155
2793.243, 7.330917
2793.743, 5.452835
2794.244, 3.242355
2794.744, 2.646343
2795.244, 1.997494
2795.745, 0.8736720
2796.245, 0.6406330
2796.745, 2.297253
2797.245, 5.435814
2797.746, 5.282871
2798.246, 3.901993
2798.746, 3.404160
2799.247, 2.967243
2799.747, 1.186378
2800.247, 3.499622
2800.748, 5.264698
2801.248, 6.956425
2801.748, 2.932274
2802.249, 2.618320
2802.749, 4.695496
2803.249, 5.101658
2803.750, 4.540836
2804.250, 7.424026
2804.750, 8.433655
2805.250, 8.855507
2805.751, 6.702091
2806.251, 4.962814
2806.751, 5.947418
2807.252, 7.014915
2807.752, 9.750320
2808.252, 4.579651
2808.753, 3.640068
2809.253, 1.930584
2809.753, 3.421894
2810.254, 4.749920
2810.754, 5.274651
2811.254, 8.078377
2811.755, 3.660923
2812.255, 0.3045730
2812.755, 3.137436
2813.255, 1.110622
2813.756, 2.844158
2814.256, 5.641403
2814.756, 3.397015
2815.257, 3.909607
2815.757, 5.543186
2816.257, 7.561852
2816.758, 8.480896
2817.258, 5.487045
2817.758, 2.426399
2818.259, 1.996201
2818.759, 1.563377
2819.259, 0.6399310
2819.760, 4.832150
2820.260, 4.412464
2820.760, 4.391808
2821.260, 3.338459
2821.761, 1.854446
2822.261, 1.658791
2822.761, 1.436134
2823.262, 1.504654
2823.762, 2.365341
2824.262, 4.5952000E-02
2824.763, 0.8919180
2825.263, 2.919216
2825.763, 1.621639
2826.264, 0.3017040
2826.764, 0.8949620
2827.264, 0.6922720
2827.765, 2.339687
2828.265, 0.9870800
2828.765, 2.544502
2829.266, 1.205795
2829.766, 2.189575
2830.266, 3.666832
2830.766, 4.709587
2831.267, 7.452477
2831.767, 11.01517
2832.267, 6.642540
2832.768, 2.881630
2833.268, 1.162666
2833.768, 3.180458
2834.269, 3.737907
2834.769, 3.911903
2835.269, 5.121330
2835.770, 3.404480
2836.270, 1.858963
2836.770, 0.7517550
2837.271, 3.744980
2837.771, 4.168037
2838.271, 3.011177
2838.771, 3.531456
2839.272, 3.859856
2839.772, 6.116898
2840.272, 3.549660
2840.773, 4.007401
2841.273, 9.186836
2841.773, 13.39896
2842.274, 13.83335
2842.774, 8.130569
2843.274, 8.319794
2843.775, 9.120506
2844.275, 12.64414
2844.775, 10.67137
2845.276, 8.791138
2845.776, 6.024269
2846.276, 7.191925
2846.777, 12.22805
2847.277, 13.41022
2847.777, 13.28863
2848.277, 10.76380
2848.778, 13.12241
2849.278, 14.70763
2849.778, 17.38021
2850.279, 20.91483
2850.779, 23.15326
2851.279, 23.89925
2851.780, 27.75281
2852.280, 25.79730
2852.780, 27.41888
2853.281, 23.15279
2853.781, 25.78666
2854.281, 24.28476
2854.781, 21.04295
2855.282, 18.35178
2855.782, 17.48290
2856.282, 16.85004
2856.783, 15.40083
2857.283, 13.42160
2857.783, 13.91533
2858.284, 12.76671
2858.784, 14.39864
2859.284, 13.99047
2859.785, 16.57657
2860.285, 15.38671
2860.785, 14.58688
2861.286, 11.82607
2861.786, 11.72873
2862.286, 13.26270
2862.787, 14.86846
2863.287, 14.40820
2863.787, 13.13257
2864.288, 12.36011
2864.788, 11.86322
2865.288, 12.58844
2865.788, 13.29800
2866.289, 14.80993
2866.789, 17.26839
2867.289, 14.27488
2867.790, 11.86221
2868.290, 9.346756
2868.790, 11.18334
2869.291, 12.46130
2869.791, 8.177864
2870.291, 6.933983
2870.792, 9.571175
2871.292, 11.14588
2871.792, 11.75533
2872.292, 9.549538
2872.793, 11.05453
2873.293, 10.99547
2873.793, 12.84254
2874.294, 14.36308
2874.794, 16.49345
2875.294, 11.27498
2875.795, 10.73695
2876.295, 10.76775
2876.795, 12.13857
2877.296, 12.06315
2877.796, 10.91967
2878.296, 12.55325
2878.797, 11.11469
2879.297, 12.38223
2879.797, 12.60925
2880.298, 11.49847
2880.798, 11.37356
2881.298, 11.30286
2881.799, 12.37914
2882.299, 10.76942
2882.799, 13.53873
2883.299, 15.97417
2883.800, 17.47875
2884.300, 13.51170
2884.800, 10.70203
2885.301, 8.240013
2885.801, 7.998985
2886.301, 7.553070
2886.802, 10.05112
2887.302, 9.482620
2887.802, 9.913162
2888.302, 6.532928
2888.803, 7.306969
2889.303, 8.429306
2889.803, 11.27749
2890.304, 10.50609
2890.804, 9.962502
2891.304, 9.740395
2891.805, 10.28799
2892.305, 9.652000
2892.805, 9.031799
2893.306, 10.30759
2893.806, 8.859940
2894.306, 11.01984
2894.807, 13.71795
2895.307, 15.31082
2895.807, 11.76418
2896.308, 6.000832
2896.808, 7.971115
2897.308, 7.427750
2897.809, 8.300179
2898.309, 4.916100
2898.809, 5.897919
2899.310, 5.286133
2899.810, 3.123878
2900.310, 5.811058
2900.810, 9.929047
2901.311, 12.62770
2901.811, 7.252457
2902.311, 5.573860
2902.812, 6.959648
2903.312, 13.39713
2903.812, 12.94183
2904.312, 11.34652
2904.813, 10.95320
2905.313, 8.497185
2905.813, 10.24387
2906.314, 6.180374
2906.814, 10.85078
2907.314, 11.41962
2907.815, 13.45853
2908.315, 8.164200
2908.815, 7.575798
2909.316, 4.759895
2909.816, 8.539063
2910.316, 9.245560
2910.817, 11.03398
2911.317, 9.355148
2911.817, 5.948364
2912.318, 8.860191
2912.818, 11.99613
2913.318, 13.57658
2913.819, 9.408142
2914.319, 6.175556
2914.819, 5.638638
2915.320, 6.230312
2915.820, 7.112068
2916.320, 10.12161
2916.821, 9.151859
2917.321, 9.801525
2917.821, 10.61691
2918.321, 13.28963
2918.822, 11.61253
2919.322, 10.72831
2919.822, 13.92661
2920.323, 13.18708
2920.823, 9.323803
2921.323, 5.213120
2921.823, 9.118000
2922.324, 12.98003
2922.824, 13.82020
2923.324, 14.56011
2923.825, 12.72129
2924.325, 15.01460
2924.825, 15.11448
2925.326, 19.56463
2925.826, 21.66158
2926.326, 21.88851
2926.827, 19.60929
2927.327, 14.99402
2927.827, 10.47424
2928.328, 11.45695
2928.828, 12.70554
2929.328, 17.19064
2929.829, 17.80925
2930.329, 20.23724
2930.829, 17.20012
2931.330, 16.66142
2931.830, 13.24913
2932.330, 16.95206
2932.831, 16.52937
2933.331, 15.37113
2933.831, 12.98682
2934.332, 13.62464
2934.832, 16.31952
2935.332, 17.04791
2935.832, 14.98372
2936.333, 16.40481
2936.833, 19.21289
2937.333, 17.74305
2937.834, 18.15368
2938.334, 13.35829
2938.834, 13.71289
2939.334, 8.362419
2939.835, 9.700474
2940.335, 7.182518
2940.835, 6.825039
2941.336, 5.772655
2941.836, 11.62424
2942.336, 15.51420
2942.837, 14.68085
2943.337, 11.50575
2943.837, 6.349545
2944.338, 4.117332
2944.838, 0.9828830
2945.338, 2.727299
2945.839, 3.197338
2946.339, 4.360535
2946.839, 3.780296
2947.340, 4.235592
2947.840, 5.826099
2948.340, 2.721359
2948.841, 4.471134
2949.341, 3.788376
2949.841, 8.411068
2950.342, 7.861088
2950.842, 6.392052
2951.342, 3.694717
2951.843, 0.5178450
2952.343, 4.778111
2952.843, 5.895302
2953.343, 6.275169
2953.844, 3.567764
2954.344, 6.727863
2954.844, 12.05113
2955.345, 8.905163
2955.845, 4.771378
2956.345, 2.103718
2956.845, 7.175182
2957.346, 6.561184
2957.846, 4.651009
2958.346, 1.660538
2958.847, 4.410309
2959.347, 5.110172
2959.847, 4.287727
2960.348, 2.945229
2960.848, 4.609806
2961.348, 6.882900
2961.849, 6.391651
2962.349, 7.445183
2962.849, 4.215324
2963.350, 6.873512
2963.850, 5.732071
2964.350, 9.710064
2964.851, 10.19270
2965.351, 10.03127
2965.851, 10.10513
2966.352, 10.55538
2966.852, 12.11589
2967.352, 10.49058
2967.853, 10.23767
2968.353, 7.640656
2968.853, 9.528328
2969.354, 7.700195
2969.854, 6.052895
2970.354, 4.356243
2970.854, 0.6628070
2971.355, 0.1061590
2971.855, 2.132244
2972.355, 1.686321
2972.856, 2.754696
2973.356, 3.639183
2973.856, 3.562187
2974.356, 0.4764020
2974.857, 0.8185730
2975.357, 0.6420820
2975.857, 1.072010
2976.358, 2.657108
2976.858, 2.716038
2977.358, 5.275909
2977.859, 7.946114
2978.359, 7.078346
2978.859, 4.653736
2979.360, 0.5655860
2979.860, 1.555775
2980.360, 3.636837
2980.861, 3.189529
2981.361, 0.4811060
2981.861, 2.383194
2982.362, 1.132801
2982.862, 6.120213
2983.362, 6.214333
2983.863, 5.727722
2984.363, 5.721642
2984.863, 10.44846
2985.364, 8.044109
2985.864, 7.028305
2986.364, 3.442034
2986.865, 2.958426
2987.365, 0.9886050
2987.865, 2.697069
2988.365, 0.9206470
2988.866, 3.467352
2989.366, 5.766996
2989.866, 5.349236
2990.367, 6.126587
2990.867, 5.666624
2991.367, 5.420681
2991.867, 5.200909
2992.368, 4.456055
2992.868, 5.184700
2993.368, 5.228592
2993.869, 5.540726
2994.369, 4.699810
2994.869, 5.979279
2995.370, 8.259567
2995.870, 5.658873
2996.370, 5.699568
2996.871, 6.604824
2997.371, 10.28408
2997.871, 8.337334
2998.372, 4.653103
2998.872, 2.682697
2999.372, 4.552048
2999.873, 5.220219
3000.373, 7.090498
3000.873, 3.896727
3001.374, 4.985508
3001.874, 4.081638
3002.374, 9.410126
3002.875, 4.841440
3003.375, 4.669201
3003.875, 2.482656
3004.375, 6.438667
3004.876, 6.404175
3005.376, 8.091898
3005.876, 8.310619
3006.377, 6.446907
3006.877, 3.995342
3007.377, 4.249624
3007.878, 6.551348
3008.378, 8.306795
3008.878, 9.410158
3009.378, 8.918755
3009.879, 7.719475
3010.379, 5.147438
3010.879, 1.618979
3011.380, 1.697033
3011.880, 6.1794002E-02
3012.380, 3.649975
3012.881, 4.269369
3013.381, 2.412384
3013.881, 2.795794
3014.382, 5.781137
3014.882, 7.804110
3015.382, 5.280748
3015.883, 1.732008
3016.383, 0.1244850
3016.883, 2.913321
3017.384, 5.019606
3017.884, 3.559490
3018.384, 0.1550500
3018.885, 0.4565930
3019.385, 3.769375
3019.885, 5.015902
3020.385, 4.930731
3020.886, 4.262997
3021.386, 4.072100
3021.886, 5.663340
3022.387, 4.556097
3022.887, 2.494308
3023.387, 1.953238
3023.888, 3.161158
3024.388, 4.432800
3024.888, 3.302347
3025.389, 1.582577
3025.889, 3.825720
3026.389, 5.198730
3026.889, 6.369390
3027.390, 5.533985
3027.890, 3.221132
3028.390, 2.539330
3028.891, 2.721857
3029.391, 2.684435
3029.891, 3.217196
3030.392, 2.852013
3030.892, 0.7833790
3031.392, 0.2977010
3031.893, 2.112324
3032.393, 0.3589340
3032.893, 1.385233
3033.394, 1.720690
3033.894, 2.105828
3034.394, 2.736737
3034.895, 1.559280
3035.395, 0.2282050
3035.895, 0.6884590
3036.396, 1.993081
3036.896, 0.6715600
3037.396, 1.809490
3037.896, 2.429291
3038.397, 4.723536
3038.897, 3.223757
3039.397, 2.141754
3039.898, 0.9308620
3040.398, 2.263575
3040.898, 1.585093
3041.399, 9.1913000E-02
3041.899, 3.820598
3042.399, 1.435833
3042.900, 0.5838620
3043.400, 1.316305
3043.900, 0.3746320
3044.400, 0.7387710
3044.901, 2.628504
3045.401, 3.865076
3045.901, 2.998091
3046.402, 0.2371960
3046.902, 1.215086
3047.402, 2.987614
3047.903, 4.300726
3048.403, 2.712101
3048.903, 1.194338
3049.404, 1.986576
3049.904, 1.934616
3050.404, 3.384335
3050.905, 3.736345
3051.405, 4.120348
3051.905, 4.091640
3052.406, 4.488523
3052.906, 4.409668
3053.406, 4.364855
3053.906, 2.349871
3054.407, 2.801777
3054.907, 3.977137
3055.407, 4.958710
3055.908, 4.095118
3056.408, 2.144075
3056.908, 3.063759
3057.409, 2.682976
3057.909, 5.378981
3058.409, 6.027832
3058.910, 6.579912
3059.410, 4.579142
3059.910, 2.432325
3060.411, 2.273386
3060.911, 5.9694000E-02
3061.411, 2.475281
3061.911, 3.948154
3062.412, 7.825493
3062.912, 6.834724
3063.412, 7.674160
3063.913, 6.534954
3064.413, 6.541206
3064.913, 5.640738
3065.414, 6.039766
3065.914, 7.435831
3066.414, 6.405272
3066.915, 5.524780
3067.415, 4.264683
3067.915, 5.912369
3068.416, 7.758717
3068.916, 7.787432
3069.416, 7.119251
3069.917, 6.613310
3070.417, 6.597130
3070.917, 6.667149
3071.417, 5.112091
3071.918, 7.683413
3072.418, 10.99298
3072.918, 11.85962
3073.419, 9.722540
3073.919, 6.773472
3074.419, 7.041235
3074.920, 7.376495
3075.420, 5.765368
3075.920, 5.998577
3076.421, 6.444433
3076.921, 6.409452
3077.421, 6.314798
3077.922, 6.124628
3078.422, 7.352169
3078.922, 3.320299
3079.422, 3.955938
3079.923, 1.241432
3080.423, 6.219774
3080.923, 3.674208
3081.424, 6.688604
3081.924, 5.200272
3082.424, 6.343447
3082.925, 9.634327
3083.425, 9.166458
3083.925, 7.952618
3084.426, 5.361969
3084.926, 6.980190
3085.426, 6.495506
3085.927, 5.613894
3086.427, 5.063248
3086.927, 5.741613
3087.427, 4.111027
3087.928, 0.2977410
3088.428, 0.1976110
3088.928, 0.8957580
3089.429, 2.138956
3089.929, 4.104765
3090.429, 7.528442
3090.930, 9.099255
3091.430, 8.359022
3091.930, 5.232540
3092.431, 4.599438
3092.931, 1.101252
3093.431, 0.1991040
3093.932, 0.7158030
3094.432, 3.573053
3094.932, 3.683035
3095.433, 5.643188
3095.933, 3.308605
3096.433, 2.184013
3096.933, 2.851236
3097.434, 9.099241
3097.934, 10.41031
3098.434, 8.739662
3098.935, 5.188902
3099.435, 2.939903
3099.935, 3.376255
3100.436, 4.216290
3100.936, 5.553127
3101.436, 5.239655
3101.937, 2.676575
3102.437, 2.749657
3102.937, 1.570164
3103.438, 2.893391
3103.938, 6.116959
3104.438, 4.470646
3104.938, 5.502316
3105.439, 3.335880
3105.939, 7.173122
3106.439, 6.645344
3106.940, 6.493759
3107.440, 3.019974
3107.940, 3.689548
3108.441, 6.317539
3108.941, 8.371895
3109.441, 5.323700
3109.942, 2.909569
3110.442, 5.669239
3110.942, 6.796764
3111.443, 8.319866
3111.943, 5.044468
3112.443, 5.870094
3112.944, 3.235851
3113.444, 1.517174
3113.944, 0.7409170
3114.444, 1.426510
3114.945, 1.868103
3115.445, 1.994606
3115.945, 4.528618
3116.446, 6.686024
3116.946, 6.352139
3117.446, 6.041740
3117.947, 3.074585
3118.447, 2.275661
3118.947, 1.563889
3119.448, 0.1337660
3119.948, 0.5458260
3120.448, 2.411217
3120.948, 1.185661
3121.449, 1.079803
3121.949, 0.5601460
3122.449, 3.141899
3122.950, 7.043922
3123.450, 6.751736
3123.950, 6.630573
3124.451, 7.705826
3124.951, 7.695015
3125.451, 7.879257
3125.952, 4.043175
3126.452, 2.152016
3126.952, 0.6174320
3127.453, 0.3195880
3127.953, 0.1603620
3128.453, 3.967152
3128.954, 6.109249
3129.454, 7.482613
3129.954, 5.737011
3130.455, 7.530270
3130.955, 7.237289
3131.455, 6.598465
3131.955, 4.517525
3132.456, 4.667236
3132.956, 4.034203
3133.456, 2.544018
3133.957, 1.698547
3134.457, 1.339348
3134.957, 1.377689
3135.458, 0.3093760
3135.958, 2.098335
3136.458, 4.929245
3136.958, 4.448711
3137.459, 1.326031
3137.959, 3.301022
3138.459, 6.783325
3138.960, 7.474766
3139.460, 6.141407
3139.960, 2.460590
3140.461, 5.927906
3140.961, 4.663948
3141.461, 5.832500
3141.962, 1.609859
3142.462, 0.9327550
3142.962, 2.021629
3143.463, 4.723228
3143.963, 4.307144
3144.463, 8.316303
3144.964, 8.903908
3145.464, 11.72232
3145.964, 7.842266
3146.465, 6.572720
3146.965, 1.377865
3147.465, 1.184204
3147.966, 2.143364
3148.466, 6.164886
3148.966, 8.189686
3149.466, 5.743946
3149.967, 5.331787
3150.467, 2.907516
3150.967, 0.1867640
3151.468, 1.158688
3151.968, 1.344326
3152.468, 3.119511
3152.969, 4.368698
3153.469, 4.327961
3153.969, 4.218273
3154.469, 3.324421
3154.970, 1.795868
3155.470, 0.7211490
3155.970, 0.1865350
3156.471, 0.2588540
3156.971, 1.253197
3157.471, 0.7824100
3157.972, 7.2208002E-02
3158.472, 0.9575810
3158.972, 1.869736
3159.473, 2.946991
3159.973, 3.918327
3160.473, 4.670265
3160.974, 4.597515
3161.474, 5.119411
3161.974, 3.310501
3162.475, 3.677856
3162.975, 2.461105
3163.475, 4.115227
3163.976, 4.891731
3164.476, 5.359657
3164.976, 3.145866
3165.477, 2.330307
3165.977, 4.079117
3166.477, 3.272919
3166.977, 0.3236160
3167.478, 2.124771
3167.978, 0.3862920
3168.478, 2.933388
3168.979, 5.640961
3169.479, 9.277130
3169.979, 10.02849
3170.479, 10.32236
3170.980, 8.023239
3171.480, 6.649925
3171.980, 2.100357
3172.481, 0.6864550
3172.981, 5.375671
3173.481, 7.388321
3173.982, 8.929367
3174.482, 3.098259
3174.982, 3.433594
3175.483, 1.159866
3175.983, 1.920593
3176.483, 1.261360
3176.984, 0.4543460
3177.484, 0.5650940
3177.984, 1.320366
3178.485, 3.760193
3178.985, 8.161690
3179.485, 9.638107
3179.986, 3.937683
3180.486, 0.8705980
3180.986, 0.6849440
3181.487, 4.651123
3181.987, 8.631599
3182.487, 6.323685
3182.988, 5.449524
3183.488, 3.766762
3183.988, 7.110893
3184.488, 4.450127
3184.989, 4.015114
3185.489, 3.337303
3185.989, 5.929749
3186.490, 5.240166
3186.990, 6.375710
3187.490, 9.205551
3187.990, 9.634308
3188.491, 7.665741
3188.991, 2.582497
3189.491, 1.519234
3189.992, 1.127556
3190.492, 1.114647
3190.992, 5.048393
3191.493, 8.090942
3191.993, 12.55748
3192.493, 11.77222
3192.994, 10.67687
3193.494, 7.785210
3193.994, 4.219482
3194.495, 3.433548
3194.995, 5.228889
3195.495, 7.038223
3195.996, 5.801651
3196.496, 4.767654
3196.996, 3.221153
3197.497, 7.301994
3197.997, 9.629311
3198.497, 14.34660
3198.998, 12.49306
3199.498, 9.617630
3199.998, 8.701981
3200.499, 7.576202
3200.999, 8.992912
3201.499, 7.273743
3201.999, 6.865349
3202.500, 6.616982
3203.000, 7.988785
3203.500, 7.495338
3204.001, 6.190079
3204.501, 3.522141
3205.001, 4.145241
3205.501, 2.566208
3206.002, 2.815651
3206.502, 0.4526980
3207.002, 3.611374
3207.503, 6.702240
3208.003, 9.498421
3208.503, 8.257431
3209.004, 6.436401
3209.504, 6.626915
3210.004, 5.176414
3210.505, 3.046425
3211.005, 3.491493
3211.505, 6.349831
3212.006, 9.973930
3212.506, 12.12940
3213.006, 11.11774
3213.507, 8.486710
3214.007, 3.906288
3214.507, 6.464867
3215.008, 7.349663
3215.508, 10.86379
3216.008, 8.356232
3216.509, 8.866318
3217.009, 7.203156
3217.509, 6.164452
3218.010, 6.283417
3218.510, 6.058647
3219.010, 6.152512
3219.510, 3.846481
3220.011, 2.808502
3220.511, 0.8752590
3221.011, 0.7965470
3221.512, 0.9862370
3222.012, 4.716896
3222.512, 5.843018
3223.012, 3.610474
3223.513, 4.389885
3224.013, 6.906059
3224.513, 10.02529
3225.014, 10.98833
3225.514, 9.784882
3226.014, 9.984283
3226.515, 8.024124
3227.015, 8.800072
3227.515, 8.290199
3228.016, 3.646965
3228.516, 4.014771
3229.016, 4.233261
3229.517, 9.691238
3230.017, 8.750977
3230.517, 7.256775
3231.018, 6.667282
3231.518, 4.908844
3232.018, 5.535744
3232.519, 4.304459
3233.019, 5.730461
3233.519, 8.737984
3234.020, 9.796661
3234.520, 11.50838
3235.020, 9.750786
3235.521, 9.906868
3236.021, 8.434036
3236.521, 9.482361
3237.021, 8.000328
3237.522, 9.743263
3238.022, 9.113884
3238.522, 9.909569
3239.023, 9.209656
3239.523, 13.46158
3240.023, 13.82835
3240.523, 11.51686
3241.024, 7.865433
3241.524, 8.877251
3242.024, 9.732033
3242.525, 8.046410
3243.025, 4.649628
3243.525, 4.839745
3244.026, 4.061401
3244.526, 5.292595
3245.026, 5.730530
3245.527, 9.399193
3246.027, 12.08037
3246.527, 12.70261
3247.028, 10.98357
3247.528, 10.26734
3248.028, 10.42010
3248.529, 7.979927
3249.029, 6.329147
3249.529, 5.508469
3250.030, 8.555740
3250.530, 8.553520
3251.030, 5.361198
3251.531, 5.488464
3252.031, 7.286613
3252.531, 6.754509
3253.031, 5.825943
3253.532, 5.509834
3254.032, 11.47296
3254.532, 8.369438
3255.033, 8.869217
3255.533, 3.879234
3256.033, 6.837425
3256.534, 2.228363
3257.034, 3.346397
3257.534, 1.788376
3258.034, 4.728798
3258.535, 4.677269
3259.035, 7.755402
3259.535, 8.030083
3260.036, 9.806602
3260.536, 7.999886
3261.036, 6.473801
3261.537, 4.263725
3262.037, 2.492958
3262.537, 2.074913
3263.038, 3.815605
3263.538, 4.180084
3264.038, 4.381844
3264.539, 5.853462
3265.039, 6.951401
3265.539, 6.227119
3266.040, 2.154518
3266.540, 0.4497300
3267.040, 0.1647950
3267.541, 1.745941
3268.041, 2.131348
3268.541, 5.174286
3269.042, 5.166611
3269.542, 5.837700
3270.042, 7.974152
3270.542, 8.777481
3271.043, 9.535202
3271.543, 5.350655
3272.043, 3.788223
3272.544, 1.665039
3273.044, 3.490791
3273.544, 4.112625
3274.045, 6.341522
3274.545, 8.842422
3275.045, 8.179214
3275.545, 10.12711
3276.046, 5.834541
3276.546, 6.223122
3277.046, 4.053253
3277.547, 6.356361
3278.047, 7.391899
3278.547, 2.880577
3279.048, 3.253342
3279.548, 1.391266
3280.048, 0.9161450
3280.549, 0.2505800
3281.049, 4.518471
3281.549, 6.903442
3282.050, 5.125977
3282.550, 5.521820
3283.050, 7.800079
3283.551, 9.022377
3284.051, 7.435532
3284.551, 5.557892
3285.052, 5.350166
3285.552, 5.279602
3286.052, 1.187164
3286.552, 0.2820430
3287.053, 1.103149
3287.553, 4.963837
3288.053, 10.49179
3288.554, 8.668091
3289.054, 8.273689
3289.554, 5.496887
3290.055, 7.117073
3290.555, 6.923798
3291.055, 4.985214
3291.556, 2.792664
3292.056, 3.142342
3292.556, 5.016205
3293.056, 6.282494
3293.557, 6.538361
3294.057, 5.811371
3294.557, 4.384308
3295.058, 3.010574
3295.558, 2.261818
3296.058, 3.288857
3296.559, 5.736053
3297.059, 5.596588
3297.559, 7.265808
3298.060, 3.959724
3298.560, 4.293594
3299.060, 1.544174
3299.561, 1.600807
3300.061, 2.327026
3300.561, 1.628128
3301.062, 1.563927
3301.562, 5.9944000E-02
3302.062, 0.1787870
3302.562, 1.763344
3303.063, 2.246910
3303.563, 5.878975
3304.063, 5.689537
3304.564, 4.491508
3305.064, 1.396286
3305.564, 1.394981
3306.065, 2.061020
3306.565, 0.9518740
3307.065, 1.748215
3307.566, 4.191544
3308.066, 3.961594
3308.566, 1.466637
3309.067, 0.6052250
3309.567, 0.6397400
3310.067, 1.519585
3310.567, 2.011650
3311.068, 3.440262
3311.568, 5.224716
3312.068, 6.848152
3312.569, 7.070778
3313.069, 5.872124
3313.569, 3.105423
3314.070, 4.663216
3314.570, 4.493179
3315.070, 5.373718
3315.571, 1.594063
3316.071, 0.1277120
3316.571, 0.8217050
3317.072, 4.262032
3317.572, 5.040157
3318.072, 7.418858
3318.573, 4.698601
3319.073, 3.736649
3319.573, 1.204556
3320.073, 2.505829
3320.574, 4.749653
3321.074, 7.376541
3321.574, 6.213669
3322.075, 4.350071
3322.575, 5.043453
3323.075, 5.325523
3323.576, 8.474396
3324.076, 6.343285
3324.576, 4.202084
3325.077, 2.305435
3325.577, 3.987858
3326.077, 6.499905
3326.578, 5.998947
3327.078, 0.2510490
3327.578, 0.4232180
3328.078, 3.032310
3328.579, 8.762695
3329.079, 5.660683
3329.579, 5.819706
3330.080, 3.812553
3330.580, 8.003632
3331.080, 6.248306
3331.581, 5.902454
3332.081, 3.669144
3332.581, 2.192562
3333.082, 2.673664
3333.582, 4.165104
3334.082, 5.708359
3334.583, 1.362404
3335.083, 1.029041
3335.583, 2.305386
3336.083, 3.000416
3336.584, 4.245541
3337.084, 2.705524
3337.584, 1.610188
3338.085, 1.600491
3338.585, 2.710930
3339.085, 0.9493140
3339.586, 9.2896000E-02
3340.086, 0.9981800
3340.586, 3.439865
3341.087, 6.049286
3341.587, 4.890903
3342.087, 5.713081
3342.588, 4.776234
3343.088, 6.346470
3343.588, 5.422482
3344.089, 4.394314
3344.589, 4.281944
3345.089, 5.826954
3345.589, 5.813576
3346.090, 1.267155
3346.590, 0.9276810
3347.090, 0.3221280
3347.591, 2.615368
3348.091, 2.528362
3348.591, 4.160866
3349.092, 3.762333
3349.592, 8.254906
3350.092, 8.441936
3350.593, 9.775467
3351.093, 10.19004
3351.593, 6.662254
3352.094, 7.711769
3352.594, 3.856472
3353.094, 2.715065
3353.594, 0.7407300
3354.095, 0.1250000
3354.595, 0.4350200
3355.095, 1.779701
3355.596, 0.6972050
3356.096, 2.635895
3356.596, 0.7590710
3357.097, 1.999557
3357.597, 0.3599850
3358.097, 2.996647
3358.598, 6.799393
3359.098, 5.476006
3359.598, 3.315414
3360.099, 2.505318
3360.599, 1.274158
3361.099, 1.135143
3361.600, 6.072742
3362.100, 8.158367
3362.600, 5.426800
3363.100, 0.7536200
3363.601, 0.7546880
3364.101, 0.6447110
3364.601, 3.947529
3365.102, 7.650074
3365.602, 9.147587
3366.102, 5.280834
3366.603, 2.608456
3367.103, 1.496693
3367.603, 2.848812
3368.104, 6.182873
3368.604, 8.238579
3369.104, 10.67492
3369.604, 8.282658
3370.105, 6.045921
3370.605, 9.119946
3371.105, 8.890240
3371.606, 7.258514
3372.106, 2.365929
3372.606, 1.944521
3373.107, 0.6419830
3373.607, 1.055645
3374.107, 3.592583
3374.608, 0.6118430
3375.108, 4.355644
3375.608, 4.083767
3376.109, 5.489244
3376.609, 3.694683
3377.109, 4.339729
3377.610, 7.134439
3378.110, 5.806973
3378.610, 3.759232
3379.111, 2.071869
3379.611, 3.461212
3380.111, 7.523235
3380.611, 7.702145
3381.112, 6.945858
3381.612, 3.131142
3382.112, 2.985199
3382.613, 2.669254
3383.113, 2.282047
3383.613, 3.908009
3384.114, 5.399132
3384.614, 10.36517
3385.114, 8.995415
3385.615, 7.849789
3386.115, 2.614599
3386.615, 2.736858
3387.115, 0.9587080
3387.616, 1.019249
3388.116, 0.8065280
3388.616, 1.562029
3389.117, 1.603811
3389.617, 1.588144
3390.117, 4.077726
3390.618, 4.563845
3391.118, 4.570456
3391.618, 4.945715
3392.119, 8.767242
3392.619, 7.183279
3393.119, 3.689899
3393.620, 5.223761
3394.120, 7.633041
3394.620, 9.766571
3395.121, 7.056871
3395.621, 8.702658
3396.121, 9.026661
3396.622, 7.800373
3397.122, 7.506380
3397.622, 10.27290
3398.122, 12.23414
3398.623, 11.66148
3399.123, 9.621841
3399.623, 7.296545
3400.124, 6.052303
3400.624, 4.823168
3401.124, 5.296104
3401.625, 4.423178
3402.125, 3.359974
3402.625, 3.329311
3403.125, 2.227900
3403.626, 6.930145
3404.126, 6.449429
3404.626, 10.03380
3405.127, 7.272921
3405.627, 9.957745
3406.127, 7.357504
3406.628, 6.108284
3407.128, 2.737610
3407.628, 1.188749
3408.129, 1.446354
3408.629, 1.314856
3409.129, 0.6122590
3409.630, 0.9912110
3410.130, 2.674126
3410.630, 6.275540
3411.131, 4.575287
3411.631, 6.586235
3412.131, 6.265092
3412.632, 5.590929
3413.132, 1.366265
3413.632, 3.472621
3414.133, 3.158511
3414.633, 2.921575
3415.133, 1.736956
3415.633, 4.108109
3416.134, 5.268847
3416.634, 3.157335
3417.134, 0.3283280
3417.635, 1.074020
3418.135, 0.3243900
3418.635, 1.936735
3419.135, 3.605989
3419.636, 4.260859
3420.136, 2.582970
3420.636, 2.108585
3421.137, 0.2638880
3421.637, 0.1643790
3422.137, 1.154651
3422.638, 1.014078
3423.138, 2.2882000E-02
3423.638, 1.393061
3424.139, 3.606251
3424.639, 4.207748
3425.139, 3.602459
3425.640, 2.115062
3426.140, 1.995810
3426.640, 2.690940
3427.141, 1.509961
3427.641, 1.059928
3428.141, 0.9486210
3428.642, 3.748890
3429.142, 3.096322
3429.642, 2.344531
3430.143, 1.950480
3430.643, 2.139393
3431.143, 1.829414
3431.644, 2.051832
3432.144, 0.9241410
3432.644, 1.944732
3433.144, 8.2231000E-02
3433.645, 0.1069940
3434.145, 1.647013
3434.645, 1.883665
3435.146, 1.862518
3435.646, 0.2461670
3436.146, 2.474003
3436.646, 4.360390
3437.147, 4.831199
3437.647, 2.585991
3438.147, 2.656885
3438.648, 0.2354820
3439.148, 0.8115060
3439.648, 3.7448000E-02
3440.149, 0.5738950
3440.649, 2.731870
3441.149, 1.812009
3441.650, 1.503660
3442.150, 1.795171
3442.650, 0.7974510
3443.151, 1.327792
3443.651, 4.726603
3444.151, 5.492886
3444.652, 5.909842
3445.152, 5.480933
3445.652, 4.913546
3446.153, 3.264407
3446.653, 0.9773220
3447.153, 1.753590
3447.654, 2.237971
3448.154, 3.745980
3448.654, 1.168974
3449.155, 2.759077
3449.655, 4.637163
3450.155, 7.596180
3450.655, 6.845407
3451.156, 6.225209
3451.656, 4.201172
3452.156, 5.333257
3452.657, 5.565748
3453.157, 8.079659
3453.657, 5.229532
3454.157, 5.686782
3454.658, 7.588969
3455.158, 10.63682
3455.658, 11.70959
3456.159, 10.12682
3456.659, 9.498780
3457.159, 10.21572
3457.660, 13.09955
3458.160, 15.67435
3458.660, 14.73071
3459.161, 11.35625
3459.661, 9.388545
3460.161, 9.959582
3460.662, 9.753796
3461.162, 7.514273
3461.662, 4.448165
3462.163, 5.326037
3462.663, 7.389413
3463.163, 8.338889
3463.664, 6.492165
3464.164, 5.711230
3464.664, 8.724721
3465.165, 11.23294
3465.665, 12.53802
3466.165, 8.443149
3466.666, 10.53642
3467.166, 8.354508
3467.666, 9.471505
3468.166, 6.009389
3468.667, 4.227612
3469.167, 3.636550
3469.667, 2.498740
3470.168, 5.619987
3470.668, 2.793767
3471.168, 4.837688
3471.668, 3.373666
3472.169, 4.786209
3472.669, 7.022761
3473.169, 8.206965
3473.670, 10.69805
3474.170, 8.775781
3474.670, 10.15090
3475.171, 11.82507
3475.671, 11.34177
3476.171, 9.576180
3476.672, 7.865732
3477.172, 6.971171
3477.672, 6.627715
3478.173, 5.933793
3478.673, 4.527132
3479.173, 6.597219
3479.674, 7.099859
3480.174, 9.824145
3480.674, 10.07123
3481.175, 9.265997
3481.675, 11.04792
3482.175, 12.10845
3482.676, 12.38041
3483.176, 9.552545
3483.676, 4.862876
3484.177, 5.504794
3484.677, 6.623974
3485.177, 8.857684
3485.677, 10.10602
3486.178, 10.91739
3486.678, 9.267804
3487.178, 8.080175
3487.679, 7.583708
3488.179, 8.783529
3488.679, 6.702753
3489.179, 4.544482
3489.680, 5.538322
3490.180, 9.554683
3490.680, 12.00673
3491.181, 11.55319
3491.681, 9.409548
3492.181, 7.825968
3492.682, 6.852048
3493.182, 3.665076
3493.682, 3.048014
3494.183, 3.186075
3494.683, 7.477882
3495.183, 9.580210
3495.684, 8.366209
3496.184, 6.864533
3496.684, 6.251483
3497.185, 9.047284
3497.685, 8.541636
3498.185, 7.595895
3498.686, 6.374109
3499.186, 9.181311
3499.686, 11.30360
3500.187, 12.51655
3500.687, 7.706934
3501.187, 3.288612
3501.688, 2.951982
3502.188, 5.749487
3502.688, 6.351444
3503.188, 7.722630
3503.689, 5.412470
3504.189, 5.751490
3504.689, 0.5640510
3505.190, 3.770243
3505.690, 3.632519
3506.190, 6.111294
3506.690, 5.720898
3507.191, 7.105738
3507.691, 8.046637
3508.191, 6.615107
3508.692, 7.427746
3509.192, 9.602251
3509.692, 7.604033
3510.193, 6.253679
3510.693, 5.261755
3511.193, 9.661932
3511.694, 9.061749
3512.194, 5.048283
3512.694, 2.581585
3513.195, 1.235569
3513.695, 2.822359
3514.195, 3.556740
3514.696, 8.578352
3515.196, 8.879011
3515.696, 6.940496
3516.197, 2.790182
3516.697, 4.174259
3517.197, 5.831470
3517.698, 7.925154
3518.198, 6.981977
3518.698, 6.080542
3519.198, 3.487829
3519.699, 1.666718
3520.199, 1.242790
3520.699, 0.4486560
3521.200, 1.153982
3521.700, 1.294010
3522.200, 4.525572
3522.701, 2.975206
3523.201, 3.756323
3523.701, 0.4710410
3524.201, 1.032864
3524.702, 1.616341
3525.202, 1.976301
3525.702, 2.755444
3526.203, 2.350588
3526.703, 2.997219
3527.203, 3.200514
3527.704, 4.532513
3528.204, 6.266508
3528.704, 6.191177
3529.205, 4.198963
3529.705, 3.588579
3530.205, 4.951778
3530.706, 4.296888
3531.206, 4.009916
3531.706, 4.488163
3532.207, 6.078411
3532.707, 4.084953
3533.207, 3.649536
3533.708, 3.600702
3534.208, 7.533916
3534.708, 7.144737
3535.208, 6.784781
3535.709, 5.432213
3536.209, 3.850859
3536.709, 0.1604290
3537.210, 2.643736
3537.710, 2.820343
3538.210, 1.254850
3538.711, 2.759783
3539.211, 2.896721
3539.711, 0.3851700
3540.212, 1.110420
3540.712, 2.071449
3541.212, 6.161921
3541.712, 5.318851
3542.213, 6.956715
3542.713, 2.779055
3543.213, 4.663633
3543.714, 3.770632
3544.214, 4.340246
3544.714, 5.094015
3545.215, 3.978045
3545.715, 5.556459
3546.215, 3.656651
3546.716, 4.724268
3547.216, 4.342245
3547.716, 4.683922
3548.217, 2.972679
3548.717, 4.223410
3549.217, 3.746655
3549.718, 7.243343
3550.218, 8.045467
3550.718, 7.772354
3551.219, 6.383413
3551.719, 5.300018
3552.219, 7.211336
3552.719, 9.495193
3553.220, 8.607229
3553.720, 5.470669
3554.220, 0.7920270
3554.721, 1.241409
3555.221, 3.133095
3555.721, 4.381741
3556.222, 2.588778
3556.722, 1.237467
3557.222, 1.089911
3557.723, 3.435017
3558.223, 4.320471
3558.723, 6.042355
3559.223, 5.557076
3559.724, 5.983965
3560.224, 4.973738
3560.724, 3.811619
3561.225, 4.043722
3561.725, 3.750454
3562.225, 2.168625
3562.726, 2.334778
3563.226, 3.968143
3563.726, 4.791756
3564.227, 3.797222
3564.727, 0.4033240
3565.227, 3.0700001E-04
3565.728, 1.039846
3566.228, 0.9029900
3566.728, 2.912661
3567.229, 3.547735
3567.729, 5.083221
3568.229, 4.379974
3568.729, 3.178759
3569.230, 0.8267360
3569.730, 2.768137
3570.230, 4.830828
3570.731, 3.498180
3571.231, 1.316448
3571.731, 0.8930230
3572.232, 3.298325
3572.732, 4.269104
3573.232, 3.054890
3573.733, 0.5871890
3574.233, 0.1500530
3574.733, 0.4387800
3575.234, 1.332886
3575.734, 1.531521
3576.234, 2.183628
3576.734, 1.724041
3577.235, 1.935287
3577.735, 2.648436
3578.235, 3.976994
3578.736, 5.432138
3579.236, 3.436659
3579.736, 2.290306
3580.237, 1.713196
3580.737, 3.974298
3581.237, 3.440601
3581.738, 5.170357
3582.238, 4.616142
3582.738, 5.272961
3583.239, 5.620985
3583.739, 7.623423
3584.239, 6.635740
3584.740, 4.263355
3585.240, 2.004164
3585.740, 3.731485
3586.240, 1.897516
3586.741, 2.268688
3587.241, 3.079683
3587.741, 3.395885
3588.242, 4.062468
3588.742, 2.386597
3589.242, 3.448305
3589.743, 3.426027
3590.243, 2.033672
3590.743, 3.591846
3591.244, 3.322561
3591.744, 2.659046
3592.244, 1.266752
3592.745, 0.2514650
3593.245, 1.6438000E-02
3593.745, 1.042347
3594.245, 2.697186
3594.746, 1.097488
3595.246, 0.8925780
3595.746, 4.827652
3596.247, 3.353361
3596.747, 2.197357
3597.247, 1.428247
3597.748, 1.107573
3598.248, 1.162170
3598.748, 4.182692
3599.249, 6.447956
3599.749, 6.846962
3600.249, 6.882973
3600.750, 4.469919
3601.250, 1.832468
3601.750, 0.2792170
3602.250, 0.2253680
3602.751, 1.910234
3603.251, 2.005999
3603.751, 0.4873220
3604.252, 2.756056
3604.752, 2.620792
3605.252, 4.305655
3605.753, 3.623947
3606.253, 8.730274
3606.753, 7.512733
3607.254, 6.269453
3607.754, 1.909643
3608.254, 2.262760
3608.755, 2.828098
3609.255, 3.854422
3609.755, 4.094955
3610.255, 3.869183
3610.756, 3.387346
3611.256, 5.266750
3611.756, 7.226913
3612.257, 7.201698
3612.757, 5.552139
3613.257, 4.199930
3613.758, 2.014673
3614.258, 2.520527
3614.758, 1.309624
3615.259, 2.257671
3615.759, 2.264254
3616.259, 2.872204
3616.760, 5.751478
3617.260, 6.722881
3617.760, 6.682314
3618.260, 4.493000
3618.761, 1.330910
3619.261, 0.2656420
3619.761, 1.083014
3620.262, 3.820780
3620.762, 3.830748
3621.262, 5.982977
3621.763, 2.194569
3622.263, 4.501156
3622.763, 4.280603
3623.264, 7.631849
3623.764, 7.762796
3624.264, 6.428488
3624.765, 4.881552
3625.265, 6.183138
3625.765, 5.541283
3626.266, 6.213350
3626.766, 4.844311
3627.266, 6.206041
3627.766, 7.863104
3628.267, 7.506605
3628.767, 5.415976
3629.267, 2.773546
3629.768, 2.446020
3630.268, 3.690989
3630.768, 3.728802
3631.269, 2.741980
3631.769, 4.089771
3632.269, 4.703718
3632.770, 7.086918
3633.270, 4.264513
3633.770, 3.913275
3634.271, 1.442617
3634.771, 0.3756850
3635.271, 1.301064
3635.771, 5.4924000E-02
3636.272, 3.481634
3636.772, 5.170723
3637.272, 6.592136
3637.773, 7.328785
3638.273, 7.632645
3638.773, 7.190376
3639.274, 7.355928
3639.774, 6.950106
3640.274, 6.431971
3640.775, 6.862246
3641.275, 7.135633
3641.775, 6.400867
3642.276, 5.007063
3642.776, 2.775885
3643.276, 2.599386
3643.777, 3.407290
3644.277, 4.449919
3644.777, 4.116169
3645.277, 4.139595
3645.778, 4.375231
3646.278, 6.032551
3646.778, 6.853703
3647.279, 7.504787
3647.779, 5.771744
3648.279, 2.912964
3648.780, 1.675426
3649.280, 4.023081
3649.780, 5.595673
3650.281, 5.739719
3650.781, 5.177877
3651.281, 5.067545
3651.781, 5.328047
3652.282, 3.641438
3652.782, 2.182768
3653.282, 3.470427
3653.783, 5.830891
3654.283, 4.799583
3654.783, 6.352400
3655.284, 5.734045
3655.784, 7.900167
3656.284, 3.596121
3656.785, 2.753672
3657.285, 2.423477
3657.785, 1.496706
3658.286, 1.027359
3658.786, 0.1984180
3659.286, 4.408480
3659.787, 2.277510
3660.287, 2.362238
3660.787, 1.599260
3661.288, 0.3361590
3661.788, 0.1357440
3662.288, 1.736437
3662.788, 1.730967
3663.289, 4.913776
3663.789, 4.342239
3664.289, 3.440340
3664.790, 0.6657280
3665.290, 2.613178
3665.790, 3.078306
3666.291, 6.901251
3666.791, 4.774893
3667.291, 5.944143
3667.792, 5.627678
3668.292, 7.861870
3668.792, 8.351336
3669.292, 6.345688
3669.793, 3.961132
3670.293, 5.398518
3670.793, 3.496567
3671.294, 2.767164
3671.794, 2.497965
3672.294, 4.837296
3672.795, 6.136448
3673.295, 2.898075
3673.795, 1.605886
3674.296, 1.766563
3674.796, 3.797947
3675.296, 7.422987
3675.797, 6.921263
3676.297, 4.393576
3676.797, 4.399096
3677.298, 3.064974
3677.798, 6.108807
3678.298, 5.697805
3678.799, 10.43686
3679.299, 11.64576
3679.799, 13.96488
3680.299, 13.47781
3680.800, 11.75739
3681.300, 8.570578
3681.800, 3.247744
3682.301, 2.404421
3682.801, 3.722324
3683.301, 8.634294
3683.802, 7.971394
3684.302, 6.977045
3684.802, 4.262856
3685.302, 6.058121
3685.803, 6.428080
3686.303, 7.452391
3686.803, 6.921001
3687.304, 7.408405
3687.804, 5.356813
3688.304, 4.682606
3688.805, 3.233067
3689.305, 8.253472
3689.805, 10.48662
3690.306, 10.44259
3690.806, 8.985060
3691.306, 7.982427
3691.807, 5.879429
3692.307, 2.758537
3692.807, 1.653079
3693.308, 4.012896
3693.808, 5.628147
3694.308, 5.684015
3694.809, 3.538540
3695.309, 3.840494
3695.809, 4.032576
3696.310, 5.929836
3696.810, 4.525719
3697.310, 3.291652
3697.810, 5.570472
3698.311, 7.775393
3698.811, 8.784371
3699.311, 6.327215
3699.812, 4.512846
3700.312, 4.710403
3700.812, 4.542908
3701.312, 6.534355
3701.813, 9.264230
3702.313, 8.594635
3702.813, 7.141394
3703.314, 2.300321
3703.814, 3.617316
3704.314, 4.842844
3704.815, 8.630579
3705.315, 7.810671
3705.815, 5.116470
3706.316, 2.674284
3706.816, 3.174653
3707.316, 2.901430
3707.817, 3.071350
3708.317, 3.441678
3708.817, 5.931292
3709.318, 8.450393
3709.818, 9.218342
3710.318, 6.809228
3710.819, 3.750809
3711.319, 2.108332
3711.819, 3.561594
3712.320, 3.170500
3712.820, 3.603939
3713.320, 3.115664
3713.821, 5.048499
3714.321, 1.944002
3714.821, 2.204313
3715.321, 3.4175001E-02
3715.822, 2.163055
3716.322, 1.904366
3716.822, 3.981186
3717.323, 3.255957
3717.823, 5.248532
3718.323, 4.964604
3718.823, 7.744076
3719.324, 5.265096
3719.824, 5.215316
3720.324, 4.375898
3720.825, 4.446012
3721.325, 3.583303
3721.825, 3.340776
3722.326, 3.657240
3722.826, 2.106402
3723.326, 1.608980
3723.827, 0.3752050
3724.327, 4.113824
3724.827, 2.227044
3725.328, 4.377765
3725.828, 0.5878560
3726.328, 1.751189
3726.829, 0.2671590
3727.329, 0.6097210
3727.829, 0.2243520
3728.330, 1.677293
3728.830, 2.544539
3729.330, 4.521346
3729.831, 3.898085
3730.331, 4.892651
3730.831, 3.361337
3731.332, 3.277472
3731.832, 2.420776
3732.332, 0.6353960
3732.832, 0.5228240
3733.333, 0.2044110
3733.833, 1.202002
3734.333, 0.6591180
3734.834, 1.372911
3735.334, 1.541365
3735.834, 2.585167
3736.334, 1.100173
3736.835, 1.130573
3737.335, 1.221354
3737.835, 2.419156
3738.336, 1.904417
3738.836, 0.4323570
3739.336, 7.3343001E-02
3739.837, 1.343591
3740.337, 1.080990
3740.837, 0.3546710
3741.338, 0.2746470
3741.838, 0.4019450
3742.338, 1.099954
3742.839, 1.304115
3743.339, 1.829651
3743.839, 1.091224
3744.340, 0.3231960
3744.840, 0.3466630
3745.340, 0.4407480
3745.841, 1.070530
3746.341, 0.5872930
3746.841, 2.7427999E-02
3747.342, 0.1781380
3747.842, 2.579123
3748.342, 3.186357
3748.843, 4.774878
3749.343, 4.437963
3749.843, 3.881626
3750.343, 0.6406170
3750.844, 0.4914870
3751.344, 2.049875
3751.844, 1.516997
3752.345, 0.4848140
3752.845, 1.050944
3753.345, 2.822917
3753.845, 2.343863
3754.346, 1.777607
3754.846, 1.006866
3755.346, 1.855041
3755.847, 2.320435
3756.347, 2.230273
3756.847, 1.251533
3757.348, 1.065700
3757.848, 0.9922470
3758.348, 1.215779
3758.849, 2.398204
3759.349, 3.973536
3759.849, 2.285225
3760.350, 1.606600
3760.850, 0.8209930
3761.350, 3.900679
3761.851, 2.889508
3762.351, 4.113163
3762.851, 0.6079280
3763.352, 2.201887
3763.852, 4.024416
3764.352, 4.878516
3764.853, 3.999368
3765.353, 2.613543
3765.853, 2.563671
3766.354, 2.821752
3766.854, 4.003965
3767.354, 1.569415
3767.854, 1.931761
3768.355, 0.4810470
3768.855, 2.273309
3769.355, 2.633826
3769.856, 2.078061
3770.356, 1.407978
3770.856, 1.856605
3771.356, 2.481376
3771.857, 3.142220
3772.357, 3.605364
3772.857, 2.471520
3773.358, 4.915158
3773.858, 3.150433
3774.358, 4.815779
3774.859, 3.482034
3775.359, 2.003214
3775.859, 2.639777
3776.360, 1.618948
3776.860, 3.907187
3777.360, 1.405722
3777.861, 1.063740
3778.361, 0.3133090
3778.861, 1.678530
3779.362, 3.055870
3779.862, 2.214405
3780.362, 3.063424
3780.863, 4.326836
3781.363, 5.402814
3781.863, 3.678933
3782.364, 3.025948
3782.864, 2.233644
3783.364, 3.673620
3783.865, 1.018121
3784.365, 1.935905
3784.865, 1.709143
3785.365, 2.642028
3785.866, 1.854253
3786.366, 3.918344
3786.866, 4.153858
3787.367, 4.691961
3787.867, 2.499791
3788.367, 3.444057
3788.867, 4.066159
3789.368, 3.594423
3789.868, 3.608706
3790.368, 5.200690
3790.869, 6.131808
3791.369, 4.299773
3791.869, 2.620303
3792.370, 2.545412
3792.870, 4.958206
3793.370, 7.747201
3793.871, 6.984668
3794.371, 7.127860
3794.871, 6.012431
3795.372, 7.852951
3795.872, 7.222919
3796.372, 4.741373
3796.873, 2.166589
3797.373, 2.141635
3797.873, 2.627410
3798.374, 3.193270
3798.874, 2.127545
3799.374, 3.095206
3799.875, 3.713540
3800.375, 6.674184
3800.875, 5.614929
3801.375, 5.096877
3801.876, 3.613060
3802.376, 2.228015
3802.876, 3.700097
3803.377, 3.665381
3803.877, 5.538851
3804.377, 5.958471
3804.878, 3.838083
3805.378, 7.039980
3805.878, 3.442595
3806.378, 2.322671
3806.879, 2.611176
3807.379, 1.6147999E-02
3807.879, 5.821653
3808.380, 9.933242
3808.880, 9.107672
3809.380, 5.793714
3809.881, 5.209846
3810.381, 8.398842
3810.881, 11.13609
3811.382, 10.84486
3811.882, 7.155368
3812.382, 5.233705
3812.883, 3.344385
3813.383, 3.726013
3813.883, 2.781008
3814.384, 2.303011
3814.884, 3.535114
3815.384, 4.833221
3815.885, 5.470973
3816.385, 4.518990
3816.885, 3.027706
3817.385, 5.492079
3817.886, 5.913935
3818.386, 5.945266
3818.886, 4.775618
3819.387, 3.635098
3819.887, 5.343113
3820.387, 3.683472
3820.888, 3.912759
3821.388, 4.100791
3821.888, 4.563978
3822.389, 4.034781
3822.889, 3.421758
3823.389, 6.518532
3823.889, 7.614748
3824.390, 6.641677
3824.890, 2.639516
3825.390, 1.462111
3825.891, 1.192124
3826.391, 4.204743
3826.891, 5.104923
3827.392, 4.782665
3827.892, 5.280027
3828.392, 7.598900
3828.893, 11.54967
3829.393, 9.879503
3829.893, 7.852024
3830.394, 4.436501
3830.894, 3.914609
3831.394, 4.414186
3831.895, 3.877520
3832.395, 2.635729
3832.895, 3.426250
3833.396, 7.403023
3833.896, 7.822575
3834.396, 3.724073
3834.896, 0.1130350
3835.397, 2.064573
3835.897, 6.400476
3836.397, 9.543947
3836.898, 8.969912
3837.398, 9.298578
3837.898, 6.421116
3838.399, 6.547407
3838.899, 2.994236
3839.399, 3.718071
3839.900, 2.392683
3840.400, 4.105679
3840.900, 3.800072
3841.400, 4.738771
3841.901, 6.559776
3842.401, 6.864988
3842.901, 5.689341
3843.402, 6.311974
3843.902, 9.305805
3844.402, 7.429626
3844.903, 6.577721
3845.403, 4.172535
3845.903, 9.686350
3846.404, 7.621565
3846.904, 7.352999
3847.404, 4.620916
3847.905, 4.054041
3848.405, 3.268408
3848.905, 2.728853
3849.406, 4.852976
3849.906, 6.597563
3850.406, 8.208332
3850.906, 7.443985
3851.407, 5.153460
3851.907, 3.278933
3852.407, 2.868027
3852.908, 4.600647
3853.408, 5.030409
3853.908, 6.929052
3854.409, 4.626139
3854.909, 4.951427
3855.409, 4.067873
3855.910, 6.800917
3856.410, 7.378511
3856.910, 7.412184
3857.411, 5.794909
3857.911, 5.536934
3858.411, 3.861763
3858.911, 2.547104
3859.412, 4.738615
3859.912, 6.607840
3860.412, 7.038687
3860.913, 3.175924
3861.413, 2.159309
3861.913, 3.182764
3862.414, 4.947483
3862.914, 5.701288
3863.414, 5.768974
3863.915, 6.003496
3864.415, 6.899035
3864.915, 8.148029
3865.416, 6.813007
3865.916, 3.674982
3866.416, 2.617846
3866.917, 3.559927
3867.417, 5.088293
3867.917, 7.052254
3868.417, 8.351259
3868.918, 8.514454
3869.418, 7.967855
3869.918, 4.970633
3870.419, 5.928896
3870.919, 6.039637
3871.419, 6.252901
3871.920, 2.393845
3872.420, 0.8474100
3872.920, 1.655235
3873.421, 6.291231
3873.921, 6.922911
3874.421, 8.528709
3874.922, 6.113918
3875.422, 7.288910
3875.922, 6.003531
3876.422, 7.116903
3876.923, 4.252850
3877.423, 4.025152
3877.923, 3.640553
3878.424, 3.152582
3878.924, 3.406254
3879.424, 3.320082
3879.925, 6.534273
3880.425, 6.665482
3880.925, 7.496422
3881.426, 6.033117
3881.926, 4.161034
3882.426, 3.730190
3882.927, 1.610388
3883.427, 3.340721
3883.927, 4.214283
3884.427, 6.142105
3884.928, 5.518677
3885.428, 2.696968
3885.928, 1.662991
3886.429, 0.2127420
3886.929, 2.333979
3887.429, 3.110807
3887.930, 5.514971
3888.430, 4.789505
3888.930, 3.707031
3889.431, 1.027195
3889.931, 1.163975
3890.431, 2.066689
3890.932, 3.810558
3891.432, 5.865974
3891.932, 5.355709
3892.433, 6.195202
3892.933, 3.327175
3893.433, 1.999687
3893.933, 0.9933050
3894.434, 3.248615
3894.934, 2.561569
3895.434, 1.703377
3895.935, 0.4334450
3896.435, 2.025928
3896.935, 2.975853
3897.436, 6.966923
3897.936, 4.854424
3898.436, 4.426056
3898.937, 8.6102001E-02
3899.437, 0.7835080
3899.937, 2.122570
3900.438, 1.374191
3900.938, 4.135487
3901.438, 7.050648
3901.938, 3.044392
3902.439, 0.5269620
3902.939, 0.9183960
3903.439, 0.7470820
3903.940, 1.299824
3904.440, 0.7876820
3904.940, 0.4242480
3905.441, 2.777687
3905.941, 3.630959
3906.441, 5.242260
3906.942, 2.734180
3907.442, 1.486134
3907.942, 0.7486880
3908.443, 3.270359
3908.943, 3.280075
3909.443, 4.742939
3909.944, 2.066753
3910.444, 1.206856
3910.944, 5.4501001E-02
3911.444, 1.661503
3911.945, 2.397995
3912.445, 1.896027
3912.945, 1.880939
3913.446, 1.079010
3913.946, 1.090187
3914.446, 0.8548160
3914.947, 3.515999
3915.447, 6.166222
3915.947, 6.494949
3916.448, 6.671692
3916.948, 4.715954
3917.448, 5.448570
3917.948, 2.379688
3918.449, 1.555336
3918.949, 1.308956
3919.449, 1.686081
3919.950, 2.487694
3920.450, 1.430408
3920.950, 0.6023750
3921.451, 0.7320020
3921.951, 1.755104
3922.451, 3.420063
3922.952, 4.035980
3923.452, 5.540356
3923.952, 4.837368
3924.453, 4.317440
3924.953, 3.886753
3925.453, 5.306225
3925.954, 5.936901
3926.454, 7.017506
3926.954, 2.678467
3927.455, 1.088207
3927.955, 1.021812
3928.455, 5.180676
3928.955, 7.694084
3929.456, 8.750557
3929.956, 5.866848
3930.456, 2.931385
3930.957, 0.7786220
3931.457, 6.436466
3931.957, 8.161720
3932.458, 8.874447
3932.958, 7.839844
3933.458, 9.530308
3933.958, 10.88485
3934.459, 10.19359
3934.959, 9.627171
3935.459, 7.626072
3935.960, 5.625027
3936.460, 6.564316
3936.960, 8.853157
3937.461, 9.751785
3937.961, 6.503841
3938.461, 5.213898
3938.962, 4.885536
3939.462, 5.884346
3939.962, 9.128746
3940.463, 11.14145
3940.963, 11.92010
3941.463, 10.88425
3941.964, 10.03830
3942.464, 10.43250
3942.964, 9.590717
3943.465, 8.348419
3943.965, 10.70736
3944.465, 9.873600
3944.966, 13.33807
3945.466, 12.13425
3945.966, 15.88583
3946.466, 16.81458
3946.967, 16.87466
3947.467, 17.46204
3947.967, 18.79920
3948.468, 21.06151
3948.968, 22.65774
3949.468, 24.29443
3949.969, 25.70435
3950.469, 22.93109
3950.969, 17.22691
3951.469, 16.08966
3951.970, 17.44883
3952.470, 17.86133
3952.970, 18.04436
3953.471, 17.58975
3953.971, 20.30414
3954.471, 22.76065
3954.972, 25.61495
3955.472, 25.69457
3955.972, 24.35746
3956.473, 24.39288
3956.973, 25.82546
3957.473, 25.92191
3957.974, 26.15098
3958.474, 26.90823
3958.974, 26.70284
3959.475, 26.32703
3959.975, 27.93055
3960.475, 30.48029
3960.976, 29.92124
3961.476, 27.35914
3961.976, 25.52034
3962.477, 27.50832
3962.977, 27.48936
3963.477, 27.77866
3963.977, 28.54928
3964.478, 27.06592
3964.978, 25.46975
3965.478, 21.43128
3965.979, 23.13988
3966.479, 27.15718
3966.979, 30.01265
3967.479, 27.94240
3967.980, 27.07174
3968.480, 23.06438
3968.980, 25.45414
3969.481, 22.18517
3969.981, 23.19605
3970.481, 22.62610
3970.982, 23.15966
3971.482, 22.21334
3971.982, 20.43517
3972.483, 18.23342
3972.983, 18.63588
3973.483, 19.43937
3973.984, 18.60078
3974.484, 19.23212
3974.984, 15.35824
3975.485, 17.78063
3975.985, 16.27487
3976.485, 16.99877
3976.986, 13.40760
3977.486, 9.195274
3977.986, 9.044823
3978.487, 8.224419
3978.987, 10.56985
3979.487, 11.00564
3979.988, 12.28782
3980.488, 12.61925
3980.988, 11.57543
3981.488, 13.51899
3981.989, 11.89214
3982.489, 9.383179
3982.989, 10.57802
3983.490, 9.502937
3983.990, 10.55650
3984.490, 7.381111
3984.990, 10.91091
3985.491, 10.65558
3985.991, 12.76003
3986.491, 8.632332
3986.992, 8.908890
3987.492, 2.971191
3987.992, 4.160454
3988.493, 2.972893
3988.993, 6.277977
3989.493, 5.449295
3989.994, 7.536331
3990.494, 5.474213
3990.994, 8.245705
3991.495, 6.190735
3991.995, 3.322395
3992.495, 0.7998580
3992.996, 0.1396410
3993.496, 4.873825
3993.996, 6.489708
3994.497, 5.967781
3994.997, 5.564194
3995.497, 5.243645
3995.998, 4.879097
3996.498, 2.543777
3996.998, 0.9723970
3997.499, 0.1428150
3997.999, 3.4554001E-02
3998.499, 1.601448
3998.999, 3.145081
3999.500, 2.169540
4000.000, 0.0000000E+00
##END=



