##NAMES=Heulandite-Ca
##RRUFFID=R050097
##IDEAL CHEMISTRY=(Ca,Na,K)_5_(Si_27_Al_9_)O_72_&#183;26H_2_O
##LOCALITY=Rat's Nest Claim, Custer County, Idaho, USA
##OWNER=RRUFF
##SOURCE=John Cornish
##DESCRIPTION=Pale pink coffin-shaped tabular single crystals
##STATUS=The identification of this mineral has been confirmed by X-ray diffraction and chemical analysis
##URL=rruff.info/R050097
##MEASURED CHEMISTRY=(Ca_0.66_Na_0.30_K_0.04_)_5_(Si_0.77_Al_0.23_)_36_O_72_Â·24H_2_O
##PIN_ID=L00063
##ORIENTATION=Laser parallel to (-1 0 -1). Fiducial mark perpendicular to laser is parallel to -b [0 -1 0]
138.8100, 0.0000000E+00
140.0490, 46.96924
141.2890, 123.1128
142.5280, 190.5234
143.7670, 122.7114
145.0050, 260.2153
146.2440, 243.1787
147.4820, 492.9131
148.7200, 561.4272
149.9580, 548.5981
151.1960, 568.7280
152.4340, 637.5547
153.6710, 613.8140
154.9080, 550.9917
156.1450, 576.9282
157.3820, 527.1509
158.6190, 585.2769
159.8550, 536.1353
161.0910, 521.7637
162.3270, 463.8237
163.5630, 441.0757
164.7980, 415.7725
166.0340, 315.1528
167.2690, 295.3472
168.5040, 273.4180
169.7390, 176.6699
170.9730, 215.2715
172.2080, 118.9937
173.4420, 67.69189
174.6760, 75.12256
175.9100, 29.20166
177.1440, 68.76025
178.3770, 173.1040
179.6100, 206.2520
180.8430, 161.8677
182.0760, 333.0537
183.3090, 333.6011
184.5410, 358.2466
185.7740, 431.7744
187.0060, 472.9604
188.2380, 534.7300
189.4690, 501.4604
190.7010, 573.4648
191.9320, 647.1445
193.1630, 664.8496
194.3940, 518.8247
195.6250, 524.0215
196.8550, 550.4053
198.0860, 561.4697
199.3160, 548.8828
200.5460, 518.9248
201.7750, 527.2773
203.0050, 429.4409
204.2340, 320.3140
205.4630, 276.4497
206.6920, 217.8105
207.9210, 184.3730
209.1500, 156.8203
210.3780, 104.4907
211.6060, 81.30078
212.8340, 147.7261
214.0620, 94.11963
215.2900, 28.15723
216.5170, 34.86865
217.7440, 51.83203
218.9710, 102.2866
220.1980, 87.52490
221.4250, 67.57080
222.6510, 56.45312
223.8770, 53.60352
225.1040, 52.88818
226.3290, 53.35889
227.5550, 69.40479
228.7810, 66.21289
230.0060, 80.58057
231.2310, 60.54492
232.4560, 83.32178
233.6810, 3.727539
234.9050, 2.175293
236.1290, 11.67725
237.3540, 27.23486
238.5770, 41.15039
239.8010, 75.49072
241.0250, 105.7798
242.2480, 74.01953
243.4710, 175.2114
244.6940, 177.3564
245.9170, 135.4380
247.1400, 252.4419
248.3620, 271.3550
249.5840, 243.1675
250.8060, 322.8618
252.0280, 321.3916
253.2500, 272.6602
254.4710, 417.7017
255.6920, 436.5479
256.9140, 448.2051
258.1340, 588.6646
259.3550, 534.5566
260.5760, 531.4595
261.7960, 487.1411
263.0160, 445.1328
264.2360, 391.0957
265.4560, 378.0439
266.6750, 400.9829
267.8940, 331.9287
269.1140, 344.8975
270.3330, 336.9414
271.5510, 283.0234
272.7700, 325.1836
273.9880, 366.4346
275.2070, 336.7524
276.4250, 394.1357
277.6420, 397.5947
278.8600, 341.0830
280.0770, 254.6055
281.2950, 323.1646
282.5120, 379.7715
283.7290, 397.3965
284.9450, 446.4111
286.1620, 389.2061
287.3780, 494.4614
288.5940, 527.6460
289.8100, 481.6851
291.0260, 586.5356
292.2410, 531.1680
293.4570, 518.5659
294.6720, 602.7139
295.8870, 561.5957
297.1010, 629.1982
298.3160, 629.5151
299.5300, 629.5527
300.7450, 670.3193
301.9590, 727.8003
303.1730, 718.9648
304.3860, 755.1689
305.6000, 769.4614
306.8130, 794.4800
308.0260, 784.3413
309.2390, 823.8887
310.4510, 815.1494
311.6640, 807.1460
312.8760, 836.9229
314.0880, 1052.476
315.3000, 964.8281
316.5120, 1125.549
317.7240, 1029.196
318.9350, 1171.190
320.1460, 1233.582
321.3570, 1262.710
322.5680, 1209.137
323.7790, 1457.403
324.9890, 1518.912
326.1990, 1473.824
327.4090, 1554.661
328.6190, 1593.111
329.8290, 1587.100
331.0380, 1728.722
332.2480, 1802.220
333.4570, 1803.701
334.6660, 1755.218
335.8740, 1798.521
337.0830, 1794.071
338.2910, 1776.913
339.5000, 1775.815
340.7080, 1876.107
341.9150, 1907.429
343.1230, 1947.872
344.3300, 1986.382
345.5380, 2030.867
346.7450, 2125.253
347.9520, 2205.696
349.1580, 2181.748
350.3650, 2303.330
351.5710, 2348.580
352.7770, 2522.377
353.9830, 2552.920
355.1890, 2805.173
356.3940, 2843.752
357.6000, 3003.003
358.8050, 3025.308
360.0100, 3167.570
361.2150, 3298.947
362.4190, 3473.429
363.6240, 3567.191
364.8280, 3725.269
366.0320, 3914.627
367.2360, 4001.713
368.4400, 4123.593
369.6430, 4237.749
370.8460, 4409.645
372.0500, 4699.388
373.2530, 4821.819
374.4550, 4953.534
375.6580, 5239.432
376.8600, 5225.668
378.0620, 5522.556
379.2650, 5760.523
380.4660, 5998.668
381.6680, 6315.365
382.8690, 6597.721
384.0710, 6938.876
385.2720, 7268.196
386.4730, 7637.980
387.6730, 8040.373
388.8740, 8441.053
390.0740, 8804.504
391.2740, 9213.853
392.4740, 9517.821
393.6740, 10192.18
394.8740, 10722.79
396.0730, 11102.65
397.2730, 11459.54
398.4720, 11775.44
399.6700, 12109.69
400.8690, 12305.90
402.0680, 12487.18
403.2660, 12559.11
404.4640, 12473.35
405.6620, 12226.40
406.8600, 12113.54
408.0570, 11471.69
409.2550, 11046.91
410.4520, 10595.19
411.6490, 9797.341
412.8460, 9430.729
414.0430, 8887.218
415.2390, 8538.771
416.4350, 7862.911
417.6310, 7266.021
418.8270, 6890.772
420.0230, 6515.001
421.2190, 5922.583
422.4140, 5499.096
423.6090, 5077.115
424.8040, 4622.262
425.9990, 4208.477
427.1940, 3862.671
428.3880, 3686.415
429.5820, 3322.523
430.7760, 3212.749
431.9700, 2934.320
433.1640, 2695.738
434.3580, 2501.170
435.5510, 2304.585
436.7440, 2222.952
437.9370, 1999.250
439.1300, 1950.556
440.3230, 1829.678
441.5150, 1707.728
442.7070, 1686.745
443.8990, 1655.732
445.0910, 1601.689
446.2830, 1572.617
447.4750, 1610.519
448.6660, 1617.394
449.8570, 1585.246
451.0480, 1674.074
452.2390, 1665.881
453.4290, 1873.667
454.6200, 1951.433
455.8100, 2090.181
457.0000, 2284.912
458.1900, 2451.627
459.3800, 2652.326
460.5690, 2915.013
461.7590, 3159.686
462.9480, 3341.349
464.1370, 3591.004
465.3260, 3824.653
466.5140, 4056.300
467.7030, 4201.943
468.8910, 4385.584
470.0790, 4665.222
471.2670, 4845.865
472.4550, 5170.507
473.6420, 5436.153
474.8300, 5665.801
476.0170, 5959.457
477.2040, 6301.116
478.3900, 6640.779
479.5770, 7004.448
480.7640, 7386.122
481.9500, 7645.798
483.1360, 7889.479
484.3220, 7868.165
485.5080, 7720.856
486.6930, 7419.550
487.8780, 6992.250
489.0640, 6728.955
490.2490, 5967.666
491.4330, 5582.379
492.6180, 4952.102
493.8030, 4308.829
494.9870, 3728.568
496.1710, 3188.319
497.3550, 2718.081
498.5390, 2363.857
499.7220, 1967.651
500.9060, 1784.461
502.0890, 1523.460
503.2720, 1287.301
504.4550, 1107.178
505.6370, 976.3594
506.8200, 846.2993
508.0020, 675.6182
509.1840, 664.6621
510.3660, 519.9146
511.5480, 467.2983
512.7290, 507.6060
513.9110, 365.8877
515.0920, 358.2012
516.2730, 287.6392
517.4540, 290.9863
518.6350, 212.3613
519.8150, 260.7803
520.9960, 207.2798
522.1760, 111.9966
523.3560, 64.65430
524.5350, 90.76807
525.7150, 130.5625
526.8950, 101.9619
528.0740, 74.66992
529.2530, 28.26025
530.4320, 72.87354
531.6100, 107.9053
532.7890, 36.73633
533.9670, 85.66016
535.1460, 16.76416
536.3240, 10.27051
537.5010, 6.755371
538.6790, 33.09277
539.8570, 92.16602
541.0340, 51.57324
542.2110, 6.063965
543.3880, 27.09619
544.5650, 54.57080
545.7410, 93.72900
546.9180, 73.45703
548.0940, 37.98584
549.2700, 39.65332
550.4460, 79.23535
551.6210, 45.55029
552.7970, 40.05615
553.9720, 99.57422
555.1480, 7.319824
556.3230, 9.056152
557.4970, 46.60352
558.6720, 13.59619
559.8460, 50.08789
561.0210, 7.088867
562.1950, 43.66211
563.3690, 41.48682
564.5420, 15.17578
565.7160, 2.023926
566.8890, 19.16260
568.0630, 84.31689
569.2360, 23.42432
570.4090, 5.276367
571.5810, 85.19434
572.7540, 38.32715
573.9260, 65.45508
575.0980, 52.57812
576.2700, 47.69678
577.4420, 49.99512
578.6140, 57.80273
579.7850, 47.12451
580.9560, 83.22900
582.1270, 105.3311
583.2980, 110.4312
584.4690, 177.5288
585.6400, 147.7109
586.8100, 187.8130
587.9800, 174.9150
589.1500, 266.2412
590.3200, 304.3438
591.4900, 419.4971
592.6590, 410.5923
593.8290, 440.7578
594.9980, 546.8467
596.1670, 579.9326
597.3360, 578.1084
598.5040, 629.2319
599.6730, 771.3232
600.8410, 720.4126
602.0090, 890.4985
603.1770, 969.5933
604.3450, 1055.687
605.5130, 1137.078
606.6800, 1116.878
607.8470, 1171.971
609.0140, 1225.060
610.1810, 1086.164
611.3480, 1168.245
612.5140, 1125.423
613.6810, 1095.507
614.8470, 998.5933
616.0130, 994.6748
617.1790, 989.7534
618.3440, 859.8291
619.5100, 802.9009
620.6750, 750.9683
621.8400, 732.0415
623.0050, 646.1201
624.1700, 574.2065
625.3350, 563.3003
626.4990, 503.7368
627.6640, 432.3501
628.8280, 444.5508
629.9920, 326.6216
631.1550, 294.6958
632.3190, 347.7637
633.4820, 293.8257
634.6460, 254.8931
635.8090, 303.9551
636.9710, 298.0098
638.1340, 131.0581
639.2970, 129.0996
640.4590, 141.1401
641.6210, 60.17334
642.7830, 147.1987
643.9450, 155.2192
645.1070, 35.23340
646.2680, 126.2446
647.4300, 26.24854
648.5910, 154.2412
649.7520, 65.23096
650.9130, 44.21289
652.0730, 72.18311
653.2340, 88.14160
654.3940, 90.27148
655.5540, 71.02588
656.7140, 102.9497
657.8740, 118.8623
659.0330, 106.7642
660.1930, 4.657227
661.3520, 52.52832
662.5110, 72.38574
663.6700, 68.83936
664.8290, 52.94385
665.9870, 10.71240
667.1460, 80.45996
668.3040, 131.1455
669.4620, 26.37646
670.6200, 16.74561
671.7770, 59.91260
672.9350, 39.33252
674.0920, 23.00537
675.2500, 31.31006
676.4070, 11.44238
677.5630, 102.4590
678.7200, 35.75195
679.8770, 102.5298
681.0330, 84.57080
682.1890, 35.74121
683.3450, 143.8931
684.5010, 23.79395
685.6560, 12.64697
686.8120, 85.13477
687.9670, 33.11914
689.1220, 19.53369
690.2770, 12.83105
691.4320, 47.89307
692.5870, 44.11035
693.7410, 81.91162
694.8950, 77.62256
696.0490, 30.23926
697.2030, 88.21924
698.3570, 55.69922
699.5110, 145.3789
700.6640, 66.75586
701.8170, 88.08154
702.9700, 49.08496
704.1230, 131.2197
705.2760, 83.04150
706.4290, 113.2212
707.5810, 70.62354
708.7330, 94.65869
709.8850, 12.25684
711.0370, 106.5620
712.1890, 177.7012
713.3400, 113.0020
714.4920, 184.2222
715.6430, 155.8047
716.7940, 71.99414
717.9450, 129.5469
719.0960, 118.6592
720.2460, 108.0215
721.3960, 176.6206
722.5470, 159.8203
723.6970, 77.55029
724.8460, 168.5181
725.9960, 174.1670
727.1460, 46.67773
728.2950, 110.8579
729.4440, 86.73096
730.5930, 128.6694
731.7420, 82.68848
732.8910, 130.6396
734.0390, 116.7905
735.1870, 79.00928
736.3360, 95.18604
737.4840, 157.8569
738.6310, 142.9141
739.7790, 163.7495
740.9260, 177.1006
742.0740, 214.7388
743.2210, 184.1743
744.3680, 145.9302
745.5150, 150.3140
746.6610, 161.9424
747.8080, 104.7983
748.9540, 132.5239
750.1000, 85.16992
751.2460, 168.1118
752.3920, 165.3765
753.5380, 159.0420
754.6830, 268.7910
755.8280, 190.9072
756.9730, 135.3872
758.1180, 145.1050
759.2630, 244.4082
760.4080, 177.9780
761.5520, 217.5112
762.6960, 146.0044
763.8410, 237.6055
764.9840, 262.9497
766.1280, 189.2754
767.2720, 232.5830
768.4150, 359.8892
769.5590, 300.2671
770.7020, 305.7441
771.8450, 384.7036
772.9870, 354.1660
774.1300, 387.4058
775.2720, 369.7026
776.4150, 359.8682
777.5570, 373.4897
778.6990, 340.7451
779.8400, 368.8496
780.9820, 359.7666
782.1230, 388.0347
783.2650, 348.6880
784.4060, 399.9453
785.5470, 371.4487
786.6870, 393.0400
787.8280, 320.4209
788.9680, 285.1768
790.1090, 211.9575
791.2490, 224.7837
792.3890, 251.5977
793.5280, 217.3096
794.6680, 239.9141
795.8070, 205.0020
796.9470, 251.4785
798.0860, 155.2192
799.2250, 157.9639
800.3630, 177.6675
801.5020, 157.8037
802.6410, 184.2681
803.7790, 159.1230
804.9170, 149.7231
806.0550, 172.3682
807.1930, 122.4233
808.3300, 188.6060
809.4680, 194.9771
810.6050, 105.8169
811.7420, 190.8867
812.8790, 72.58691
814.0160, 148.2354
815.1520, 49.69141
816.2890, 156.8574
817.4250, 177.3208
818.5610, 134.8062
819.6970, 150.9805
820.8330, 94.43311
821.9680, 101.3081
823.1040, 86.93652
824.2390, 58.81055
825.3740, 49.85010
826.5090, 30.23096
827.6440, 76.30420
828.7790, 98.53662
829.9130, 72.75049
831.0470, 86.14746
832.1810, 88.51123
833.3150, 47.66211
834.4490, 17.03418
835.5830, 1.266602
836.7160, 3.441895
837.8500, 68.16748
838.9830, 2.081543
840.1160, 11.84131
841.2480, 30.64062
842.3810, 33.48975
843.5140, 32.37109
844.6460, 53.62793
845.7780, 33.70850
846.9100, 54.43848
848.0420, 43.48291
849.1740, 28.50928
850.3050, 31.08643
851.4360, 9.503418
852.5680, 28.46729
853.6990, 10.32031
854.8290, 36.24219
855.9600, 20.14551
857.0910, 11.29346
858.2210, 48.88672
859.3510, 10.27295
860.4810, 1.453613
861.6110, 7.234375
862.7410, 8.008301
863.8700, 32.49658
865.0000, 127.2041
866.1290, 81.83887
867.2580, 58.51221
868.3870, 70.09375
869.5150, 20.73193
870.6440, 15.00195
871.7720, 22.14258
872.9000, 1.386230
874.0290, 22.92236
875.1560, 71.43994
876.2840, 32.05908
877.4120, 6.400391
878.5390, 13.16260
879.6660, 72.24414
880.7930, 2.634277
881.9200, 110.0020
883.0470, 34.35449
884.1740, 60.67139
885.3000, 74.99072
886.4260, 24.80615
887.5530, 14.53906
888.6780, 55.69824
889.8040, 30.91943
890.9300, 2.124023
892.0550, 85.30713
893.1810, 23.47656
894.3060, 34.37109
895.4310, 23.25830
896.5560, 39.17920
897.6800, 39.14111
898.8050, 25.85547
899.9290, 95.83691
901.0530, 168.8042
902.1770, 139.2271
903.3010, 23.30225
904.4250, 52.60596
905.5480, 23.50000
906.6720, 35.62109
907.7950, 16.22070
908.9180, 64.04688
910.0410, 44.86035
911.1630, 70.65918
912.2860, 17.55469
913.4080, 38.20508
914.5300, 26.95117
915.6530, 8.315918
916.7740, 18.51514
917.8960, 25.90527
919.0180, 9.764648
920.1390, 9.093750
921.2600, 15.93555
922.3820, 6.315918
923.5020, 46.28760
924.6230, 69.87939
925.7440, 62.46094
926.8640, 80.36230
927.9850, 60.59082
929.1050, 47.13916
930.2250, 58.67627
931.3450, 10.79736
932.4640, 56.71094
933.5840, 2.214844
934.7030, 25.70605
935.8220, 133.1870
936.9410, 70.68164
938.0600, 80.16748
939.1790, 34.64746
940.2970, 128.1172
941.4160, 58.42334
942.5340, 157.0093
943.6520, 92.44482
944.7700, 13.12842
945.8870, 178.2227
947.0050, 12.37158
948.1220, 38.17725
949.2400, 130.1924
950.3570, 130.2559
951.4740, 48.60986
952.5900, 13.95410
953.7070, 34.28955
954.8240, 86.61816
955.9400, 20.16650
957.0560, 54.06104
958.1720, 26.23584
959.2880, 111.2847
960.4030, 61.31201
961.5190, 122.2661
962.6340, 114.4072
963.7490, 134.6348
964.8640, 98.74854
965.9790, 93.91162
967.0940, 102.0771
968.2080, 101.0659
969.3230, 106.7627
970.4370, 157.7944
971.5510, 192.5269
972.6650, 222.3223
973.7790, 217.2852
974.8920, 254.5005
976.0060, 252.5361
977.1190, 159.4336
978.2320, 267.3613
979.3450, 215.3433
980.4580, 216.2461
981.5710, 250.2329
982.6830, 278.1704
983.7950, 216.0405
984.9080, 270.9185
986.0200, 294.3945
987.1310, 238.2544
988.2430, 300.7642
989.3550, 295.6514
990.4660, 302.4199
991.5770, 256.9727
992.6880, 345.9175
993.7990, 273.3237
994.9100, 305.4736
996.0200, 458.9258
997.1310, 360.4976
998.2410, 368.3833
999.3510, 294.5576
1000.461, 368.6484
1001.571, 424.6479
1002.681, 415.6958
1003.790, 466.0903
1004.899, 453.2241
1006.009, 505.0356
1007.118, 399.2974
1008.226, 413.1548
1009.335, 335.2295
1010.444, 393.4487
1011.552, 443.0361
1012.660, 472.4844
1013.768, 353.6006
1014.876, 476.0781
1015.984, 445.2935
1017.092, 531.2666
1018.199, 475.3511
1019.306, 472.4985
1020.413, 485.3315
1021.520, 388.8242
1022.627, 477.8994
1023.734, 445.8745
1024.840, 454.4697
1025.947, 427.6841
1027.053, 520.6431
1028.159, 353.0000
1029.265, 351.0718
1030.370, 466.1641
1031.476, 544.2788
1032.581, 422.2744
1033.687, 461.5083
1034.792, 473.7446
1035.897, 378.9839
1037.002, 456.2080
1038.106, 497.3438
1039.211, 447.3628
1040.315, 525.8823
1041.419, 413.8828
1042.523, 407.0898
1043.627, 479.2227
1044.731, 456.4697
1045.834, 520.2446
1046.938, 474.3691
1048.041, 403.4541
1049.144, 426.8848
1050.247, 505.9497
1051.349, 538.3306
1052.452, 536.3735
1053.555, 455.4214
1054.657, 508.5083
1055.759, 460.2148
1056.861, 502.4424
1057.963, 419.7437
1059.064, 550.0493
1060.166, 461.3589
1061.267, 523.6729
1062.368, 460.9453
1063.470, 520.2681
1064.570, 541.9131
1065.671, 522.2451
1066.772, 633.3633
1067.872, 568.6016
1068.972, 521.9688
1070.073, 603.3413
1071.173, 680.7188
1072.272, 578.0396
1073.372, 596.4268
1074.472, 724.3784
1075.571, 644.7759
1076.670, 723.1787
1077.769, 656.0122
1078.868, 700.4287
1079.967, 759.3433
1081.065, 780.7461
1082.164, 793.1802
1083.262, 866.6211
1084.360, 826.0679
1085.458, 885.4214
1086.556, 968.8701
1087.654, 905.3345
1088.751, 975.0322
1089.848, 1040.510
1090.946, 1077.966
1092.043, 997.4570
1093.139, 1110.955
1094.236, 1167.460
1095.333, 1097.972
1096.429, 1197.491
1097.525, 1103.017
1098.622, 1170.550
1099.718, 1182.089
1100.813, 1341.636
1101.909, 1233.192
1103.005, 1229.760
1104.100, 1315.346
1105.195, 1221.346
1106.290, 1342.975
1107.385, 1303.621
1108.480, 1250.288
1109.574, 1309.962
1110.669, 1353.621
1111.763, 1358.098
1112.857, 1394.812
1113.951, 1399.534
1115.045, 1396.636
1116.139, 1397.003
1117.232, 1391.748
1118.326, 1426.513
1119.419, 1453.286
1120.512, 1557.068
1121.605, 1571.857
1122.697, 1578.794
1123.790, 1439.431
1124.883, 1569.564
1125.975, 1513.402
1127.067, 1431.675
1128.159, 1473.527
1129.251, 1449.170
1130.342, 1410.043
1131.434, 1361.924
1132.525, 1463.500
1133.617, 1531.395
1134.708, 1320.295
1135.799, 1392.212
1136.889, 1505.136
1137.980, 1420.786
1139.071, 1430.738
1140.161, 1349.901
1141.251, 1331.450
1142.341, 1381.114
1143.431, 1299.967
1144.521, 1275.474
1145.610, 1298.984
1146.700, 1416.013
1147.789, 1251.560
1148.878, 1309.601
1149.967, 1106.655
1151.056, 1259.714
1152.144, 1219.791
1153.233, 1222.057
1154.321, 1186.151
1155.409, 1224.534
1156.498, 1089.643
1157.585, 1064.758
1158.673, 1072.879
1159.761, 1091.018
1160.848, 1119.171
1161.936, 1002.345
1163.023, 1012.692
1164.110, 905.8896
1165.197, 951.0918
1166.283, 983.6069
1167.370, 936.8198
1168.456, 958.0459
1169.542, 933.0044
1170.629, 927.1489
1171.714, 862.7725
1172.800, 879.0342
1173.886, 797.3008
1174.971, 781.5762
1176.057, 643.8496
1177.142, 735.1372
1178.227, 707.4307
1179.312, 709.7300
1180.397, 604.3726
1181.481, 574.6855
1182.566, 557.0117
1183.650, 493.3828
1184.734, 512.0327
1185.818, 441.0293
1186.902, 477.3843
1187.986, 508.7441
1189.069, 375.1094
1190.153, 397.4785
1191.236, 489.8521
1192.319, 292.2319
1193.402, 304.6187
1194.485, 394.0044
1195.567, 262.4102
1196.650, 221.8076
1197.732, 202.9185
1198.814, 297.4780
1199.896, 276.9927
1200.978, 245.4062
1202.060, 125.8228
1203.142, 202.2432
1204.223, 155.6670
1205.304, 104.1094
1206.386, 166.5547
1207.467, 75.00391
1208.547, 123.1494
1209.628, 127.6074
1210.709, 66.07178
1211.789, 81.54736
1212.869, 92.02686
1213.950, 44.50879
1215.030, 32.99316
1216.109, 105.4814
1217.189, 51.97266
1218.269, 40.46631
1219.348, 47.96631
1220.427, 5.469727
1221.506, 77.97510
1222.585, 54.48486
1223.664, 103.9966
1224.743, 36.51123
1225.821, 67.02783
1226.899, 49.86084
1227.978, 29.15869
1229.056, 48.68262
1230.134, 58.20801
1231.211, 114.7363
1232.289, 49.06982
1233.366, 38.93604
1234.444, 67.52930
1235.521, 69.97705
1236.598, 37.97070
1237.675, 35.47998
1238.751, 98.99219
1239.828, 42.61621
1240.904, 39.04443
1241.981, 49.45166
1243.057, 96.93311
1244.133, 45.49072
1245.209, 25.97461
1246.284, 107.4585
1247.360, 61.04785
1248.435, 38.53271
1249.510, 35.01855
1250.585, 14.50391
1251.660, 3.860840
1252.735, 51.36914
1253.810, 42.89307
1254.884, 1.545898
1255.959, 9.766113
1257.033, 38.69385
1258.107, 15.87354
1259.181, 6.664551
1260.255, 54.08936
1261.328, 30.48682
1262.402, 39.09766
1263.475, 42.54004
1264.548, 54.57959
1265.621, 11.99609
1266.694, 28.58740
1267.767, 34.81152
1268.840, 51.76465
1269.912, 32.39502
1270.984, 36.00146
1272.056, 29.43506
1273.129, 22.93408
1274.200, 22.63867
1275.272, 26.74561
1276.344, 5.753906
1277.415, 125.5181
1278.486, 52.28711
1279.558, 97.55957
1280.629, 23.83057
1281.699, 2.098145
1282.770, 73.36328
1283.841, 16.37451
1284.911, 63.87549
1285.981, 38.12402
1287.051, 90.39844
1288.121, 34.64209
1289.191, 83.94824
1290.261, 58.18652
1291.330, 12.56885
1292.400, 98.66113
1293.469, 54.88965
1294.538, 2.114746
1295.607, 46.33252
1296.676, 60.54785
1297.745, 90.83252
1298.813, 61.18506
1299.881, 55.38965
1300.950, 139.5913
1302.018, 38.78955
1303.086, 43.98340
1304.154, 146.1724
1305.221, 107.3564
1306.289, 139.5381
1307.356, 63.71240
1308.423, 4.880859
1309.490, 51.04102
1310.557, 146.1958
1311.624, 129.4263
1312.691, 126.9004
1313.757, 133.4033
1314.823, 114.0269
1315.890, 95.17139
1316.956, 91.43115
1318.022, 88.55908
1319.087, 86.89844
1320.153, 47.78320
1321.219, 47.87939
1322.284, 82.97217
1323.349, 47.06104
1324.414, 104.1470
1325.479, 29.77441
1326.544, 20.71094
1327.608, 27.33984
1328.673, 146.3857
1329.737, 116.4277
1330.801, 109.4985
1331.865, 130.5337
1332.929, 64.56445
1333.993, 94.59082
1335.057, 85.61328
1336.120, 4.630859
1337.183, 140.6343
1338.247, 103.6343
1339.310, 59.62549
1340.373, 121.6084
1341.435, 71.58496
1342.498, 139.5576
1343.560, 177.6162
1344.623, 84.56738
1345.685, 178.5132
1346.747, 69.45361
1347.809, 132.4297
1348.871, 227.3584
1349.932, 65.70557
1350.994, 232.6240
1352.055, 100.5366
1353.116, 71.46533
1354.177, 89.35645
1355.238, 45.24316
1356.299, 77.33936
1357.359, 124.2026
1358.420, 90.06201
1359.480, 82.90625
1360.540, 0.8916020
1361.600, 132.1733
1362.660, 80.61426
1363.720, 12.43311
1364.780, 114.2446
1365.839, 76.54053
1366.898, 4.341797
1367.958, 50.17529
1369.017, 63.19238
1370.076, 144.9722
1371.134, 49.75684
1372.193, 127.6616
1373.251, 153.4268
1374.310, 16.72510
1375.368, 116.0200
1376.426, 210.7593
1377.484, 142.4927
1378.542, 175.3291
1379.599, 33.91309
1380.657, 64.81445
1381.714, 80.25830
1382.771, 17.95801
1383.828, 61.22900
1384.885, 82.92529
1385.942, 40.83984
1386.999, 87.52637
1388.055, 84.20752
1389.111, 25.26367
1390.168, 60.57031
1391.224, 11.76318
1392.280, 136.7686
1393.335, 107.4185
1394.391, 92.35498
1395.446, 63.99072
1396.502, 89.41846
1397.557, 18.03809
1398.612, 49.09863
1399.667, 8.748535
1400.722, 65.35889
1401.776, 36.46484
1402.831, 13.04980
1403.885, 73.22266
1404.939, 14.88232
1405.994, 85.34521
1407.048, 143.9067
1408.101, 65.46533
1409.155, 74.02637
1410.209, 102.5771
1411.262, 85.11182
1412.315, 172.7876
1413.368, 57.32910
1414.421, 136.8657
1415.474, 49.38477
1416.527, 82.85596
1417.579, 107.4375
1418.632, 79.76123
1419.684, 122.2681
1420.736, 81.77295
1421.788, 123.9019
1422.840, 124.3008
1423.891, 50.69141
1424.943, 34.06543
1425.994, 116.4116
1427.046, 130.0303
1428.097, 109.3501
1429.148, 137.5439
1430.199, 114.7041
1431.249, 95.83350
1432.300, 69.92822
1433.350, 162.0166
1434.401, 109.9985
1435.451, 96.75537
1436.501, 116.8091
1437.551, 52.00977
1438.601, 48.15430
1439.650, 107.8940
1440.700, 57.32910
1441.749, 63.34375
1442.798, 42.05127
1443.847, 88.74707
1444.896, 109.4243
1445.945, 85.94189
1446.993, 77.45508
1448.042, 105.0718
1449.090, 97.67676
1450.138, 118.2725
1451.187, 134.8667
1452.234, 161.6572
1453.282, 136.2144
1454.330, 156.7612
1455.377, 78.29688
1456.425, 64.82178
1457.472, 90.33398
1458.519, 100.8330
1459.566, 162.3218
1460.613, 144.6885
1461.660, 123.1519
1462.706, 153.1953
1463.752, 124.6362
1464.799, 120.5894
1465.845, 129.7749
1466.891, 106.0952
1467.937, 149.1504
1468.982, 51.85693
1470.028, 215.4595
1471.073, 199.8306
1472.119, 208.9780
1473.164, 62.35107
1474.209, 157.3682
1475.254, 3.607422
1476.299, 107.9995
1477.343, 133.0981
1478.388, 64.07861
1479.432, 133.4102
1480.476, 177.7256
1481.520, 22.70508
1482.564, 137.3149
1483.608, 160.2529
1484.651, 118.3198
1485.695, 35.70850
1486.738, 8.9844003E-02
1487.782, 73.47314
1488.825, 153.8057
1489.868, 180.0688
1490.910, 0.5815430
1491.953, 88.76514
1492.996, 85.10645
1494.038, 94.31543
1495.080, 94.38623
1496.122, 71.70801
1497.164, 42.02930
1498.206, 165.3501
1499.248, 53.67920
1500.290, 174.0205
1501.331, 103.0186
1502.372, 91.23535
1503.413, 50.21143
1504.455, 196.5122
1505.495, 73.89307
1506.536, 65.26270
1507.577, 176.6284
1508.617, 85.99023
1509.658, 167.3403
1510.698, 125.6050
1511.738, 104.9321
1512.778, 129.2515
1513.818, 63.59326
1514.857, 1.044434
1515.897, 152.3271
1516.936, 20.51758
1517.975, 106.9092
1519.015, 101.2246
1520.054, 133.4375
1521.092, 187.7847
1522.131, 126.2549
1523.170, 91.09668
1524.208, 63.65625
1525.246, 189.2939
1526.285, 156.8428
1527.323, 118.7041
1528.361, 62.21729
1529.398, 24.74219
1530.436, 2.728516
1531.473, 114.9043
1532.511, 224.4272
1533.548, 46.51709
1534.585, 151.0059
1535.622, 35.32471
1536.659, 61.86865
1537.695, 189.4238
1538.732, 163.6382
1539.768, 151.8193
1540.805, 113.8008
1541.841, 20.27051
1542.877, 84.62939
1543.913, 76.90625
1544.948, 76.74707
1545.984, 170.8496
1547.019, 182.0186
1548.055, 114.1201
1549.090, 136.3818
1550.125, 153.0425
1551.160, 33.84180
1552.195, 106.9565
1553.229, 153.3228
1554.264, 83.44727
1555.298, 90.16113
1556.332, 86.84229
1557.366, 44.97705
1558.400, 70.91113
1559.434, 18.95850
1560.468, 15.88672
1561.502, 0.3237300
1562.535, 0.0000000E+00
##END=



