##NAMES=Hubnerite
##RRUFFID=R050069
##IDEAL CHEMISTRY=Mn^2+^W^6+^O_4_
##LOCALITY=Yaogangxian, Yizhang County, Hunan Province, China
##OWNER=RRUFF
##SOURCE=Rock Currier
##DESCRIPTION=Black colored prismatic single crystal
##STATUS=The identification of this mineral has been confirmed by X-ray diffraction and chemical analysis
##URL=rruff.info/R050069
##MEASURED CHEMISTRY=(Mn_0.68_Fe_0.32_)W_1.00_O_4_
##PIN_ID=L00498
##ORIENTATION=Laser parallel to c* (0 0 1). Fiducial mark perpendicular to laser is parallel to a [1 0 0]
151.324, 0.000
152.710, 31.717
154.096, 58.141
155.481, 17.103
156.866, 1.014
158.251, 26.531
159.636, 32.793
161.020, 37.515
162.405, 55.535
163.789, 50.308
165.172, 78.531
166.556, 108.533
167.939, 165.704
169.322, 94.450
170.705, 98.867
172.088, 43.053
173.470, 24.471
174.853, 22.555
176.234, 4.255
177.616, 21.511
178.998, 31.589
180.379, 2.938
181.760, 49.138
183.141, 26.184
184.521, 36.169
185.902, 1.137
187.282, 35.904
188.662, 51.682
190.042, 42.287
191.421, 59.041
192.800, 36.892
194.179, 59.064
195.558, 114.990
196.937, 96.297
198.315, 128.180
199.693, 154.345
201.071, 183.506
202.449, 184.434
203.826, 273.756
205.203, 305.370
206.580, 360.823
207.957, 336.129
209.333, 267.531
210.710, 235.511
212.086, 157.341
213.462, 124.107
214.837, 85.247
216.213, 45.742
217.588, 67.359
218.963, 40.025
220.337, 49.526
221.712, 18.351
223.086, 31.686
224.460, 1.431
225.834, 19.393
227.207, 23.480
228.581, 22.791
229.954, 46.550
231.327, 58.911
232.699, 37.669
234.072, 29.572
235.444, 30.007
236.816, 40.067
238.188, 31.745
239.559, 29.284
240.931, 46.210
242.302, 19.936
243.673, 9.739
245.043, 32.628
246.414, 17.429
247.784, 25.194
249.154, 30.720
250.523, 54.125
251.893, 41.344
253.262, 36.237
254.631, 119.950
256.000, 187.470
257.369, 233.262
258.737, 328.631
260.105, 309.990
261.473, 317.464
262.841, 210.017
264.208, 197.274
265.576, 132.470
266.943, 79.640
268.310, 80.778
269.676, 62.879
271.042, 41.933
272.409, 39.946
273.775, 42.925
275.140, 29.872
276.506, 36.792
277.871, 51.676
279.236, 1.523
280.601, 46.329
281.965, 19.896
283.330, 38.845
284.694, 23.555
286.058, 0.753
287.421, 1.061
288.785, 5.712
290.148, 45.264
291.511, 7.900
292.874, 17.637
294.236, 38.383
295.599, 1.110
296.961, 8.692
298.323, 37.341
299.684, 20.952
301.046, 5.403
302.407, 12.143
303.768, 32.773
305.129, 27.632
306.489, 5.813
307.850, 6.258
309.210, 0.900
310.570, 0.287
311.929, 0.058
313.289, 7.553
314.648, 7.962
316.007, 10.750
317.366, 35.579
318.724, 39.133
320.083, 39.581
321.441, 64.920
322.799, 23.117
324.156, 41.254
325.514, 73.197
326.871, 84.994
328.228, 54.652
329.585, 54.250
330.941, 56.660
332.298, 76.919
333.654, 32.348
335.010, 20.482
336.365, 68.524
337.721, 45.349
339.076, 57.138
340.431, 54.282
341.786, 55.742
343.140, 54.358
344.495, 66.227
345.849, 70.749
347.203, 68.203
348.556, 81.510
349.910, 74.554
351.263, 96.796
352.616, 118.982
353.969, 96.011
355.321, 101.173
356.674, 137.148
358.026, 123.190
359.378, 141.230
360.729, 96.323
362.081, 123.335
363.432, 133.261
364.783, 161.189
366.134, 132.003
367.484, 148.815
368.835, 145.537
370.185, 112.210
371.535, 120.875
372.884, 119.278
374.234, 143.027
375.583, 142.550
376.932, 154.005
378.281, 178.307
379.630, 176.406
380.978, 189.391
382.326, 208.255
383.674, 226.032
385.022, 253.517
386.369, 292.082
387.717, 355.842
389.064, 399.102
390.411, 475.442
391.757, 698.643
393.104, 919.202
394.450, 1367.874
395.796, 1992.506
397.141, 2752.919
398.487, 3185.560
399.832, 3011.361
401.177, 2552.388
402.522, 1743.816
403.867, 1363.995
405.211, 998.892
406.555, 748.727
407.899, 636.830
409.243, 505.023
410.587, 422.830
411.930, 331.792
413.273, 328.907
414.616, 294.879
415.959, 229.641
417.301, 258.737
418.644, 193.229
419.986, 203.080
421.327, 182.557
422.669, 171.547
424.010, 187.998
425.351, 152.772
426.692, 132.795
428.033, 137.055
429.374, 129.089
430.714, 142.334
432.054, 104.721
433.394, 147.975
434.733, 97.782
436.073, 122.641
437.412, 105.226
438.751, 126.651
440.090, 151.358
441.428, 107.177
442.767, 130.790
444.105, 140.377
445.443, 78.151
446.780, 140.101
448.118, 106.049
449.455, 97.863
450.792, 121.275
452.129, 90.766
453.465, 95.777
454.802, 93.575
456.138, 105.966
457.474, 105.540
458.809, 82.860
460.145, 100.199
461.480, 90.536
462.815, 58.456
464.150, 69.438
465.485, 77.681
466.819, 63.938
468.153, 48.736
469.487, 55.877
470.821, 53.128
472.155, 61.890
473.488, 57.401
474.821, 64.171
476.154, 73.939
477.487, 34.734
478.819, 64.100
480.151, 61.189
481.483, 39.251
482.815, 62.450
484.147, 47.286
485.478, 66.275
486.809, 70.424
488.140, 65.597
489.471, 54.616
490.802, 70.608
492.132, 84.587
493.462, 25.627
494.792, 68.363
496.122, 37.934
497.451, 46.867
498.780, 32.645
500.109, 26.487
501.438, 73.301
502.767, 39.101
504.095, 57.874
505.423, 48.682
506.751, 23.488
508.079, 53.264
509.406, 12.076
510.734, 27.840
512.061, 30.679
513.388, 37.591
514.714, 17.390
516.041, 17.191
517.367, 15.125
518.693, 36.981
520.019, 12.895
521.344, 19.602
522.670, 23.405
523.995, 16.636
525.320, 25.798
526.644, 18.892
527.969, 31.730
529.293, 35.542
530.617, 30.199
531.941, 59.876
533.265, 16.533
534.588, 5.727
535.911, 31.985
537.234, 19.699
538.557, 14.397
539.880, 46.082
541.202, 21.752
542.524, 42.410
543.846, 28.054
545.168, 37.688
546.489, 48.310
547.811, 38.923
549.132, 17.526
550.453, 41.119
551.773, 8.701
553.094, 6.271
554.414, 1.829
555.734, 3.372
557.054, 1.098
558.374, 2.582
559.693, 42.919
561.012, 0.411
562.331, 26.889
563.650, 20.358
564.968, 3.818
566.287, 5.269
567.605, 1.291
568.923, 9.863
570.240, 7.549
571.558, 14.951
572.875, 18.344
574.192, 9.272
575.509, 7.904
576.825, 17.447
578.142, 34.213
579.458, 10.096
580.774, 5.606
582.090, 5.676
583.405, 3.052
584.721, 7.795
586.036, 9.446
587.351, 5.677
588.665, 18.106
589.980, 5.903
591.294, 6.822
592.608, 16.643
593.922, 0.621
595.236, 31.501
596.549, 28.483
597.862, 11.599
599.175, 29.302
600.488, 14.671
601.801, 30.740
603.113, 3.185
604.425, 26.330
605.737, 2.283
607.049, 0.333
608.361, 22.584
609.672, 18.605
610.983, 22.496
612.294, 11.592
613.605, 15.303
614.915, 40.248
616.225, 21.807
617.536, 21.030
618.845, 9.938
620.155, 13.180
621.464, 13.566
622.774, 12.359
624.083, 2.814
625.391, 52.953
626.700, 15.659
628.008, 47.398
629.317, 6.871
630.625, 8.898
631.932, 44.653
633.240, 9.439
634.547, 17.269
635.854, 9.076
637.161, 40.711
638.468, 19.487
639.774, 6.171
641.081, 39.952
642.387, 2.672
643.693, 48.472
644.998, 29.290
646.304, 26.087
647.609, 40.840
648.914, 61.660
650.219, 50.541
651.523, 43.145
652.828, 16.961
654.132, 42.654
655.436, 55.385
656.740, 98.060
658.043, 96.695
659.346, 73.544
660.650, 111.252
661.952, 113.042
663.255, 139.796
664.558, 148.429
665.860, 169.207
667.162, 209.649
668.464, 223.327
669.766, 271.019
671.067, 299.743
672.368, 303.337
673.669, 408.935
674.970, 357.502
676.271, 422.235
677.571, 474.770
678.871, 462.427
680.171, 573.113
681.471, 549.750
682.771, 653.453
684.070, 738.126
685.369, 783.862
686.668, 967.616
687.967, 1029.353
689.266, 1275.222
690.564, 1473.915
691.862, 1713.696
693.160, 2200.466
694.458, 2347.196
695.755, 2842.907
697.053, 3078.764
698.350, 3239.525
699.646, 3266.469
700.943, 3064.181
702.240, 2916.029
703.536, 2534.927
704.832, 2074.794
706.128, 1919.577
707.423, 1452.465
708.719, 1314.198
710.014, 1050.873
711.309, 832.368
712.604, 824.958
713.898, 683.306
715.193, 596.578
716.487, 497.520
717.781, 414.018
719.075, 438.911
720.368, 304.784
721.662, 331.512
722.955, 273.303
724.248, 223.785
725.541, 239.745
726.833, 174.604
728.125, 181.504
729.418, 193.426
730.709, 172.504
732.001, 153.686
733.293, 91.631
734.584, 105.201
735.875, 125.132
737.166, 81.538
738.457, 93.468
739.747, 67.063
741.037, 98.395
742.327, 93.369
743.617, 63.335
744.907, 90.088
746.196, 66.612
747.486, 44.102
748.775, 89.014
750.063, 65.890
751.352, 79.917
752.640, 63.158
753.929, 82.233
755.217, 68.473
756.504, 23.583
757.792, 62.387
759.079, 130.584
760.367, 95.115
761.654, 116.068
762.940, 110.129
764.227, 190.294
765.513, 155.465
766.799, 267.644
768.085, 279.499
769.371, 320.651
770.657, 335.601
771.942, 403.645
773.227, 406.860
774.512, 436.084
775.797, 400.692
777.081, 428.931
778.365, 430.178
779.650, 288.351
780.933, 289.615
782.217, 258.887
783.501, 266.168
784.784, 224.243
786.067, 221.541
787.350, 184.848
788.633, 184.163
789.915, 162.417
791.197, 148.270
792.479, 134.884
793.761, 127.233
795.043, 132.592
796.324, 126.960
797.606, 119.935
798.887, 114.086
800.167, 98.116
801.448, 94.518
802.728, 72.930
804.009, 63.350
805.289, 55.780
806.568, 94.218
807.848, 62.666
809.128, 31.123
810.407, 128.589
811.686, 53.065
812.965, 115.551
814.243, 85.045
815.522, 73.549
816.800, 94.062
818.078, 76.585
819.355, 143.118
820.633, 112.660
821.910, 93.215
823.188, 157.779
824.465, 147.353
825.741, 178.936
827.018, 146.530
828.294, 171.135
829.570, 192.750
830.846, 196.376
832.122, 243.013
833.398, 268.662
834.673, 260.324
835.948, 297.001
837.223, 302.691
838.498, 352.394
839.772, 364.112
841.047, 375.840
842.321, 432.027
843.595, 475.844
844.868, 502.601
846.142, 620.372
847.415, 633.858
848.688, 747.733
849.961, 818.607
851.234, 921.039
852.507, 1079.283
853.779, 1081.116
855.051, 1396.322
856.323, 1405.175
857.595, 1598.667
858.866, 1905.539
860.137, 1950.458
861.409, 2349.351
862.679, 2616.365
863.950, 2731.743
865.221, 3249.672
866.491, 3412.617
867.761, 3995.574
869.031, 4534.545
870.301, 4971.639
871.570, 6119.635
872.839, 6837.656
874.109, 8294.038
875.377, 10061.069
876.646, 11611.242
877.915, 15451.298
879.183, 19011.398
880.451, 23901.814
881.719, 31812.244
882.987, 37802.684
884.254, 45982.793
885.521, 47622.922
886.788, 43623.074
888.055, 40013.227
889.322, 29523.395
890.588, 23633.576
891.855, 18313.762
893.121, 13543.996
894.387, 11444.210
895.652, 8473.432
896.918, 7018.071
898.183, 5842.318
899.448, 4586.580
900.713, 4169.851
901.978, 3373.137
903.242, 2858.434
904.506, 2661.749
905.771, 2035.081
907.034, 1939.422
908.298, 1700.779
909.562, 1496.145
910.825, 1425.521
912.088, 1154.907
913.351, 1190.309
914.613, 1064.720
915.876, 953.141
917.138, 888.571
918.400, 775.010
919.662, 722.457
920.924, 710.917
922.185, 621.385
923.447, 602.861
924.708, 575.350
925.969, 458.848
927.229, 487.355
928.490, 452.872
929.750, 444.398
931.010, 383.931
932.270, 365.473
933.530, 390.023
934.789, 358.581
936.048, 368.147
937.308, 318.722
938.566, 308.248
939.825, 284.895
941.084, 269.493
942.342, 240.098
943.600, 227.713
944.858, 210.334
946.116, 202.504
947.373, 185.601
948.630, 191.245
949.888, 207.896
951.144, 194.555
952.401, 196.220
953.658, 160.893
954.914, 123.572
956.170, 164.259
957.426, 146.952
958.682, 102.653
959.937, 103.360
961.193, 94.074
962.448, 129.795
963.703, 125.522
964.957, 128.256
966.212, 122.763
967.466, 114.015
968.720, 108.530
969.974, 94.321
971.228, 86.087
972.482, 81.133
973.735, 62.912
974.988, 93.697
976.241, 59.488
977.494, 29.284
978.746, 62.226
979.999, 33.125
981.251, 45.944
982.503, 71.051
983.755, 60.107
985.006, 31.667
986.258, 19.693
987.509, 30.939
988.760, 59.641
990.011, 21.558
991.261, 43.416
992.512, 15.722
993.762, 29.859
995.012, 39.000
996.262, 8.863
997.511, 42.193
998.761, 4.115
1000.010, 29.028
1001.259, 18.856
1002.508, 13.948
1003.756, 12.907
1005.005, 12.233
1006.253, 8.626
1007.501, 18.509
1008.749, 8.354
1009.996, 1.699
1011.244, 2.423
1012.491, 4.448
1013.738, 13.643
1014.985, 7.247
1016.232, 3.382
1017.478, 39.437
1018.724, 16.348
1019.970, 26.624
1021.216, 5.533
1022.462, 0.406
1023.707, 9.685
1024.953, 1.220
1026.198, 3.210
1027.443, 11.286
1028.687, 0.177
1029.932, 7.908
1031.176, 7.991
1032.420, 7.720
1033.664, 35.897
1034.908, 6.107
1036.152, 16.031
1037.395, 27.957
1038.638, 13.884
1039.881, 6.815
1041.124, 36.748
1042.366, 0.682
1043.609, 24.617
1044.851, 51.671
1046.093, 7.912
1047.335, 36.024
1048.576, 26.223
1049.818, 49.161
1051.059, 37.101
1052.300, 35.390
1053.541, 72.426
1054.781, 39.400
1056.022, 38.345
1057.262, 56.292
1058.502, 62.340
1059.742, 49.481
1060.981, 21.434
1062.221, 45.601
1063.460, 80.554
1064.699, 35.644
1065.938, 93.830
1067.177, 76.784
1068.415, 53.860
1069.653, 40.073
1070.891, 23.026
1072.129, 36.204
1073.367, 72.932
1074.604, 70.074
1075.842, 80.027
1077.079, 89.062
1078.316, 61.019
1079.553, 81.971
1080.789, 47.948
1082.025, 78.023
1083.262, 79.973
1084.498, 43.969
1085.733, 53.955
1086.969, 68.901
1088.204, 41.849
1089.439, 65.794
1090.674, 50.739
1091.909, 19.760
1093.144, 64.700
1094.378, 28.674
1095.612, 36.611
1096.846, 41.547
1098.080, 28.490
1099.314, 59.422
1100.547, 47.636
1101.781, 46.281
1103.014, 55.208
1104.247, 32.150
1105.479, 56.089
1106.712, 53.011
1107.944, 59.931
1109.176, 25.848
1110.408, 19.763
1111.640, 37.717
1112.871, 27.630
1114.102, 28.541
1115.334, 43.449
1116.565, 8.355
1117.795, 35.258
1119.026, 52.163
1120.256, 3.066
1121.486, 41.963
1122.716, 22.854
1123.946, 18.741
1125.176, 19.626
1126.405, 7.508
1127.634, 9.386
1128.863, 14.258
1130.092, 4.128
1131.321, 5.622
1132.549, 3.149
1133.778, 10.301
1135.006, 2.534
1136.233, 4.638
1137.461, 7.821
1138.689, 21.983
1139.916, 21.784
1141.143, 39.131
1142.370, 32.640
1143.597, 25.645
1144.823, 11.431
1146.050, 5.508
1147.276, 5.539
1148.502, 2.908
1149.727, 10.055
1150.953, 14.397
1152.178, 17.153
1153.404, 24.585
1154.629, 22.429
1155.853, 18.683
1157.078, 8.841
1158.302, 4.825
1159.527, 5.162
1160.751, 6.453
1161.975, 15.586
1163.198, 11.707
1164.422, 7.994
1165.645, 15.073
1166.868, 9.782
1168.091, 11.948
1169.314, 7.250
1170.536, 16.430
1171.759, 23.740
1172.981, 11.620
1174.203, 18.881
1175.424, 7.175
1176.646, 30.408
1177.867, 27.144
1179.089, 29.374
1180.310, 14.635
1181.530, 5.277
1182.751, 23.963
1183.971, 26.594
1185.192, 55.174
1186.412, 33.945
1187.632, 40.607
1188.851, 27.164
1190.071, 30.737
1191.290, 13.285
1192.509, 1.826
1193.728, 36.973
1194.947, 7.500
1196.165, 33.042
1197.384, 38.624
1198.602, 5.203
1199.820, 15.805
1201.037, 20.421
1202.255, 36.046
1203.472, 51.598
1204.690, 16.217
1205.907, 11.688
1207.124, 27.300
1208.340, 11.031
1209.557, 53.064
1210.773, 15.543
1211.989, 11.073
1213.205, 47.531
1214.421, 17.010
1215.636, 10.442
1216.851, 51.853
1218.067, 47.259
1219.281, 51.682
1220.496, 14.173
1221.711, 59.740
1222.925, 21.181
1224.139, 32.618
1225.353, 56.987
1226.567, 28.350
1227.781, 18.737
1228.994, 57.088
1230.207, 25.506
1231.421, 26.878
1232.633, 48.211
1233.846, 35.671
1235.059, 43.992
1236.271, 36.306
1237.483, 23.621
1238.695, 60.925
1239.907, 29.225
1241.118, 51.519
1242.330, 56.808
1243.541, 36.093
1244.752, 42.373
1245.963, 56.647
1247.173, 38.916
1248.384, 43.181
1249.594, 35.440
1250.804, 35.943
1252.014, 44.192
1253.223, 56.436
1254.433, 54.674
1255.642, 69.907
1256.851, 31.157
1258.060, 45.967
1259.269, 44.184
1260.478, 57.400
1261.686, 51.607
1262.894, 54.746
1264.102, 41.026
1265.310, 41.218
1266.518, 41.300
1267.725, 69.481
1268.932, 93.657
1270.139, 49.817
1271.346, 75.997
1272.553, 59.002
1273.759, 73.047
1274.966, 74.297
1276.172, 55.003
1277.378, 78.940
1278.583, 73.320
1279.789, 82.231
1280.994, 46.034
1282.200, 50.262
1283.405, 52.275
1284.609, 61.345
1285.814, 69.946
1287.018, 67.386
1288.223, 86.691
1289.427, 58.749
1290.631, 52.722
1291.834, 38.551
1293.038, 39.786
1294.241, 56.535
1295.444, 63.515
1296.647, 72.545
1297.850, 40.569
1299.053, 18.589
1300.255, 19.604
1301.457, 3.331
1302.659, 11.439
1303.861, 0.683
1305.063, 6.055
1306.264, 12.184
1307.466, 45.155
1308.667, 35.878
1309.868, 3.005
1311.068, 31.965
1312.269, 3.209
1313.469, 28.550
1314.669, 26.522
1315.869, 29.452
1317.069, 40.382
1318.269, 39.788
1319.468, 2.972
1320.668, 44.901
1321.867, 1.198
1323.066, 9.303
1324.264, 40.582
1325.463, 21.413
1326.661, 15.008
1327.859, 20.877
1329.057, 31.740
1330.255, 7.598
1331.452, 15.448
1332.650, 49.293
1333.847, 21.158
1335.044, 40.990
1336.241, 45.701
1337.438, 28.039
1338.634, 35.852
1339.830, 27.398
1341.027, 18.200
1342.222, 18.026
1343.418, 13.971
1344.614, 12.135
1345.809, 10.884
1347.004, 17.649
1348.199, 10.431
1349.394, 37.060
1350.589, 9.616
1351.783, 2.353
1352.978, 4.128
1354.172, 23.600
1355.365, 14.186
1356.559, 24.670
1357.753, 18.380
1358.946, 27.964
1360.139, 32.405
1361.332, 39.101
1362.525, 24.791
1363.718, 12.477
1364.910, 5.969
1366.102, 16.646
1367.294, 16.236
1368.486, 66.900
1369.678, 44.565
1370.869, 22.202
1372.061, 44.838
1373.252, 14.496
1374.443, 21.106
1375.634, 34.724
1376.824, 8.360
1378.015, 32.983
1379.205, 33.599
1380.395, 27.419
1381.585, 63.277
1382.775, 59.161
1383.964, 30.029
1385.153, 39.898
1386.343, 28.742
1387.531, 45.576
1388.720, 49.418
1389.909, 63.209
1391.097, 52.029
1392.285, 39.841
1393.473, 0.639
1394.661, 51.426
1395.849, 65.214
1397.037, 35.994
1398.224, 35.769
1399.411, 22.538
1400.598, 5.693
1401.785, 35.086
1402.971, 26.875
1404.158, 47.664
1405.344, 50.445
1406.530, 11.219
1407.716, 37.982
1408.901, 3.748
1410.087, 46.508
1411.272, 53.927
1412.457, 25.428
1413.642, 16.885
1414.827, 46.312
1416.012, 24.485
1417.196, 33.187
1418.380, 51.787
1419.564, 10.451
1420.748, 29.706
1421.932, 42.754
1423.115, 2.046
1424.299, 39.495
1425.482, 34.073
1426.665, 21.283
1427.847, 44.858
1429.030, 14.507
1430.212, 0.125
1431.395, 18.630
1432.577, 41.001
1433.759, 26.222
1434.940, 5.490
1436.122, 12.889
1437.303, 20.064
1438.484, 27.451
1439.665, 21.909
1440.846, 21.482
1442.026, 18.033
1443.207, 50.117
1444.387, 10.472
1445.567, 14.046
1446.747, 32.559
1447.927, 2.919
1449.106, 21.215
1450.286, 42.769
1451.465, 4.697
1452.644, 10.836
1453.822, 26.356
1455.001, 1.863
1456.179, 32.649
1457.358, 31.767
1458.536, 54.746
1459.714, 52.192
1460.891, 32.185
1462.069, 41.568
1463.246, 35.939
1464.423, 15.084
1465.600, 38.982
1466.777, 31.315
1467.954, 8.608
1469.130, 45.991
1470.306, 24.225
1471.483, 18.606
1472.658, 34.670
1473.834, 17.070
1475.010, 3.399
1476.185, 20.330
1477.360, 24.697
1478.535, 45.587
1479.710, 56.948
1480.885, 13.301
1482.059, 42.648
1483.234, 5.872
1484.408, 21.933
1485.582, 30.250
1486.755, 3.118
1487.929, 12.041
1489.102, 30.249
1490.275, 17.446
1491.449, 38.682
1492.621, 32.911
1493.794, 45.151
1494.967, 28.337
1496.139, 24.556
1497.311, 32.563
1498.483, 24.821
1499.655, 46.056
1500.826, 18.318
1501.998, 24.542
1503.169, 48.799
1504.340, 20.099
1505.511, 44.496
1506.682, 21.917
1507.852, 9.368
1509.023, 34.861
1510.193, 18.427
1511.363, 28.065
1512.532, 1.198
1513.702, 11.643
1514.872, 25.618
1516.041, 34.768
1517.210, 3.300
1518.379, 30.725
1519.548, 0.000
##END=



