##NAMES=Volaschioite
##RRUFFID=R130078
##IDEAL CHEMISTRY=Fe^3+^_4_(S^6+^O_4_)O_2_(OH)_6_&#183;2H_2_O
##LOCALITY=Fornovolasco, Apuan Alps, Tuscany, Italy
##OWNER=Cristian Biagioni
##SOURCE=Cristian Biagioni
##DESCRIPTION=Radial aggregates of yellowish-orange, transparent bladed crystals. Associated with pyrite and iron oxyhydroxides. Data from Biagioni et al (2011)
##STATUS=The identification of this mineral has been confirmed by X-ray diffraction and chemical analysis
##URL=rruff.info/R130078
##MEASURED CHEMISTRY=Fe_4.16_(SO_4_)_0.92_O_2.32_(OH)_6_Â·2H_2_O
98.04280, 0.0000000E+00
98.81680, 29.66870
99.59080, 64.82343
100.3650, 101.8593
101.1390, 147.1260
101.9130, 173.2092
102.6870, 192.3940
103.4610, 209.2290
104.2350, 215.6884
105.0090, 211.9120
105.7830, 195.7856
106.5570, 196.6504
107.3310, 176.1533
108.1050, 135.4741
108.8790, 116.9218
109.6530, 87.14978
110.4270, 55.22888
111.2010, 35.82721
111.9750, 18.12408
112.7490, 5.781616
113.5230, 2.064819
114.2970, 7.378845
115.0710, 12.35333
115.8450, 11.78192
116.6180, 2.592468
117.3920, 1.769958
118.1660, 6.188721
118.9400, 21.74567
119.7140, 46.50604
120.4880, 73.47717
121.2620, 99.44165
122.0360, 115.9641
122.8100, 129.8943
123.5840, 142.4056
124.3580, 162.2120
125.1320, 169.0988
125.9060, 168.6422
126.6800, 170.0803
127.4540, 175.4531
128.2280, 182.9686
129.0020, 192.3230
129.7760, 188.4196
130.5500, 184.9831
131.3240, 183.5892
132.0980, 182.3382
132.8720, 183.2048
133.6460, 182.4536
134.4200, 169.3517
135.1940, 166.7511
135.9680, 168.5482
136.7420, 172.6273
137.5160, 177.6542
138.2900, 184.5931
139.0640, 192.5933
139.8380, 185.8171
140.6120, 180.4645
141.3860, 173.5146
142.1600, 157.0386
142.9340, 142.9022
143.7080, 128.3494
144.4820, 111.8015
145.2560, 103.0380
146.0300, 90.67181
146.8040, 74.79376
147.5780, 67.33557
148.3520, 65.82239
149.1260, 68.02979
149.9000, 72.18201
150.6740, 61.81238
151.4480, 51.09021
152.2220, 46.93481
152.9960, 45.37091
153.7700, 42.85370
154.5440, 42.36829
155.3180, 48.01486
156.0920, 51.49310
156.8660, 57.94098
157.6400, 75.18051
158.4140, 88.04382
159.1880, 110.2857
159.9620, 144.8208
160.7360, 178.8277
161.5100, 211.6378
162.2840, 244.3318
163.0580, 281.4873
163.8320, 337.5002
164.6060, 388.4288
165.3800, 412.2505
166.1540, 447.7859
166.9280, 471.9548
167.7020, 480.4660
168.4760, 468.1825
169.2500, 448.8419
170.0240, 421.6653
170.7980, 380.5081
171.5720, 335.5084
172.3460, 293.5842
173.1200, 258.7506
173.8940, 233.2581
174.6680, 203.2632
175.4410, 170.8946
176.2150, 155.7410
176.9890, 140.1089
177.7630, 123.6469
178.5370, 105.5387
179.3110, 101.4004
180.0850, 95.03268
180.8590, 83.00143
181.6330, 85.46759
182.4070, 82.44095
183.1810, 78.00177
183.9550, 83.34100
184.7290, 82.52786
185.5030, 81.91296
186.2770, 85.12540
187.0510, 88.99731
187.8250, 93.69968
188.5990, 99.70270
189.3730, 110.6622
190.1470, 120.5095
190.9210, 129.6351
191.6950, 137.4501
192.4690, 136.2403
193.2430, 136.0063
194.0170, 138.4444
194.7910, 121.5791
195.5650, 113.7805
196.3390, 107.5438
197.1130, 84.19135
197.8870, 68.65076
198.6610, 60.24091
199.4350, 60.26880
200.2090, 50.20047
200.9830, 39.24612
201.7570, 28.02695
202.5310, 17.41019
203.3050, 15.37589
204.0790, 13.11743
204.8530, 2.497253
205.6270, 3.077637
206.4010, 8.731232
207.1750, 14.74393
207.9490, 10.47327
208.7230, 7.551270
209.4970, 6.758942
210.2710, 11.84528
211.0450, 12.74734
211.8190, 12.50949
212.5930, 11.83072
213.3670, 7.080963
214.1410, 2.683014
214.9150, 3.2960000E-03
215.6890, 3.642426
216.4630, 1.771149
217.2370, 9.1582999E-02
218.0110, 0.7381590
218.7850, 1.235443
219.5590, 1.416016
220.3330, 6.038757
221.1070, 0.9017940
221.8810, 1.100128
222.6550, 0.7147520
223.4290, 1.609283
224.2030, 1.385529
224.9770, 2.683746
225.7510, 3.148895
226.5250, 14.30624
227.2990, 20.04126
228.0730, 23.14148
228.8470, 25.67914
229.6210, 37.61053
230.3950, 44.86597
231.1690, 45.53763
231.9430, 49.35263
232.7170, 57.48712
233.4910, 67.70822
234.2640, 77.40308
235.0380, 84.68274
235.8120, 94.31534
236.5860, 107.4539
237.3600, 117.8477
238.1340, 136.1906
238.9080, 155.6678
239.6820, 162.4921
240.4560, 172.7948
241.2300, 189.1567
242.0040, 212.9170
242.7780, 217.5843
243.5520, 228.2659
244.3260, 242.6678
245.1000, 256.1064
245.8740, 270.4635
246.6480, 286.4451
247.4220, 304.5731
248.1960, 314.2430
248.9700, 317.9475
249.7440, 318.5362
250.5180, 323.7745
251.2920, 324.0212
252.0660, 320.6884
252.8400, 313.7680
253.6140, 299.4525
254.3880, 281.5188
255.1620, 263.4890
255.9360, 257.3477
256.7100, 238.0032
257.4840, 219.6330
258.2580, 209.2903
259.0320, 192.0167
259.8060, 174.8636
260.5800, 158.1978
261.3540, 145.0891
262.1280, 131.0456
262.9020, 120.8445
263.6760, 116.8399
264.4500, 114.5858
265.2240, 104.9625
265.9980, 92.99313
266.7720, 98.62552
267.5460, 99.73239
268.3200, 97.26013
269.0940, 90.58167
269.8680, 88.88351
270.6420, 91.15482
271.4160, 94.47980
272.1900, 88.96799
272.9640, 83.25879
273.7380, 79.20999
274.5120, 77.93887
275.2860, 73.85043
276.0600, 71.93069
276.8340, 71.39365
277.6080, 70.11829
278.3820, 72.24661
279.1560, 72.95480
279.9300, 70.13373
280.7040, 65.98447
281.4780, 65.30005
282.2520, 67.04456
283.0260, 69.40997
283.8000, 70.55511
284.5740, 73.81262
285.3480, 80.28232
286.1220, 81.59213
286.8960, 90.71402
287.6700, 102.6360
288.4440, 108.4991
289.2180, 117.7474
289.9920, 128.7240
290.7660, 141.1229
291.5400, 154.8651
292.3140, 165.3209
293.0870, 174.6173
293.8610, 185.4876
294.6350, 196.2038
295.4090, 209.2799
296.1830, 224.4842
296.9570, 233.7433
297.7310, 239.2946
298.5050, 246.2007
299.2790, 260.1961
300.0530, 256.8850
300.8270, 253.8005
301.6010, 252.7014
302.3750, 253.2392
303.1490, 252.4007
303.9230, 251.1415
304.6970, 249.9395
305.4710, 263.0766
306.2450, 273.6145
307.0190, 287.7173
307.7930, 331.8795
308.5670, 365.1100
309.3410, 399.6462
310.1150, 440.8417
310.8890, 488.7025
311.6630, 544.4904
312.4370, 606.5342
313.2110, 673.3307
313.9850, 735.1613
314.7590, 786.0021
315.5330, 822.8209
316.3070, 833.7434
317.0810, 827.6293
317.8550, 807.9251
318.6290, 775.1606
319.4030, 717.5903
320.1770, 659.5953
320.9510, 603.6068
321.7250, 543.8107
322.4990, 483.5239
323.2730, 433.4622
324.0470, 403.4055
324.8210, 371.1329
325.5950, 338.3444
326.3690, 307.5172
327.1430, 286.8689
327.9170, 264.3150
328.6910, 243.0703
329.4650, 224.5540
330.2390, 212.2109
331.0130, 205.5121
331.7870, 198.1097
332.5610, 179.3948
333.3350, 165.2383
334.1090, 155.5421
334.8830, 148.8906
335.6570, 133.7855
336.4310, 126.9391
337.2050, 117.0762
337.9790, 94.76605
338.7530, 90.29077
339.5270, 78.68442
340.3010, 62.21002
341.0750, 51.44281
341.8490, 45.32178
342.6230, 41.24606
343.3970, 38.38971
344.1710, 34.86682
344.9450, 27.08432
345.7190, 17.63638
346.4930, 9.778076
347.2670, 1.911346
348.0410, 2.637695
348.8150, 4.231079
349.5890, 7.531464
350.3630, 5.052917
351.1370, 4.980499
351.9100, 12.49219
352.6840, 7.525879
353.4580, 7.174469
354.2320, 11.15085
355.0060, 19.17554
355.7800, 13.63504
356.5540, 12.30676
357.3280, 18.03415
358.1020, 16.04764
358.8760, 11.83426
359.6500, 9.291138
360.4240, 12.12527
361.1980, 8.670685
361.9720, 4.104034
362.7460, 0.2066650
363.5200, 1.590424
364.2940, 1.758728
365.0680, 0.8644410
365.8420, 6.785706
366.6160, 13.39511
367.3900, 17.47772
368.1640, 18.41852
368.9380, 14.86850
369.7120, 20.74179
370.4860, 28.79330
371.2600, 37.18912
372.0340, 41.63922
372.8080, 43.19565
373.5820, 49.21545
374.3560, 62.23166
375.1300, 71.78018
375.9040, 77.44522
376.6780, 82.38470
377.4520, 90.18246
378.2260, 93.58658
379.0000, 102.9487
379.7740, 115.7336
380.5480, 119.3179
381.3220, 128.8428
382.0960, 136.2054
382.8700, 139.3414
383.6440, 158.8243
384.4180, 160.8771
385.1920, 159.7333
385.9660, 170.8116
386.7400, 177.8168
387.5140, 186.9508
388.2880, 196.0652
389.0620, 196.2486
389.8360, 205.5047
390.6100, 214.8649
391.3840, 221.5782
392.1580, 227.6266
392.9320, 237.7044
393.7060, 254.7498
394.4800, 282.6814
395.2540, 294.0188
396.0280, 313.0747
396.8020, 336.4926
397.5760, 352.8366
398.3500, 381.4297
399.1240, 414.1975
399.8980, 449.4951
400.6720, 489.2456
401.4460, 520.5063
402.2200, 549.6260
402.9940, 580.6022
403.7680, 628.9400
404.5420, 662.1541
405.3160, 686.6955
406.0900, 713.6655
406.8640, 721.0624
407.6380, 729.2067
408.4120, 734.9379
409.1860, 707.2255
409.9600, 683.7386
410.7340, 659.3872
411.5080, 632.0706
412.2810, 606.0684
413.0550, 568.8106
413.8290, 526.9709
414.6030, 487.1628
415.3770, 459.3077
416.1510, 424.1047
416.9250, 386.7449
417.6990, 364.4972
418.4730, 334.8855
419.2470, 311.8270
420.0210, 298.0275
420.7950, 287.4971
421.5690, 277.6368
422.3430, 267.9477
423.1170, 258.2366
423.8910, 255.0395
424.6650, 258.5525
425.4390, 264.4578
426.2130, 267.1302
426.9870, 261.7339
427.7610, 268.4427
428.5350, 284.4187
429.3090, 295.9009
430.0830, 306.1874
430.8570, 318.5960
431.6310, 334.4119
432.4050, 356.1783
433.1790, 374.7289
433.9530, 397.5359
434.7270, 429.3371
435.5010, 454.8267
436.2750, 481.2524
437.0490, 510.0175
437.8230, 543.3538
438.5970, 572.8159
439.3710, 605.7124
440.1450, 639.7150
440.9190, 666.4885
441.6930, 718.0272
442.4670, 758.9918
443.2410, 785.9472
444.0150, 830.0811
444.7890, 864.1175
445.5630, 894.4052
446.3370, 923.3031
447.1110, 949.7659
447.8850, 973.9202
448.6590, 992.7924
449.4330, 1001.708
450.2070, 1012.578
450.9810, 1022.691
451.7550, 1026.359
452.5290, 1011.151
453.3030, 982.2289
454.0770, 961.2804
454.8510, 946.9064
455.6250, 920.9831
456.3990, 891.1840
457.1730, 856.9648
457.9470, 819.5529
458.7210, 792.1741
459.4950, 747.9587
460.2690, 701.9263
461.0430, 663.0471
461.8170, 637.1307
462.5910, 605.8215
463.3650, 569.9761
464.1390, 530.0578
464.9130, 502.7868
465.6870, 477.2052
466.4610, 449.0709
467.2350, 410.6243
468.0090, 387.8343
468.7830, 361.4507
469.5570, 332.9158
470.3310, 316.9805
471.1040, 293.1430
471.8780, 271.3814
472.6520, 254.0994
473.4260, 231.8035
474.2000, 219.3901
474.9740, 208.3205
475.7480, 194.2040
476.5220, 181.3243
477.2960, 166.5063
478.0700, 153.6976
478.8440, 145.9242
479.6180, 143.5281
480.3920, 140.2628
481.1660, 134.0860
481.9400, 122.9133
482.7140, 119.8030
483.4880, 111.1405
484.2620, 99.33237
485.0360, 92.02267
485.8100, 93.95093
486.5840, 93.77661
487.3580, 90.21710
488.1320, 84.94980
488.9060, 80.09305
489.6800, 76.10764
490.4540, 72.38168
491.2280, 66.50739
492.0020, 61.77048
492.7760, 59.54764
493.5500, 59.88730
494.3240, 54.30917
495.0980, 56.85858
495.8720, 59.02936
496.6460, 55.67114
497.4200, 50.56058
498.1940, 46.54608
498.9680, 47.26389
499.7420, 56.57306
500.5160, 57.25430
501.2900, 57.90359
502.0640, 58.88284
502.8380, 60.37662
503.6120, 58.70605
504.3860, 57.07996
505.1600, 57.76990
505.9340, 65.17450
506.7080, 68.92706
507.4820, 68.37784
508.2560, 67.38925
509.0300, 77.03430
509.8040, 76.80963
510.5780, 77.41312
511.3520, 80.24725
512.1260, 82.45764
512.9000, 86.63699
513.6740, 89.76205
514.4480, 91.52353
515.2220, 95.22067
515.9960, 94.46671
516.7700, 97.61111
517.5440, 106.7267
518.3180, 110.4591
519.0920, 112.7366
519.8660, 114.7109
520.6400, 117.0494
521.4140, 120.7888
522.1880, 121.8431
522.9620, 121.3484
523.7360, 120.1799
524.5100, 123.2610
525.2840, 121.1161
526.0580, 121.0804
526.8320, 129.2742
527.6060, 128.6041
528.3800, 129.8597
529.1540, 130.0962
529.9270, 126.0688
530.7010, 127.4606
531.4750, 121.8263
532.2490, 114.6477
533.0230, 113.3691
533.7970, 110.5408
534.5710, 106.6857
535.3450, 104.7118
536.1190, 109.0837
536.8930, 101.7327
537.6670, 91.88477
538.4410, 83.73450
539.2150, 84.12540
539.9890, 79.38339
540.7630, 75.48624
541.5370, 73.04147
542.3110, 72.16144
543.0850, 68.05783
543.8590, 60.67300
544.6330, 52.26111
545.4070, 48.48193
546.1810, 49.36142
546.9550, 45.14771
547.7290, 37.61862
548.5030, 35.63425
549.2770, 34.05490
550.0510, 30.55139
550.8250, 25.21753
551.5990, 19.56812
552.3730, 16.80814
553.1470, 14.14258
553.9210, 12.33945
554.6950, 15.93271
555.4690, 13.91330
556.2430, 11.26428
557.0170, 8.661499
557.7910, 4.589020
558.5650, 4.534729
559.3390, 3.725708
560.1130, 1.942780
560.8870, 2.643951
561.6610, 2.287842
562.4350, 5.711243
563.2090, 5.197083
563.9830, 1.928802
564.7570, 6.286438
565.5310, 9.758636
566.3050, 6.491730
567.0790, 9.077087
567.8530, 7.101074
568.6270, 6.440765
569.4010, 8.305878
570.1750, 11.46841
570.9490, 9.605164
571.7230, 8.986206
572.4970, 9.447235
573.2710, 4.028534
574.0450, 5.139465
574.8190, 5.667450
575.5930, 4.067932
576.3670, 1.193146
577.1410, 0.8844910
577.9150, 2.211029
578.6890, 4.521393
579.4630, 6.217865
580.2370, 4.546387
581.0110, 4.716125
581.7850, 6.065262
582.5590, 2.527435
583.3330, 1.417969
584.1070, 0.7698360
584.8810, 3.110931
585.6550, 0.6161800
586.4290, 3.440338
587.2030, 4.344818
587.9770, 2.971741
588.7500, 3.984467
589.5240, 2.493500
590.2980, 1.410110
591.0720, 1.606735
591.8460, 4.148529
592.6200, 2.1360000E-03
593.3940, 2.827423
594.1680, 4.399445
594.9420, 7.112518
595.7160, 4.320679
596.4900, 4.087845
597.2640, 7.401871
598.0380, 14.63304
598.8120, 11.42159
599.5860, 10.57538
600.3600, 11.76234
601.1340, 12.94652
601.9080, 14.93199
602.6820, 14.53276
603.4560, 14.28180
604.2300, 17.72215
605.0040, 13.47879
605.7780, 12.69165
606.5520, 14.59572
607.3260, 18.01801
608.1000, 17.23264
608.8740, 13.15752
609.6480, 9.117569
610.4220, 8.019669
611.1960, 7.426697
611.9700, 8.593689
612.7440, 9.048660
613.5180, 7.353607
614.2920, 8.651443
615.0660, 8.160248
615.8400, 5.774948
616.6140, 2.405334
617.3880, 7.080841
618.1620, 6.707153
618.9360, 4.799240
619.7100, 3.543854
620.4840, 6.925781
621.2580, 7.068451
622.0320, 7.622864
622.8060, 8.998123
623.5800, 7.826248
624.3540, 6.285202
625.1280, 4.503906
625.9020, 3.312042
626.6760, 5.154312
627.4500, 2.907074
628.2240, 3.520874
628.9980, 5.253860
629.7720, 1.778351
630.5460, 2.762512
631.3200, 6.669571
632.0940, 9.751251
632.8680, 6.259705
633.6420, 5.669678
634.4160, 8.118042
635.1900, 10.48807
635.9640, 9.279984
636.7380, 15.58380
637.5120, 14.12355
638.2860, 12.99217
639.0600, 18.14163
639.8340, 14.98308
640.6080, 17.66339
641.3820, 22.48505
642.1560, 26.69235
642.9300, 25.27078
643.7040, 26.34732
644.4780, 26.35493
645.2520, 25.27756
646.0260, 29.64359
646.7990, 24.88748
647.5730, 24.18042
648.3470, 27.99141
649.1210, 27.86194
649.8950, 30.07574
650.6690, 31.72055
651.4430, 32.90343
652.2170, 34.64851
652.9910, 37.62059
653.7650, 36.50772
654.5390, 35.38104
655.3130, 39.77910
656.0870, 46.29749
656.8610, 48.07722
657.6350, 47.09001
658.4090, 46.15250
659.1830, 49.93823
659.9570, 51.67941
660.7310, 54.86633
661.5050, 60.51254
662.2790, 64.76556
663.0530, 66.90521
663.8270, 65.30913
664.6010, 62.17374
665.3750, 67.56274
666.1490, 74.79208
666.9230, 77.91046
667.6970, 78.94789
668.4710, 84.09641
669.2450, 87.27875
670.0190, 93.66470
670.7930, 101.0078
671.5670, 106.1279
672.3410, 117.9994
673.1150, 124.6611
673.8890, 130.8340
674.6630, 139.3304
675.4370, 140.7170
676.2110, 146.2546
676.9850, 157.2552
677.7590, 172.1187
678.5330, 180.5647
679.3070, 181.7076
680.0810, 195.1551
680.8550, 215.8662
681.6290, 218.5345
682.4030, 237.4444
683.1770, 253.3509
683.9510, 265.1312
684.7250, 274.1810
685.4990, 282.5602
686.2730, 297.3015
687.0470, 311.7091
687.8210, 321.0054
688.5950, 335.6438
689.3690, 343.2913
690.1430, 352.9873
690.9170, 367.0874
691.6910, 377.1500
692.4650, 390.4428
693.2390, 393.5605
694.0130, 392.3419
694.7870, 407.7930
695.5610, 406.9224
696.3350, 408.8131
697.1090, 412.3304
697.8830, 413.9734
698.6570, 415.6137
699.4310, 406.3428
700.2050, 395.6578
700.9790, 390.1650
701.7530, 389.5019
702.5270, 383.3390
703.3010, 376.0959
704.0750, 367.7722
704.8490, 353.2719
705.6220, 347.6014
706.3960, 344.5782
707.1700, 338.9152
707.9440, 323.6302
708.7180, 313.5701
709.4920, 305.2222
710.2660, 294.5365
711.0400, 279.1705
711.8140, 273.0469
712.5880, 264.6843
713.3620, 253.8107
714.1360, 241.5652
714.9100, 233.1598
715.6840, 227.4193
716.4580, 215.5608
717.2320, 201.3449
718.0060, 194.4247
718.7800, 193.3052
719.5540, 185.8421
720.3280, 174.4645
721.1020, 163.0319
721.8760, 164.3217
722.6500, 163.9466
723.4240, 160.6012
724.1980, 153.0176
724.9720, 138.4175
725.7460, 135.2413
726.5200, 136.3587
727.2940, 136.0924
728.0680, 126.9136
728.8420, 127.2918
729.6160, 119.1438
730.3900, 114.2266
731.1640, 119.5114
731.9380, 106.1695
732.7120, 102.1468
733.4860, 98.71254
734.2600, 95.63945
735.0340, 104.5169
735.8080, 99.27155
736.5820, 97.50974
737.3560, 96.39679
738.1300, 89.23779
738.9040, 89.48277
739.6780, 85.14731
740.4520, 81.15657
741.2260, 79.80942
742.0000, 75.27573
742.7740, 73.89429
743.5480, 73.36667
744.3220, 71.64258
745.0960, 65.66287
745.8700, 73.71637
746.6440, 74.01491
747.4180, 69.78665
748.1920, 66.48279
748.9660, 66.56589
749.7400, 56.49390
750.5140, 51.93210
751.2880, 55.49294
752.0620, 54.07538
752.8360, 50.55115
753.6100, 49.11923
754.3840, 49.44745
755.1580, 50.25305
755.9320, 49.54414
756.7060, 48.07582
757.4800, 43.49640
758.2540, 36.85060
759.0280, 41.16994
759.8020, 41.98862
760.5760, 42.54480
761.3500, 41.45145
762.1240, 34.66786
762.8980, 35.66074
763.6720, 32.81067
764.4450, 32.87459
765.2190, 38.37328
765.9930, 31.61311
766.7670, 29.17270
767.5410, 30.23776
768.3150, 32.05075
769.0890, 29.04004
769.8630, 29.54939
770.6370, 27.23940
771.4110, 26.94547
772.1850, 32.03976
772.9590, 32.31471
773.7330, 30.24667
774.5070, 29.52953
775.2810, 31.06248
776.0550, 34.14464
776.8290, 30.01552
777.6030, 28.46225
778.3770, 28.66147
779.1510, 28.64386
779.9250, 23.39958
780.6990, 25.07736
781.4730, 26.96608
782.2470, 26.95689
783.0210, 24.73340
783.7950, 16.64902
784.5690, 13.19553
785.3430, 14.45793
786.1170, 18.59865
786.8910, 15.63661
787.6650, 15.67068
788.4390, 14.54553
789.2130, 12.83432
789.9870, 16.08670
790.7610, 12.79645
791.5350, 14.64349
792.3090, 18.12704
793.0830, 18.32928
793.8570, 10.58910
794.6310, 12.91476
795.4050, 14.94040
796.1790, 14.25806
796.9530, 13.52057
797.7270, 10.35603
798.5010, 9.846436
799.2750, 11.27982
800.0490, 13.30818
800.8230, 12.56349
801.5970, 10.34689
802.3710, 9.659683
803.1450, 10.68150
803.9190, 12.27536
804.6930, 9.532425
805.4670, 9.276733
806.2410, 9.756149
807.0150, 9.437576
807.7890, 6.378494
808.5630, 4.630936
809.3370, 3.093338
810.1110, 5.187683
810.8850, 15.06522
811.6590, 7.274124
812.4330, 6.482224
813.2070, 5.954712
813.9810, 4.012527
814.7550, 6.382462
815.5290, 8.748993
816.3030, 9.870941
817.0770, 8.754074
817.8510, 5.385223
818.6250, 8.536530
819.3990, 4.816055
820.1730, 1.018585
820.9470, 0.4528500
821.7210, 5.161789
822.4950, 3.821640
823.2680, 3.999359
824.0420, 4.889999
824.8160, 4.399536
825.5900, 4.206024
826.3640, 1.370438
827.1380, 1.045776
827.9120, 1.587570
828.6860, 1.673065
829.4600, 4.356308
830.2340, 0.3466030
831.0080, 2.110352
831.7820, 1.741119
832.5560, 5.369354
833.3300, 0.9845120
834.1040, 0.2094730
834.8780, 3.575897
835.6520, 3.293243
836.4260, 0.8754880
837.2000, 1.506607
837.9740, 3.881104
838.7480, 4.120285
839.5220, 0.7927400
840.2960, 0.8085330
841.0700, 0.5101170
841.8440, 0.6543880
842.6180, 1.506683
843.3920, 3.114151
844.1660, 0.3539120
844.9400, 0.1744840
845.7140, 0.5493620
846.4880, 2.601852
847.2620, 2.556259
848.0360, 1.848557
848.8100, 0.1607210
849.5840, 1.024704
850.3580, 0.3066560
851.1320, 5.261475
851.9060, 1.978043
852.6800, 1.8310999E-02
853.4540, 1.761261
854.2280, 1.036789
855.0020, 1.535553
855.7760, 1.968262
856.5500, 4.519943
857.3240, 2.546570
858.0980, 1.468857
858.8720, 0.6827390
859.6460, 1.081573
860.4200, 1.519638
861.1940, 0.4449310
861.9680, 1.940094
862.7420, 2.175140
863.5160, 0.8391270
864.2900, 0.1701050
865.0640, 2.899048
865.8380, 4.237869
866.6120, 4.544556
867.3860, 2.504166
868.1600, 0.4876250
868.9340, 2.570160
869.7080, 1.967896
870.4820, 0.2694090
871.2560, 1.773315
872.0300, 1.497620
872.8040, 3.977158
873.5780, 2.982788
874.3520, 3.011765
875.1260, 0.2712710
875.9000, 1.087219
876.6740, 0.9697270
877.4480, 1.179260
878.2220, 3.0151000E-02
878.9960, 1.219849
879.7700, 0.9785920
880.5440, 1.852890
881.3180, 1.485565
882.0910, 1.177170
882.8650, 2.060547
883.6400, 2.816086
884.4140, 5.250214
885.1880, 2.271133
885.9610, 1.674698
886.7350, 2.537689
887.5090, 2.360123
888.2830, 0.8021390
889.0570, 1.892487
889.8310, 3.055313
890.6050, 1.514374
891.3790, 1.366638
892.1530, 4.622131
892.9270, 4.118896
893.7010, 1.534897
894.4750, 0.7101750
895.2490, 1.352722
896.0230, 3.052567
896.7970, 5.149719
897.5710, 6.442139
898.3450, 5.275925
899.1190, 2.025009
899.8930, 0.7125240
900.6670, 3.916061
901.4410, 7.569809
902.2150, 6.188660
902.9890, 7.602783
903.7630, 8.444733
904.5370, 7.933090
905.3110, 8.270248
906.0850, 15.92979
906.8590, 8.378769
907.6330, 9.238266
908.4070, 9.531815
909.1810, 5.729858
909.9550, 7.156342
910.7290, 11.54716
911.5030, 13.15468
912.2770, 13.17642
913.0510, 13.74887
913.8250, 18.30861
914.5990, 13.27391
915.3730, 15.18234
916.1470, 17.61029
916.9210, 14.57872
917.6950, 13.60388
918.4690, 13.93712
919.2430, 19.50746
920.0170, 23.91676
920.7910, 22.06625
921.5650, 25.78378
922.3390, 27.51816
923.1130, 28.85953
923.8870, 28.45665
924.6610, 26.34283
925.4350, 34.13791
926.2090, 33.05040
926.9830, 36.58076
927.7570, 41.94438
928.5310, 42.28561
929.3050, 39.68942
930.0790, 39.62711
930.8530, 41.57985
931.6270, 45.08549
932.4010, 49.12965
933.1750, 46.45166
933.9490, 44.44135
934.7230, 45.34807
935.4970, 47.45052
936.2710, 47.94220
937.0450, 50.20934
937.8190, 53.71689
938.5930, 55.24356
939.3670, 54.81525
940.1410, 54.13232
940.9150, 57.66498
941.6890, 56.17371
942.4630, 53.48254
943.2370, 51.15094
944.0100, 49.32591
944.7840, 51.38065
945.5580, 48.32623
946.3320, 49.22920
947.1060, 50.47853
947.8800, 43.91653
948.6540, 39.74402
949.4280, 45.95862
950.2020, 48.10809
950.9760, 44.61667
951.7500, 40.16275
952.5240, 43.08411
953.2980, 39.44025
954.0720, 34.96068
954.8460, 33.46402
955.6200, 36.81128
956.3940, 34.86562
957.1680, 32.34488
957.9420, 33.11192
958.7160, 32.73309
959.4900, 27.20380
960.2640, 28.45349
961.0380, 28.45769
961.8120, 25.93106
962.5860, 23.01222
963.3600, 22.38036
964.1340, 24.48929
964.9080, 22.41272
965.6820, 24.48889
966.4560, 27.07004
967.2300, 26.20703
968.0040, 30.83522
968.7780, 28.05602
969.5520, 28.25975
970.3260, 31.83940
971.1000, 36.54562
971.8740, 37.35547
972.6480, 31.37601
973.4220, 29.02266
974.1960, 27.37425
974.9700, 25.51718
975.7440, 30.28265
976.5180, 33.27184
977.2920, 35.45242
978.0660, 32.83432
978.8400, 26.81561
979.6140, 27.49013
980.3880, 30.38985
981.1620, 27.33971
981.9360, 24.30293
982.7100, 22.95544
983.4840, 20.42923
984.2580, 18.91232
985.0320, 22.85773
985.8060, 25.78845
986.5800, 25.51851
987.3540, 22.74393
988.1280, 16.08466
988.9020, 18.06079
989.6760, 20.58430
990.4500, 23.05220
991.2240, 26.80753
991.9980, 24.98026
992.7720, 28.08199
993.5460, 29.26163
994.3200, 30.15175
995.0940, 33.62842
995.8680, 39.17960
996.6420, 44.00128
997.4160, 49.35349
998.1900, 58.10818
998.9640, 69.37741
999.7380, 74.13129
1000.510, 87.59866
1001.290, 101.3046
1002.060, 113.7851
1002.830, 124.4192
1003.610, 133.1889
1004.380, 137.9561
1005.160, 140.2151
1005.930, 137.8227
1006.700, 133.1402
1007.480, 129.7074
1008.250, 110.2103
1009.030, 103.5188
1009.800, 94.10699
1010.570, 81.42191
1011.350, 70.24789
1012.120, 66.13324
1012.900, 59.57440
1013.670, 54.53339
1014.440, 51.84564
1015.220, 50.43277
1015.990, 46.34543
1016.770, 41.95065
1017.540, 35.99472
1018.310, 32.74252
1019.090, 33.36371
1019.860, 35.38245
1020.640, 34.67876
1021.410, 33.26511
1022.180, 36.20331
1022.960, 40.19244
1023.730, 39.60760
1024.510, 41.22221
1025.280, 43.26506
1026.050, 44.00523
1026.830, 45.63644
1027.600, 49.52962
1028.380, 52.75725
1029.150, 52.54178
1029.920, 57.64648
1030.700, 61.01917
1031.470, 61.43581
1032.240, 65.62231
1033.020, 74.67232
1033.790, 77.90765
1034.570, 81.80481
1035.340, 87.74030
1036.110, 93.89780
1036.890, 97.15378
1037.660, 103.2834
1038.440, 112.1501
1039.210, 120.7483
1039.980, 127.9160
1040.760, 137.6950
1041.530, 150.9078
1042.310, 161.0104
1043.080, 172.4979
1043.850, 186.0218
1044.630, 198.5820
1045.400, 210.0096
1046.180, 222.8117
1046.950, 229.4783
1047.720, 238.0375
1048.500, 256.2060
1049.270, 272.5425
1050.050, 285.1232
1050.820, 293.4083
1051.590, 298.8217
1052.370, 303.3642
1053.140, 309.3418
1053.920, 323.2807
1054.690, 323.4926
1055.460, 324.5205
1056.240, 327.5216
1057.010, 326.9653
1057.790, 316.5141
1058.560, 313.3515
1059.330, 311.5336
1060.110, 302.3335
1060.880, 287.3726
1061.660, 283.2763
1062.430, 269.4494
1063.200, 257.3937
1063.980, 249.1770
1064.750, 239.6291
1065.530, 223.5181
1066.300, 214.6213
1067.070, 205.3365
1067.850, 192.9803
1068.620, 179.5456
1069.400, 167.4564
1070.170, 158.2691
1070.940, 141.9985
1071.720, 134.8104
1072.490, 126.1100
1073.270, 115.4384
1074.040, 107.5082
1074.810, 106.0020
1075.590, 88.10153
1076.360, 82.09190
1077.140, 79.89317
1077.910, 76.34509
1078.680, 76.12091
1079.460, 64.60440
1080.230, 61.22983
1081.010, 58.27438
1081.780, 55.86078
1082.550, 54.92694
1083.330, 48.16577
1084.100, 46.35492
1084.880, 41.32022
1085.650, 39.38736
1086.420, 38.64615
1087.200, 30.27261
1087.970, 28.79070
1088.750, 30.00439
1089.520, 24.47270
1090.290, 20.26663
1091.070, 21.91313
1091.840, 16.32527
1092.620, 18.10796
1093.390, 18.68225
1094.160, 17.94809
1094.940, 15.98653
1095.710, 12.63147
1096.490, 6.224945
1097.260, 11.76701
1098.030, 10.92258
1098.810, 9.977661
1099.580, 11.33824
1100.360, 9.371323
1101.130, 13.68188
1101.900, 7.725967
1102.680, 5.322479
1103.450, 6.340454
1104.230, 6.390869
1105.000, 2.368729
1105.770, 2.481995
1106.550, 1.743317
1107.320, 3.132614
1108.100, 1.197342
1108.870, 0.4430690
1109.640, 0.6478120
1110.420, 2.929062
1111.190, 4.945358
1111.970, 5.462723
1112.740, 4.791397
1113.510, 3.107132
1114.290, 3.726379
1115.060, 2.927353
1115.840, 0.8228610
1116.610, 1.027313
1117.380, 3.584778
1118.160, 1.503998
1118.930, 0.3616030
1119.710, 3.559402
1120.480, 2.848419
1121.250, 2.021576
1122.030, 4.075928
1122.800, 0.6655730
1123.580, 0.3158870
1124.350, 0.4925380
1125.120, 3.294022
1125.900, 3.814301
1126.670, 1.510345
1127.450, 2.383072
1128.220, 5.718887
1128.990, 2.119751
1129.770, 1.813660
1130.540, 4.619598
1131.320, 1.947586
1132.090, 7.295532
1132.860, 6.841476
1133.640, 7.038162
1134.410, 8.010635
1135.190, 9.015457
1135.960, 8.936172
1136.730, 8.646835
1137.510, 10.02638
1138.280, 9.941818
1139.060, 11.34021
1139.830, 14.13687
1140.600, 12.22221
1141.380, 17.58354
1142.150, 19.14313
1142.930, 21.08020
1143.700, 27.08499
1144.470, 28.50136
1145.250, 29.69887
1146.020, 29.33279
1146.800, 27.07870
1147.570, 33.96208
1148.340, 34.87897
1149.120, 37.06729
1149.890, 41.06847
1150.660, 45.70906
1151.440, 48.33881
1152.210, 44.04681
1152.990, 47.49657
1153.760, 51.83905
1154.530, 54.63135
1155.310, 56.75990
1156.080, 63.75070
1156.860, 66.14136
1157.630, 70.35544
1158.400, 74.64859
1159.180, 79.13577
1159.950, 86.36287
1160.730, 85.00613
1161.500, 91.00134
1162.270, 96.89648
1163.050, 99.90909
1163.820, 102.3185
1164.600, 114.2241
1165.370, 119.0447
1166.140, 124.0912
1166.920, 131.8327
1167.690, 140.0789
1168.470, 143.9254
1169.240, 148.3133
1170.010, 156.9019
1170.790, 163.7244
1171.560, 169.7244
1172.340, 176.7585
1173.110, 184.5079
1173.880, 195.4311
1174.660, 199.0194
1175.430, 204.3142
1176.210, 211.2751
1176.980, 214.2544
1177.750, 213.0869
1178.530, 222.8413
1179.300, 217.9894
1180.080, 205.9415
1180.850, 196.6314
1181.620, 195.1102
1182.400, 190.4247
1183.170, 182.3509
1183.950, 172.8651
1184.720, 166.2950
1185.490, 163.1366
1186.270, 151.8630
1187.040, 138.6632
1187.820, 133.6690
1188.590, 128.8066
1189.360, 120.1319
1190.140, 108.3999
1190.910, 97.94055
1191.690, 92.62408
1192.460, 86.25218
1193.230, 79.90799
1194.010, 73.64941
1194.780, 65.21144
1195.560, 66.28210
1196.330, 53.93236
1197.100, 49.74121
1197.880, 49.15265
1198.650, 44.55765
1199.430, 43.93776
1200.200, 40.60826
1200.970, 39.99094
1201.750, 37.49115
1202.520, 34.39088
1203.300, 33.58012
1204.070, 27.88083
1204.840, 27.47945
1205.620, 24.10876
1206.390, 23.46040
1207.170, 24.75253
1207.940, 21.22626
1208.710, 23.09897
1209.490, 24.05586
1210.260, 24.93486
1211.040, 26.33127
1211.810, 27.33804
1212.580, 25.70328
1213.360, 30.07600
1214.130, 29.01616
1214.910, 25.89478
1215.680, 20.44182
1216.450, 14.65227
1217.230, 18.18010
1218.000, 14.27869
1218.780, 17.09084
1219.550, 14.14163
1220.320, 9.461853
1221.100, 11.67244
1221.870, 11.12242
1222.650, 7.389771
1223.420, 5.927536
1224.190, 6.208649
1224.970, 4.478104
1225.740, 1.712097
1226.520, 1.827347
1227.290, 3.097992
1228.060, 3.137360
1228.840, 3.057266
1229.610, 3.281219
1230.390, 3.156723
1231.160, 0.5215000
1231.930, 1.485611
1232.710, 0.7210540
1233.480, 0.7133790
1234.260, 1.834625
1235.030, 0.5752870
1235.800, 1.294022
1236.580, 0.4066160
1237.350, 0.1149440
1238.130, 2.001892
1238.900, 3.257629
1239.670, 0.2093200
1240.450, 1.249664
1241.220, 2.497192
1242.000, 0.6928860
1242.770, 6.2804997E-02
1243.540, 1.069656
1244.320, 4.752975
1245.090, 2.444733
1245.870, 0.5476530
1246.640, 0.3893130
1247.410, 0.2308350
1248.190, 0.8869480
1248.960, 0.6042020
1249.740, 5.402161
1250.510, 0.4543760
1251.280, 1.069244
1252.060, 2.230255
1252.830, 2.853409
1253.610, 1.008606
1254.380, 4.176331
1255.150, 1.936340
1255.930, 0.9945680
1256.700, 0.6654510
1257.480, 0.7641450
1258.250, 0.9339140
1259.020, 2.750900
1259.800, 4.889587
1260.570, 3.801254
1261.350, 3.360779
1262.120, 5.624084
1262.890, 3.499420
1263.670, 8.648544
1264.440, 2.900711
1265.220, 0.8805390
1265.990, 2.803497
1266.760, 5.008072
1267.540, 7.413620
1268.310, 3.3172999E-02
1269.080, 5.936493
1269.860, 10.30681
1270.630, 10.30914
1271.410, 8.907501
1272.180, 10.68388
1272.950, 11.82329
1273.730, 11.40869
1274.500, 11.23711
1275.280, 9.989548
1276.050, 8.442993
1276.820, 10.93645
1277.600, 11.05791
1278.370, 16.62238
1279.150, 16.65184
1279.920, 14.99234
1280.690, 14.65315
1281.470, 13.33397
1282.240, 14.81978
1283.020, 11.39658
1283.790, 15.42693
1284.560, 17.89075
1285.340, 15.94157
1286.110, 15.87338
1286.890, 14.30919
1287.660, 15.80002
1288.430, 17.96481
1289.210, 18.68062
1289.980, 17.94846
1290.760, 17.39426
1291.530, 17.95107
1292.300, 16.49309
1293.080, 18.70949
1293.850, 19.01607
1294.630, 18.30721
1295.400, 19.05132
1296.170, 14.95438
1296.950, 14.99016
1297.720, 17.16576
1298.500, 17.29703
1299.270, 12.62570
1300.040, 7.806931
1300.820, 18.22354
1301.590, 20.00064
1302.370, 16.85611
1303.140, 16.55310
1303.910, 18.10780
1304.690, 18.41330
1305.460, 16.11424
1306.240, 15.36618
1307.010, 17.00914
1307.780, 17.08011
1308.560, 18.45920
1309.330, 18.44322
1310.110, 12.64432
1310.880, 18.37447
1311.650, 14.04828
1312.430, 12.24855
1313.200, 15.63637
1313.980, 19.80727
1314.750, 19.89058
1315.520, 19.99020
1316.300, 15.87056
1317.070, 14.38995
1317.850, 17.26735
1318.620, 16.70702
1319.390, 10.74489
1320.170, 9.762070
1320.940, 11.56819
1321.720, 8.173676
1322.490, 12.86629
1323.260, 15.53091
1324.040, 16.90549
1324.810, 26.65784
1325.590, 23.29424
1326.360, 19.34654
1327.130, 18.88187
1327.910, 20.62704
1328.680, 20.73358
1329.460, 18.26709
1330.230, 21.52231
1331.000, 20.72180
1331.780, 18.71381
1332.550, 15.92719
1333.330, 16.99797
1334.100, 21.52286
1334.870, 23.32832
1335.650, 27.05458
1336.420, 27.25444
1337.200, 29.16399
1337.970, 29.41618
1338.740, 27.75536
1339.520, 26.87842
1340.290, 28.51283
1341.070, 24.16267
1341.840, 20.76434
1342.610, 21.30118
1343.390, 21.43855
1344.160, 19.66655
1344.940, 20.40219
1345.710, 19.93425
1346.480, 16.67401
1347.260, 16.61832
1348.030, 14.52177
1348.810, 11.85495
1349.580, 13.57144
1350.350, 16.05347
1351.130, 13.10704
1351.900, 13.98320
1352.680, 13.54610
1353.450, 12.26526
1354.220, 12.31947
1355.000, 13.58333
1355.770, 5.125839
1356.550, 5.280289
1357.320, 5.404068
1358.090, 6.718994
1358.870, 10.23645
1359.640, 14.31531
1360.420, 14.33708
1361.190, 13.56213
1361.960, 12.77617
1362.740, 12.53442
1363.510, 11.75017
1364.290, 10.10742
1365.060, 8.561203
1365.830, 7.748474
1366.610, 7.748260
1367.380, 8.910583
1368.160, 8.996429
1368.930, 9.635803
1369.700, 10.92171
1370.480, 8.551147
1371.250, 8.583130
1372.030, 7.853928
1372.800, 9.559021
1373.570, 10.05211
1374.350, 9.291306
1375.120, 7.808044
1375.900, 0.4613650
1376.670, 5.446991
1377.440, 6.231216
1378.220, 4.542007
1378.990, 7.098373
1379.770, 10.57333
1380.540, 6.389862
1381.310, 8.971008
1382.090, 9.062759
1382.860, 5.601089
1383.640, 5.598053
1384.410, 7.406616
1385.180, 8.998825
1385.960, 11.67603
1386.730, 8.051514
1387.510, 10.20969
1388.280, 6.432327
1389.050, 5.741623
1389.830, 6.791504
1390.600, 5.730042
1391.370, 6.360168
1392.150, 3.818939
1392.920, 5.371735
1393.700, 6.647812
1394.470, 7.559616
1395.240, 8.638184
1396.020, 8.560211
1396.790, 2.940887
1397.570, 3.815460
1398.340, 4.687256
1399.110, 5.630707
1399.890, 6.550766
1400.660, 7.116867
1401.440, 6.788177
1402.210, 3.866745
1402.980, 2.104599
1403.760, 2.865555
1404.530, 4.469604
1405.310, 3.054840
1406.080, 3.249680
1406.850, 5.888214
1407.630, 0.8244480
1408.400, 3.587845
1409.180, 4.043243
1409.950, 3.480331
1410.720, 3.928101
1411.500, 3.218414
1412.270, 1.247543
1413.050, 0.3806460
1413.820, 1.343491
1414.590, 2.544556
1415.370, 5.198059
1416.140, 3.080154
1416.920, 0.3502810
1417.690, 4.503494
1418.460, 7.861328
1419.240, 2.732452
1420.010, 1.897995
1420.790, 0.7946170
1421.560, 0.6109620
1422.330, 2.307678
1423.110, 1.582275
1423.880, 2.653244
1424.660, 0.4744420
1425.430, 3.147324
1426.200, 1.088852
1426.980, 0.5043030
1427.750, 2.734177
1428.530, 3.290451
1429.300, 2.475372
1430.070, 3.345108
1430.850, 2.790817
1431.620, 3.147064
1432.400, 4.018845
1433.170, 4.645950
1433.940, 4.457718
1434.720, 2.949097
1435.490, 6.404327
1436.270, 10.61412
1437.040, 6.561661
1437.810, 6.091263
1438.590, 7.584885
1439.360, 5.362259
1440.140, 9.759201
1440.910, 8.056183
1441.680, 7.908905
1442.460, 11.12529
1443.230, 10.26501
1444.010, 7.245056
1444.780, 7.521149
1445.550, 10.94420
1446.330, 13.96625
1447.100, 14.98135
1447.880, 13.18335
1448.650, 12.21539
1449.420, 11.39935
1450.200, 9.624420
1450.970, 8.882858
1451.750, 14.07738
1452.520, 5.883911
1453.290, 6.501343
1454.070, 9.113358
1454.840, 7.383316
1455.620, 3.290192
1456.390, 3.429031
1457.160, 5.969788
1457.940, 5.992493
1458.710, 4.554123
1459.490, 5.324738
1460.260, 4.198257
1461.030, 3.167755
1461.810, 4.644196
1462.580, 2.697586
1463.360, 2.718933
1464.130, 0.3382570
1464.900, 1.044525
1465.680, 1.219116
1466.450, 3.195694
1467.230, 2.351242
1468.000, 1.907776
1468.770, 3.814743
1469.550, 4.713211
1470.320, 1.990662
1471.100, 2.073090
1471.870, 1.559494
1472.640, 1.530914
1473.420, 4.590317
1474.190, 3.275681
1474.970, 8.362045
1475.740, 4.166428
1476.510, 2.887787
1477.290, 2.391144
1478.060, 9.1476001E-02
1478.840, 2.070221
1479.610, 1.228973
1480.380, 2.219818
1481.160, 2.942245
1481.930, 2.431335
1482.710, 1.301437
1483.480, 2.270523
1484.250, 3.379654
1485.030, 1.489807
1485.800, 1.676041
1486.580, 0.7897030
1487.350, 9.9489996E-03
1488.120, 1.861038
1488.900, 0.7350770
1489.670, 1.154892
1490.450, 2.316452
1491.220, 4.905045
1491.990, 1.465668
1492.770, 0.6112980
1493.540, 3.422058
1494.320, 0.7748110
1495.090, 2.809723
1495.860, 5.4092001E-02
1496.640, 0.1275790
1497.410, 5.800278
1498.190, 4.072662
1498.960, 1.512039
1499.730, 0.6190640
1500.510, 0.4468380
1501.280, 1.347961
1502.060, 3.104126
1502.830, 3.815338
1503.600, 0.9816280
1504.380, 2.737976
1505.150, 3.595688
1505.920, 3.099350
1506.700, 4.542130
1507.470, 3.589874
1508.250, 0.3597870
1509.020, 1.420563
1509.790, 3.120010
1510.570, 1.398987
1511.340, 0.4490510
1512.120, 0.4006500
1512.890, 0.5188140
1513.660, 1.132217
1514.440, 1.342560
1515.210, 2.385895
1515.990, 7.262527
1516.760, 3.612534
1517.530, 4.641525
1518.310, 3.908493
1519.080, 5.985733
1519.860, 8.822403
1520.630, 8.599609
1521.400, 7.553894
1522.180, 5.271988
1522.950, 9.618408
1523.730, 12.53093
1524.500, 13.32758
1525.270, 14.61530
1526.050, 18.50607
1526.820, 23.21515
1527.600, 23.86830
1528.370, 22.88451
1529.140, 25.48679
1529.920, 19.26610
1530.690, 22.46948
1531.470, 21.81993
1532.240, 19.70044
1533.010, 24.01700
1533.790, 26.37660
1534.560, 32.53423
1535.340, 27.16913
1536.110, 29.33907
1536.880, 30.38904
1537.660, 30.32004
1538.430, 29.87706
1539.210, 28.27715
1539.980, 25.42725
1540.750, 26.30840
1541.530, 21.71156
1542.300, 15.80476
1543.080, 16.66801
1543.850, 16.83629
1544.620, 13.65358
1545.400, 11.70093
1546.170, 14.36531
1546.950, 12.53873
1547.720, 7.061157
1548.490, 6.461609
1549.270, 7.144104
1550.040, 8.583603
1550.820, 9.450165
1551.590, 9.351761
1552.360, 9.377380
1553.140, 9.476028
1553.910, 10.75172
1554.690, 10.06941
1555.460, 9.904160
1556.230, 6.523941
1557.010, 6.537491
1557.780, 8.397339
1558.560, 5.933746
1559.330, 6.961685
1560.100, 9.120636
1560.880, 10.07564
1561.650, 6.618790
1562.430, 4.066986
1563.200, 5.847214
1563.970, 7.809464
1564.750, 7.070770
1565.520, 8.729111
1566.300, 9.578506
1567.070, 6.078918
1567.840, 5.677383
1568.620, 5.049866
1569.390, 5.039474
1570.170, 7.005142
1570.940, 8.452408
1571.710, 5.526093
1572.490, 2.529724
1573.260, 5.768555
1574.040, 9.313416
1574.810, 9.312347
1575.580, 5.020325
1576.360, 2.289352
1577.130, 1.238434
1577.910, 1.771576
1578.680, 7.563721
1579.450, 4.250183
1580.230, 8.144867
1581.000, 4.906128
1581.780, 2.887436
1582.550, 6.486557
1583.320, 5.967148
1584.100, 1.766785
1584.870, 4.362518
1585.650, 6.380936
1586.420, 5.313843
1587.190, 3.604263
1587.970, 3.328293
1588.740, 2.434875
1589.520, 3.897278
1590.290, 5.139252
1591.060, 5.247330
1591.840, 8.122482
1592.610, 5.179672
1593.390, 13.16736
1594.160, 7.318832
1594.930, 7.924393
1595.710, 9.419022
1596.480, 8.440720
1597.260, 8.324509
1598.030, 9.041916
1598.800, 4.023407
1599.580, 11.78709
1600.350, 8.277176
1601.130, 10.75038
1601.900, 9.211975
1602.670, 11.41963
1603.450, 14.95871
1604.220, 15.72552
1605.000, 15.48753
1605.770, 17.46104
1606.540, 14.77496
1607.320, 11.19199
1608.090, 13.00937
1608.870, 17.00571
1609.640, 15.35783
1610.410, 16.72697
1611.190, 21.75410
1611.960, 20.45222
1612.740, 16.14836
1613.510, 18.84448
1614.280, 12.49356
1615.060, 14.06259
1615.830, 18.09906
1616.610, 17.30049
1617.380, 15.34344
1618.150, 15.71382
1618.930, 17.12848
1619.700, 18.99832
1620.470, 15.36214
1621.250, 16.28290
1622.020, 12.47862
1622.800, 9.413300
1623.570, 13.01495
1624.340, 15.12856
1625.120, 12.48511
1625.890, 10.91461
1626.670, 12.18410
1627.440, 13.14990
1628.210, 14.07130
1628.990, 14.99266
1629.760, 13.48294
1630.540, 12.76221
1631.310, 10.86542
1632.080, 9.940598
1632.860, 11.90573
1633.630, 11.61382
1634.410, 9.476868
1635.180, 15.75388
1635.950, 10.08080
1636.730, 8.183731
1637.500, 9.186584
1638.280, 9.455414
1639.050, 10.80634
1639.820, 11.63821
1640.600, 8.458069
1641.370, 12.32987
1642.150, 10.57262
1642.920, 11.66133
1643.690, 13.38504
1644.470, 15.20268
1645.240, 14.88725
1646.020, 13.20982
1646.790, 12.84332
1647.560, 15.88280
1648.340, 22.01625
1649.110, 27.21162
1649.890, 30.82100
1650.660, 31.95961
1651.430, 26.40518
1652.210, 19.92770
1652.980, 15.76021
1653.760, 15.53867
1654.530, 16.53607
1655.300, 13.49445
1656.080, 8.900757
1656.850, 10.72105
1657.630, 14.31628
1658.400, 10.09547
1659.170, 8.143646
1659.950, 9.009766
1660.720, 9.405823
1661.500, 10.35330
1662.270, 11.99028
1663.040, 9.160233
1663.820, 6.413193
1664.590, 14.21161
1665.370, 16.28700
1666.140, 12.04890
1666.910, 11.28175
1667.690, 11.95459
1668.460, 10.41634
1669.240, 8.253052
1670.010, 9.277740
1670.780, 12.25635
1671.560, 12.02226
1672.330, 12.71962
1673.110, 4.346725
1673.880, 8.594315
1674.650, 13.17805
1675.430, 13.00078
1676.200, 11.21844
1676.980, 11.17908
1677.750, 12.14467
1678.520, 11.45822
1679.300, 7.466858
1680.070, 12.90044
1680.850, 2.800980
1681.620, 4.631516
1682.390, 5.939056
1683.170, 6.399521
1683.940, 5.447937
1684.720, 3.818314
1685.490, 4.350662
1686.260, 5.141968
1687.040, 1.704224
1687.810, 12.55344
1688.590, 6.269592
1689.360, 4.394730
1690.130, 2.396194
1690.910, 0.6677550
1691.680, 6.080963
1692.460, 0.4666290
1693.230, 13.90283
1694.000, 9.784012
1694.780, 0.5276950
1695.550, 1.293961
1696.330, 1.559341
1697.100, 4.359161
1697.870, 8.837692
1698.650, 12.46529
1699.420, 8.533051
1700.200, 8.115036
1700.970, 14.69800
1701.740, 13.31888
1702.520, 18.11472
1703.290, 14.40151
1704.070, 5.366241
1704.840, 6.260925
1705.610, 6.866531
1706.390, 6.970123
1707.160, 5.357620
1707.940, 0.8640900
1708.710, 0.4967190
1709.480, 5.363235
1710.260, 0.5977020
1711.030, 0.2369380
1711.810, 10.49496
1712.580, 9.914780
1713.350, 4.294601
1714.130, 5.595337
1714.900, 9.119034
1715.680, 6.595688
1716.450, 3.495285
1717.220, 6.282837
1718.000, 8.240341
1718.770, 2.796799
1719.550, 0.3103640
1720.320, 6.956985
1721.090, 9.086273
1721.870, 8.867523
1722.640, 8.721939
1723.420, 8.152725
1724.190, 7.153458
1724.960, 7.737152
1725.740, 8.944794
1726.510, 7.568405
1727.290, 7.274948
1728.060, 5.077454
1728.830, 4.179932
1729.610, 5.832489
1730.380, 4.626877
1731.160, 5.238708
1731.930, 4.615158
1732.700, 5.737579
1733.480, 8.339951
1734.250, 8.253448
1735.030, 5.317902
1735.800, 2.582321
1736.570, 5.330704
1737.350, 8.181046
1738.120, 7.495422
1738.900, 8.136749
1739.670, 11.10104
1740.440, 9.848297
1741.220, 7.102509
1741.990, 4.877686
1742.760, 2.156815
1743.540, 1.770889
1744.310, 6.707932
1745.090, 5.325821
1745.860, 9.896652
1746.630, 7.285431
1747.410, 5.344177
1748.180, 7.081863
1748.960, 6.719528
1749.730, 5.171173
1750.500, 4.484741
1751.280, 3.774277
1752.050, 4.975281
1752.830, 9.281754
1753.600, 0.1131590
1754.370, 4.745361
1755.150, 12.98453
1755.920, 10.27266
1756.700, 7.397720
1757.470, 4.669769
1758.240, 7.780746
1759.020, 9.330704
1759.790, 7.549591
1760.570, 7.302460
1761.340, 8.229279
1762.110, 8.950043
1762.890, 8.119751
1763.660, 0.8084260
1764.440, 2.534058
1765.210, 5.196609
1765.980, 3.747147
1766.760, 1.734619
1767.530, 5.007034
1768.310, 9.126419
1769.080, 8.688736
1769.850, 7.240997
1770.630, 9.771225
1771.400, 13.23586
1772.180, 23.63896
1772.950, 19.06799
1773.720, 12.69301
1774.500, 14.44695
1775.270, 12.40442
1776.050, 8.216812
1776.820, 5.914307
1777.590, 6.467758
1778.370, 5.607773
1779.140, 5.394058
1779.920, 10.58827
1780.690, 9.662445
1781.460, 8.724548
1782.240, 8.737610
1783.010, 8.569489
1783.790, 9.342560
1784.560, 5.286453
1785.330, 6.577988
1786.110, 6.410568
1786.880, 2.818451
1787.660, 4.028656
1788.430, 7.236969
1789.200, 4.945847
1789.980, 6.745865
1790.750, 1.907898
1791.530, 2.143021
1792.300, 5.837189
1793.070, 9.537949
1793.850, 2.603760
1794.620, 3.506638
1795.400, 5.936554
1796.170, 3.911514
1796.940, 3.300568
1797.720, 4.679688
1798.490, 4.410843
1799.270, 4.865051
1800.040, 4.395309
1800.810, 5.710693
1801.590, 3.915588
1802.360, 7.621002
1803.140, 6.212158
1803.910, 1.925980
1804.680, 1.481689
1805.460, 2.420441
1806.230, 2.814255
1807.010, 5.706100
1807.780, 7.463013
1808.550, 5.974945
1809.330, 7.490936
1810.100, 5.540009
1810.880, 4.716110
1811.650, 4.834915
1812.420, 5.728729
1813.200, 4.906967
1813.970, 9.451279
1814.750, 4.479584
1815.520, 3.830444
1816.290, 8.757385
1817.070, 7.972870
1817.840, 3.020370
1818.620, 3.828918
1819.390, 7.133759
1820.160, 5.213623
1820.940, 5.509521
1821.710, 1.282944
1822.490, 6.870346
1823.260, 0.8239590
1824.030, 3.035812
1824.810, 7.130585
1825.580, 9.218399
1826.360, 8.603516
1827.130, 5.209351
1827.900, 3.711197
1828.680, 4.712082
1829.450, 5.123077
1830.230, 5.870926
1831.000, 3.880829
1831.770, 5.468735
1832.550, 4.190704
1833.320, 5.134659
1834.100, 2.607651
1834.870, 2.227646
1835.640, 4.830643
1836.420, 2.573669
1837.190, 0.4741820
1837.970, 0.5032200
1838.740, 1.812271
1839.510, 1.844315
1840.290, 0.5643460
1841.060, 2.847397
1841.840, 4.998444
1842.610, 0.9765320
1843.380, 2.768616
1844.160, 8.3309999E-03
1844.930, 2.855698
1845.710, 3.290756
1846.480, 7.726379
1847.250, 6.631424
1848.030, 1.600479
1848.800, 2.845551
1849.580, 7.069611
1850.350, 7.375671
1851.120, 5.634705
1851.900, 5.806778
1852.670, 8.599838
1853.450, 4.464920
1854.220, 3.922974
1854.990, 5.802048
1855.770, 4.018097
1856.540, 5.564224
1857.310, 3.582306
1858.090, 2.956360
1858.860, 5.558395
1859.640, 6.409454
1860.410, 7.217514
1861.180, 5.708557
1861.960, 3.540573
1862.730, 2.912598
1863.510, 0.9293820
1864.280, 4.808197
1865.050, 7.868805
1865.830, 6.115402
1866.600, 6.130966
1867.380, 4.888962
1868.150, 6.484528
1868.920, 7.617371
1869.700, 4.299911
1870.470, 5.726395
1871.250, 6.001389
1872.020, 6.259857
1872.790, 6.220276
1873.570, 6.279648
1874.340, 8.432022
1875.120, 7.753357
1875.890, 3.832443
1876.660, 2.578018
1877.440, 1.978546
1878.210, 4.667084
1878.990, 9.4450004E-03
1879.760, 4.060455
1880.530, 0.3552700
1881.310, 0.9267880
1882.080, 2.358383
1882.860, 3.588928
1883.630, 3.550446
1884.400, 4.177917
1885.180, 5.303833
1885.950, 4.464233
1886.730, 4.781586
1887.500, 6.822891
1888.270, 3.772949
1889.050, 6.063644
1889.820, 5.755615
1890.600, 2.133545
1891.370, 3.097397
1892.140, 4.908279
1892.920, 0.7528840
1893.690, 3.607407
1894.470, 5.171677
1895.240, 4.224396
1896.010, 4.327576
1896.790, 3.135895
1897.560, 3.213150
1898.340, 3.313354
1899.110, 2.001526
1899.880, 2.701614
1900.660, 1.569641
1901.430, 2.753601
1902.210, 4.337524
1902.980, 2.344360
1903.750, 1.339828
1904.530, 2.450058
1905.300, 5.397095
1906.080, 2.427063
1906.850, 0.5450440
1907.620, 1.201630
1908.400, 0.4159240
1909.170, 6.676361
1909.950, 6.475754
1910.720, 4.071091
1911.490, 4.098099
1912.270, 2.230270
1913.040, 0.9983830
1913.820, 0.1865840
1914.590, 2.985916
1915.360, 0.1350860
1916.140, 2.686081
1916.910, 5.290512
1917.690, 1.583878
1918.460, 0.3248440
1919.230, 4.754013
1920.010, 6.369812
1920.780, 3.102524
1921.560, 0.6071780
1922.330, 3.0029001E-02
1923.100, 3.609619
1923.880, 5.753159
1924.650, 3.081619
1925.430, 4.822021
1926.200, 7.528320
1926.970, 2.076553
1927.750, 2.156723
1928.520, 3.175827
1929.300, 2.917175
1930.070, 2.292038
1930.840, 3.846146
1931.620, 7.639221
1932.390, 4.812180
1933.170, 6.409424
1933.940, 1.571564
1934.710, 0.6406400
1935.490, 6.561661
1936.260, 3.322586
1937.040, 4.697906
1937.810, 6.907684
1938.580, 3.738388
1939.360, 1.515091
1940.130, 2.159714
1940.910, 2.550262
1941.680, 4.163773
1942.450, 5.317169
1943.230, 2.778488
1944.000, 2.015762
1944.780, 2.028931
1945.550, 2.316040
1946.320, 5.737061
1947.100, 0.9970090
1947.870, 4.557892
1948.650, 7.500687
1949.420, 5.423416
1950.190, 4.907059
1950.970, 2.024643
1951.740, 1.607132
1952.520, 0.9205780
1953.290, 0.8989110
1954.060, 1.334183
1954.840, 2.306396
1955.610, 4.521515
1956.390, 4.871124
1957.160, 4.375092
1957.930, 5.996002
1958.710, 1.978836
1959.480, 1.796417
1960.260, 1.154099
1961.030, 0.1844480
1961.800, 2.880615
1962.580, 1.851410
1963.350, 0.8886870
1964.130, 4.623260
1964.900, 2.047150
1965.670, 7.287979
1966.450, 4.715714
1967.220, 1.402405
1968.000, 0.6520390
1968.770, 0.7267000
1969.540, 0.7351680
1970.320, 0.7425840
1971.090, 3.476898
1971.870, 2.616333
1972.640, 1.509445
1973.410, 5.140991
1974.190, 3.422943
1974.960, 3.272751
1975.730, 2.519485
1976.510, 3.533112
1977.280, 1.719376
1978.060, 0.9419250
1978.830, 0.9471280
1979.600, 0.9932250
1980.380, 5.018631
1981.150, 0.4405210
1981.930, 2.705231
1982.700, 4.741821
1983.470, 4.274323
1984.250, 3.447678
1985.020, 6.086960
1985.800, 6.524658
1986.570, 1.810745
1987.340, 5.6290001E-02
1988.120, 3.188324
1988.890, 3.474838
1989.670, 2.011246
1990.440, 2.638550
1991.210, 3.772751
1991.990, 5.979874
1992.760, 5.468887
1993.540, 3.159821
1994.310, 4.656525
1995.080, 4.833237
1995.860, 5.753876
1996.630, 5.979797
1997.410, 3.156235
1998.180, 1.280594
1998.950, 2.242874
1999.730, 2.509094
2000.500, 5.127731
2001.280, 8.011230
2002.050, 6.811203
2002.820, 2.065079
2003.600, 0.6660920
2004.370, 0.9181370
2005.150, 3.802292
2005.920, 4.949417
2006.690, 4.414047
2007.470, 3.795654
2008.240, 3.769928
2009.020, 3.126022
2009.790, 2.409103
2010.560, 3.607101
2011.340, 5.736771
2012.110, 5.333694
2012.890, 3.167572
2013.660, 3.671402
2014.430, 5.019058
2015.210, 4.429855
2015.980, 5.280579
2016.760, 5.034256
2017.530, 8.333908
2018.300, 0.2285160
2019.080, 7.862076
2019.850, 4.966629
2020.630, 1.281113
2021.400, 2.939575
2022.170, 6.750549
2022.950, 9.764969
2023.720, 5.853378
2024.500, 5.674774
2025.270, 4.555557
2026.040, 5.977905
2026.820, 7.094223
2027.590, 5.111496
2028.370, 1.044800
2029.140, 2.691071
2029.910, 3.360367
2030.690, 1.995651
2031.460, 2.142929
2032.240, 2.801193
2033.010, 2.033417
2033.780, 2.480667
2034.560, 6.315903
2035.330, 7.357147
2036.110, 6.220398
2036.880, 4.317627
2037.650, 2.688873
2038.430, 3.514114
2039.200, 1.614365
2039.980, 3.492615
2040.750, 1.754868
2041.520, 2.395142
2042.300, 3.348404
2043.070, 0.5306700
2043.850, 3.121964
2044.620, 5.268265
2045.390, 5.610580
2046.170, 1.657898
2046.940, 2.161240
2047.720, 7.819580
2048.490, 8.762955
2049.260, 7.976517
2050.040, 9.874130
2050.810, 7.540756
2051.590, 4.442383
2052.360, 3.354645
2053.130, 2.851334
2053.910, 4.245758
2054.680, 1.497711
2055.460, 0.4397580
2056.230, 2.273239
2057.000, 2.451340
2057.780, 0.7114560
2058.550, 4.620651
2059.330, 3.893890
2060.100, 2.841187
2060.870, 0.8594670
2061.650, 1.544601
2062.420, 1.801712
2063.200, 2.151886
2063.970, 2.285095
2064.740, 2.761414
2065.520, 3.897766
2066.290, 4.731308
2067.070, 6.565887
2067.840, 5.003525
2068.610, 2.989258
2069.390, 3.192017
2070.160, 3.939392
2070.940, 7.402313
2071.710, 2.427322
2072.480, 3.459610
2073.260, 6.997925
2074.030, 4.117889
2074.810, 6.778595
2075.580, 0.4803620
2076.350, 0.4067840
2077.130, 4.381058
2077.900, 5.596970
2078.680, 4.841217
2079.450, 7.238556
2080.220, 4.719482
2081.000, 0.7410130
2081.770, 2.078644
2082.550, 2.625366
2083.320, 1.161209
2084.090, 1.164261
2084.870, 2.626419
2085.640, 2.788666
2086.420, 0.1599430
2087.190, 2.997467
2087.960, 6.242035
2088.740, 6.372681
2089.510, 2.341858
2090.290, 2.230148
2091.060, 1.743561
2091.830, 6.548065
2092.610, 8.476929
2093.380, 7.522263
2094.160, 2.876740
2094.930, 4.160339
2095.700, 0.1510310
2096.480, 2.567108
2097.250, 0.2520450
2098.020, 1.751785
2098.800, 4.720505
2099.570, 6.297974
2100.350, 4.160461
2101.120, 1.576172
2101.890, 1.737122
2102.670, 0.6021880
2103.440, 1.504364
2104.220, 2.843842
2104.990, 1.324448
2105.760, 1.067734
2106.540, 1.460861
2107.310, 0.6421050
2108.090, 5.416275
2108.860, 4.460571
2109.630, 3.563492
2110.410, 3.162537
2111.180, 4.252686
2111.960, 5.785980
2112.730, 3.189377
2113.500, 6.155930
2114.280, 2.299576
2115.050, 1.282242
2115.830, 4.879028
2116.600, 2.118942
2117.370, 1.680008
2118.150, 1.736481
2118.920, 3.483139
2119.700, 1.699814
2120.470, 2.420624
2121.240, 3.018539
2122.020, 6.880615
2122.790, 2.443802
2123.570, 1.662140
2124.340, 2.595612
2125.110, 3.280212
2125.890, 4.322937
2126.660, 2.878357
2127.440, 2.338898
2128.210, 2.353577
2128.980, 2.294418
2129.760, 1.216385
2130.530, 0.6224820
2131.310, 5.483704
2132.080, 8.508087
2132.850, 5.886597
2133.630, 4.770233
2134.400, 3.774292
2135.180, 8.064468
2135.950, 7.155792
2136.720, 2.566238
2137.500, 3.519836
2138.270, 1.596588
2139.050, 6.388489
2139.820, 3.885498
2140.590, 6.345673
2141.370, 4.960983
2142.140, 4.478424
2142.920, 2.841019
2143.690, 1.692749
2144.460, 3.726624
2145.240, 3.112213
2146.010, 3.960968
2146.790, 6.627838
2147.560, 5.770004
2148.330, 6.881912
2149.110, 6.610306
2149.880, 5.361862
2150.660, 6.943558
2151.430, 8.165390
2152.200, 7.009323
2152.980, 5.523438
2153.750, 3.297562
2154.530, 2.832932
2155.300, 5.836472
2156.070, 5.195145
2156.850, 4.794937
2157.620, 6.472885
2158.400, 4.626984
2159.170, 2.863235
2159.940, 4.834595
2160.720, 6.256134
2161.490, 5.039795
2162.270, 3.112610
2163.040, 1.585129
2163.810, 3.531769
2164.590, 5.102585
2165.360, 4.838120
2166.140, 0.9612270
2166.910, 1.960510
2167.680, 5.702927
2168.460, 4.989532
2169.230, 2.223328
2170.010, 3.709198
2170.780, 3.723480
2171.550, 2.044907
2172.330, 0.9237520
2173.100, 5.468063
2173.880, 4.772675
2174.650, 4.908432
2175.420, 3.051361
2176.200, 4.327728
2176.970, 6.050949
2177.750, 2.568298
2178.520, 2.986786
2179.290, 4.509552
2180.070, 0.7183530
2180.840, 1.913269
2181.620, 5.024353
2182.390, 5.569565
2183.160, 5.447937
2183.940, 2.934479
2184.710, 3.578171
2185.490, 5.592972
2186.260, 3.833954
2187.030, 5.305069
2187.810, 5.184280
2188.580, 1.850693
2189.360, 2.531464
2190.130, 0.3881230
2190.900, 0.1806640
2191.680, 2.791901
2192.450, 1.987595
2193.230, 4.479599
2194.000, 4.456345
2194.770, 5.485306
2195.550, 3.291397
2196.320, 3.808578
2197.100, 1.575912
2197.870, 3.230667
2198.640, 1.616226
2199.420, 2.916946
2200.190, 5.450760
2200.970, 1.733658
2201.740, 2.005661
2202.510, 6.612839
2203.290, 1.725067
2204.060, 5.620438
2204.840, 2.875916
2205.610, 0.9884950
2206.380, 3.680191
2207.160, 0.3059840
2207.930, 6.203903
2208.710, 1.057892
2209.480, 2.815994
2210.250, 3.198776
2211.030, 4.883072
2211.800, 4.534348
2212.570, 5.938858
2213.350, 7.159454
2214.120, 2.060135
2214.900, 3.713913
2215.670, 4.839798
2216.440, 4.152740
2217.220, 8.131805
2217.990, 5.061920
2218.770, 2.360718
2219.540, 3.390030
2220.310, 3.453400
2221.090, 4.571869
2221.860, 2.957382
2222.640, 1.468979
2223.410, 2.094650
2224.180, 1.920410
2224.960, 3.208252
2225.730, 2.881134
2226.510, 2.712891
2227.280, 5.918930
2228.050, 6.422028
2228.830, 7.513214
2229.600, 6.111755
2230.380, 1.517075
2231.150, 4.211456
2231.920, 6.617905
2232.700, 6.344406
2233.470, 4.569992
2234.250, 1.285629
2235.020, 3.874298
2235.790, 4.693054
2236.570, 3.960876
2237.340, 3.358734
2238.120, 0.9396510
2238.890, 0.7743530
2239.660, 3.690277
2240.440, 6.229950
2241.210, 4.268707
2241.990, 3.987473
2242.760, 4.225281
2243.530, 7.757156
2244.310, 10.45108
2245.080, 8.066040
2245.860, 7.305038
2246.630, 6.101257
2247.400, 3.176529
2248.180, 3.694824
2248.950, 4.124161
2249.730, 1.394989
2250.500, 4.743927
2251.270, 5.560883
2252.050, 5.626846
2252.820, 5.783905
2253.600, 5.818985
2254.370, 5.854111
2255.140, 6.147232
2255.920, 7.074417
2256.690, 5.601639
2257.470, 6.629868
2258.240, 7.804977
2259.010, 9.011078
2259.790, 5.338226
2260.560, 2.902405
2261.340, 3.932617
2262.110, 4.731903
2262.880, 4.152573
2263.660, 5.759796
2264.430, 3.771988
2265.210, 1.805389
2265.980, 8.091431
2266.750, 6.305817
2267.530, 5.778244
2268.300, 0.2813420
2269.080, 4.217834
2269.850, 7.630020
2270.620, 3.005173
2271.400, 2.901367
2272.170, 1.046585
2272.950, 6.801788
2273.720, 7.736237
2274.490, 6.785690
2275.270, 6.028122
2276.040, 5.269089
2276.820, 8.930511
2277.590, 3.212982
2278.360, 4.104401
2279.140, 6.931213
2279.910, 3.084015
2280.690, 3.157806
2281.460, 4.557587
2282.230, 3.759399
2283.010, 4.744492
2283.780, 3.744766
2284.560, 0.9874880
2285.330, 1.007233
2286.100, 0.1570130
2286.880, 1.864517
2287.650, 2.885025
2288.430, 2.952545
2289.200, 4.856033
2289.970, 1.963455
2290.750, 0.9048770
2291.520, 2.974213
2292.300, 6.902847
2293.070, 3.890427
2293.840, 1.622971
2294.620, 5.248642
2295.390, 2.298233
2296.170, 0.4038240
2296.940, 2.160385
2297.710, 5.087936
2298.490, 3.143509
2299.260, 2.176056
2300.040, 1.352570
2300.810, 5.237061
2301.580, 2.397568
2302.360, 3.470062
2303.130, 5.096848
2303.910, 3.114365
2304.680, 1.844635
2305.450, 4.792587
2306.230, 5.583542
2307.000, 2.278488
2307.780, 8.598511
2308.550, 2.910416
2309.320, 2.111267
2310.100, 3.261169
2310.870, 1.785965
2311.650, 4.659790
2312.420, 3.838516
2313.190, 4.998245
2313.970, 8.221924
2314.740, 3.906601
2315.520, 5.678268
2316.290, 5.355896
2317.060, 6.833496
2317.840, 3.609100
2318.610, 0.6603550
2319.390, 1.156708
2320.160, 8.143738
2320.930, 6.884720
2321.710, 0.4606930
2322.480, 7.347626
2323.260, 6.017532
2324.030, 7.721436
2324.800, 7.499298
2325.580, 6.730133
2326.350, 7.813950
2327.130, 6.017761
2327.900, 8.408524
2328.670, 9.352280
2329.450, 11.28697
2330.220, 5.260666
2330.990, 6.202332
2331.770, 0.9181210
2332.540, 5.685730
2333.320, 4.918335
2334.090, 2.746918
2334.860, 3.796463
2335.640, 5.501968
2336.410, 2.807480
2337.190, 0.5049440
2337.960, 2.010376
2338.730, 7.744797
2339.510, 4.442200
2340.280, 4.472565
2341.060, 4.171906
2341.830, 4.105270
2342.600, 3.998169
2343.380, 3.594467
2344.150, 4.274017
2344.930, 3.917511
2345.700, 4.095978
2346.470, 3.558426
2347.250, 4.814819
2348.020, 4.910187
2348.800, 4.782516
2349.570, 5.388809
2350.340, 5.170410
2351.120, 5.952942
2351.890, 6.513458
2352.670, 3.211914
2353.440, 2.826340
2354.210, 2.554718
2354.990, 0.4849240
2355.760, 0.4999390
2356.540, 0.6992190
2357.310, 0.2239990
2358.080, 0.2661290
2358.860, 2.953369
2359.630, 5.067825
2360.410, 4.061249
2361.180, 5.668289
2361.950, 8.030640
2362.730, 5.001953
2363.500, 6.406219
2364.280, 7.386429
2365.050, 5.095642
2365.820, 4.492630
2366.600, 3.744766
2367.370, 3.584854
2368.150, 0.2599030
2368.920, 4.763824
2369.690, 1.868820
2370.470, 3.107162
2371.240, 3.442245
2372.020, 2.547440
2372.790, 2.244598
2373.560, 4.167709
2374.340, 1.556229
2375.110, 5.250778
2375.890, 4.339767
2376.660, 4.567780
2377.430, 5.521729
2378.210, 4.594604
2378.980, 4.575409
2379.760, 3.894287
2380.530, 1.173111
2381.300, 6.658920
2382.080, 2.520676
2382.850, 3.483093
2383.630, 5.153793
2384.400, 5.837448
2385.170, 6.666077
2385.950, 2.013718
2386.720, 2.669373
2387.500, 2.996979
2388.270, 3.442551
2389.040, 4.231110
2389.820, 8.340637
2390.590, 8.627136
2391.370, 4.928619
2392.140, 4.071075
2392.910, 3.395508
2393.690, 3.037903
2394.460, 3.967300
2395.240, 6.108658
2396.010, 5.675980
2396.780, 5.586700
2397.560, 2.577972
2398.330, 3.699265
2399.110, 3.609528
2399.880, 0.1918030
2400.650, 3.869049
2401.430, 8.977371
2402.200, 9.503815
2402.980, 3.302353
2403.750, 1.919556
2404.520, 3.761353
2405.300, 3.392120
2406.070, 2.394867
2406.850, 5.720642
2407.620, 3.622421
2408.390, 0.5771790
2409.170, 1.286957
2409.940, 2.339706
2410.720, 4.384460
2411.490, 0.3894810
2412.260, 1.443268
2413.040, 2.498032
2413.810, 3.174789
2414.590, 1.209274
2415.360, 6.217056
2416.130, 5.406845
2416.910, 7.762650
2417.680, 2.643448
2418.460, 8.601242
2419.230, 5.933060
2420.000, 5.747879
2420.780, 3.368698
2421.550, 3.832520
2422.330, 4.974350
2423.100, 4.634216
2423.870, 5.368057
2424.650, 4.367096
2425.420, 3.367188
2426.200, 1.293289
2426.970, 2.758636
2427.740, 3.174744
2428.520, 2.610840
2429.290, 3.668976
2430.070, 4.726089
2430.840, 7.6233000E-02
2431.610, 3.301376
2432.390, 0.4855650
2433.160, 3.174728
2433.940, 1.660080
2434.710, 0.1947630
2435.480, 3.833405
2436.260, 0.6274260
2437.030, 0.3656620
2437.810, 5.341919
2438.580, 4.354172
2439.350, 1.501434
2440.130, 2.388718
2440.900, 1.971008
2441.680, 5.529297
2442.450, 4.902466
2443.220, 1.442780
2444.000, 1.180115
2444.770, 2.992447
2445.540, 3.425812
2446.320, 3.812149
2447.090, 4.649521
2447.870, 2.772522
2448.640, 3.695053
2449.420, 4.280594
2450.190, 4.275009
2450.960, 3.646790
2451.740, 3.363251
2452.510, 3.804733
2453.280, 4.487244
2454.060, 1.406906
2454.830, 0.6125950
2455.610, 2.438309
2456.380, 7.727188
2457.150, 1.478088
2457.930, 0.8699650
2458.700, 2.648560
2459.480, 1.172104
2460.250, 5.968689
2461.020, 3.102768
2461.800, 2.996948
2462.570, 4.5929998E-03
2463.350, 1.342773
2464.120, 2.120193
2464.890, 6.537231
2465.670, 5.940262
2466.440, 1.941345
2467.220, 2.673416
2467.990, 2.381638
2468.760, 3.962891
2469.540, 4.239182
2470.310, 6.342499
2471.090, 5.411850
2471.860, 4.553314
2472.630, 4.320831
2473.410, 6.635376
2474.180, 6.553925
2474.960, 3.463547
2475.730, 4.088745
2476.500, 2.279984
2477.280, 0.8342440
2478.050, 5.883667
2478.830, 4.014984
2479.600, 3.757843
2480.370, 6.745712
2481.150, 3.843628
2481.920, 4.704880
2482.700, 3.095978
2483.470, 4.446365
2484.240, 2.515778
2485.020, 4.725220
2485.790, 3.434708
2486.570, 2.985229
2487.340, 5.414764
2488.110, 3.235336
2488.890, 7.9500005E-03
2489.660, 3.601471
2490.440, 4.563034
2491.210, 4.360916
2491.980, 1.493805
2492.760, 2.597610
2493.530, 2.6566001E-02
2494.310, 8.9034997E-02
2495.080, 4.424942
2495.850, 6.363602
2496.630, 2.107178
2497.400, 2.516785
2498.180, 5.549408
2498.950, 2.670197
2499.720, 3.402008
2500.500, 0.1698460
2501.270, 3.580704
2502.050, 2.773590
2502.820, 3.058517
2503.590, 3.837479
2504.370, 2.835693
2505.140, 1.293945
2505.920, 3.250244
2506.690, 4.480637
2507.460, 3.466034
2508.240, 3.031799
2509.010, 4.320602
2509.790, 4.421417
2510.560, 5.576248
2511.330, 5.392151
2512.110, 5.196060
2512.880, 3.491013
2513.660, 3.261978
2514.430, 0.3979800
2515.200, 4.328018
2515.980, 4.489075
2516.750, 5.943130
2517.530, 2.590210
2518.300, 2.610352
2519.070, 1.8494001E-02
2519.850, 3.087631
2520.620, 4.742798
2521.400, 0.3520050
2522.170, 0.4815370
2522.940, 3.175110
2523.720, 3.693695
2524.490, 3.110306
2525.270, 3.428955
2526.040, 3.794617
2526.810, 0.6392520
2527.590, 0.2506560
2528.360, 1.092712
2529.140, 3.454681
2529.910, 6.791138
2530.680, 0.9496000
2531.460, 2.746078
2532.230, 1.088623
2533.010, 1.984192
2533.780, 0.5527800
2534.550, 1.262680
2535.330, 5.085312
2536.100, 3.902344
2536.880, 1.232422
2537.650, 0.6974950
2538.420, 1.785614
2539.200, 1.627731
2539.970, 1.283905
2540.750, 4.975311
2541.520, 2.414764
2542.290, 2.227524
2543.070, 4.214462
2543.840, 1.591614
2544.620, 3.505753
2545.390, 5.321930
2546.160, 2.555862
2546.940, 2.946808
2547.710, 3.687759
2548.490, 1.566956
2549.260, 2.680954
2550.030, 2.384003
2550.810, 4.748398
2551.580, 3.742462
2552.360, 3.973557
2553.130, 1.037674
2553.900, 0.4171450
2554.680, 1.427841
2555.450, 1.281525
2556.230, 3.996017
2557.000, 4.017426
2557.770, 3.979858
2558.550, 1.106354
2559.320, 3.048859
2560.090, 3.104858
2560.870, 3.363922
2561.640, 3.323013
2562.420, 2.241135
2563.190, 3.032257
2563.970, 2.675415
2564.740, 3.264603
2565.510, 3.522797
2566.290, 1.798050
2567.060, 2.546280
2567.830, 2.686554
2568.610, 2.491837
2569.380, 2.527145
2570.160, 0.3035430
2570.930, 1.597626
2571.700, 1.869843
2572.480, 4.526047
2573.250, 2.886444
2574.030, 4.8679998E-03
2574.800, 1.126389
2575.570, 2.680466
2576.350, 2.561935
2577.120, 1.485413
2577.900, 2.000885
2578.670, 3.979370
2579.440, 1.513824
2580.220, 3.212296
2580.990, 1.622742
2581.770, 6.606979
2582.540, 4.308472
2583.310, 1.346405
2584.090, 2.547897
2584.860, 4.383347
2585.640, 2.573822
2586.410, 1.173798
2587.180, 1.585098
2587.960, 0.9060520
2588.730, 2.555267
2589.510, 4.275574
2590.280, 3.109863
2591.050, 0.9889370
2591.830, 2.244217
2592.600, 2.753433
2593.380, 4.581818
2594.150, 4.823029
2594.920, 1.824219
2595.700, 0.8914340
2596.470, 0.9255980
2597.250, 2.144760
2598.020, 4.165253
2598.790, 1.169998
2599.570, 3.080078
2600.340, 4.722397
2601.120, 5.640152
2601.890, 3.952255
2602.660, 6.896347
2603.440, 3.584549
2604.210, 4.087784
2604.990, 2.536957
2605.760, 1.434128
2606.530, 2.322250
2607.310, 1.217346
2608.080, 4.891418
2608.860, 2.854446
2609.630, 4.673462
2610.400, 4.922409
2611.180, 3.171356
2611.950, 5.991959
2612.730, 6.451843
2613.500, 3.621857
2614.270, 4.458298
2615.050, 1.467285
2615.820, 4.689194
2616.600, 6.957077
2617.370, 4.337921
2618.140, 7.740753
2618.920, 5.172516
2619.690, 3.326706
2620.470, 4.331497
2621.240, 2.984879
2622.010, 5.216980
2622.790, 5.251038
2623.560, 7.983047
2624.340, 8.574158
2625.110, 5.062088
2625.880, 2.592972
2626.660, 0.4747920
2627.430, 10.07974
2628.210, 4.419495
2628.980, 5.265335
2629.750, 5.973145
2630.530, 1.297913
2631.300, 3.688614
2632.080, 3.608292
2632.850, 6.387375
2633.620, 2.349945
2634.400, 4.145477
2635.170, 1.629944
2635.950, 1.656662
2636.720, 1.794327
2637.490, 2.986923
2638.270, 5.765564
2639.040, 4.063049
2639.820, 2.073486
2640.590, 0.2951510
2641.360, 2.819977
2642.140, 1.196014
2642.910, 0.6230010
2643.690, 0.9481660
2644.460, 2.827240
2645.230, 4.174286
2646.010, 11.77522
2646.780, 19.31960
2647.560, 12.14041
2648.330, 8.178284
2649.100, 3.145447
2649.880, 5.432129
2650.650, 5.057495
2651.430, 1.042511
2652.200, 0.1575470
2652.970, 6.178146
2653.750, 1.938766
2654.520, 2.927307
2655.300, 7.288788
2656.070, 2.754211
2656.840, 7.516541
2657.620, 4.458755
2658.390, 3.038971
2659.170, 3.833069
2659.940, 2.647125
2660.710, 1.386108
2661.490, 4.225021
2662.260, 5.302856
2663.040, 6.463501
2663.810, 2.872192
2664.580, 3.866791
2665.360, 2.118484
2666.130, 3.816849
2666.910, 0.1570740
2667.680, 0.7699890
2668.450, 1.567612
2669.230, 2.413010
2670.000, 6.336304
2670.780, 3.740540
2671.550, 4.114685
2672.320, 3.851746
2673.100, 2.568741
2673.870, 2.459641
2674.650, 0.4184570
2675.420, 0.7411190
2676.190, 4.341995
2676.970, 4.181473
2677.740, 5.223862
2678.520, 5.592163
2679.290, 6.595993
2680.060, 4.672943
2680.840, 4.347366
2681.610, 6.298370
2682.390, 5.741272
2683.160, 0.2578740
2683.930, 4.417633
2684.710, 1.176071
2685.480, 0.7415470
2686.250, 3.945953
2687.030, 2.686249
2687.800, 4.308670
2688.580, 4.534821
2689.350, 1.978897
2690.130, 0.1188810
2690.900, 2.5269000E-02
2691.670, 3.952377
2692.450, 0.9517670
2693.220, 0.4401550
2693.990, 6.102905
2694.770, 3.470566
2695.540, 0.1021420
2696.320, 4.625153
2697.090, 4.616531
2697.860, 2.526810
2698.640, 3.150986
2699.410, 2.392075
2700.190, 3.495087
2700.960, 6.869995
2701.730, 3.854828
2702.510, 4.799545
2703.280, 2.636185
2704.060, 1.993744
2704.830, 6.126205
2705.600, 5.788483
2706.380, 0.9492190
2707.150, 2.972351
2707.930, 5.628830
2708.700, 2.602219
2709.470, 2.242508
2710.250, 4.188080
2711.020, 2.761337
2711.800, 1.847519
2712.570, 0.8884120
2713.340, 2.476013
2714.120, 2.575638
2714.890, 4.456146
2715.670, 4.903549
2716.440, 0.2508700
2717.210, 5.338028
2717.990, 2.477112
2718.760, 3.645111
2719.540, 3.468094
2720.310, 3.492203
2721.080, 6.343781
2721.860, 2.885712
2722.630, 4.536530
2723.410, 4.220245
2724.180, 2.095856
2724.950, 0.3623810
2725.730, 2.483658
2726.500, 5.559952
2727.280, 4.733139
2728.050, 5.371902
2728.820, 7.354904
2729.600, 5.396072
2730.370, 2.420807
2731.150, 4.127762
2731.920, 3.479248
2732.690, 4.155624
2733.470, 6.177872
2734.240, 2.898026
2735.020, 4.494110
2735.790, 4.995972
2736.560, 2.552307
2737.340, 5.531494
2738.110, 2.194580
2738.890, 2.643570
2739.660, 4.576599
2740.430, 3.692505
2741.210, 3.136673
2741.980, 0.5387120
2742.760, 0.3296660
2743.530, 1.805420
2744.300, 5.450104
2745.080, 4.330734
2745.850, 5.717209
2746.630, 3.904602
2747.400, 4.732880
2748.170, 4.669083
2748.950, 4.019180
2749.720, 0.3471830
2750.500, 2.534058
2751.270, 3.660828
2752.040, 3.203522
2752.820, 3.912079
2753.590, 3.025574
2754.370, 2.165985
2755.140, 3.069275
2755.910, 3.087570
2756.690, 1.783768
2757.460, 0.4251400
2758.240, 0.4584810
2759.010, 4.233994
2759.780, 3.396317
2760.560, 0.1470180
2761.330, 2.320206
2762.110, 4.143326
2762.880, 4.478363
2763.650, 5.606277
2764.430, 3.493118
2765.200, 2.512894
2765.980, 2.465561
2766.750, 1.371155
2767.520, 0.2726750
2768.300, 1.505615
2769.070, 4.543869
2769.850, 3.426102
2770.620, 1.970230
2771.390, 3.197296
2772.170, 8.0582000E-02
2772.940, 2.505676
2773.720, 4.317993
2774.490, 2.449188
2775.260, 3.238297
2776.040, 1.679550
2776.810, 3.153503
2777.590, 4.969803
2778.360, 3.819427
2779.130, 1.789124
2779.910, 0.9167480
2780.680, 5.273285
2781.460, 1.264832
2782.230, 1.955185
2783.000, 3.939117
2783.780, 1.344711
2784.550, 0.1091610
2785.330, 0.8645320
2786.100, 3.032715
2786.870, 4.173462
2787.650, 2.572083
2788.420, 0.5637050
2789.200, 3.412094
2789.970, 5.473114
2790.740, 5.368057
2791.520, 4.058945
2792.290, 4.740768
2793.070, 2.986496
2793.840, 3.764160
2794.610, 3.409775
2795.390, 1.767288
2796.160, 2.361740
2796.940, 3.353149
2797.710, 0.5365140
2798.480, 0.1373600
2799.260, 2.415710
2800.030, 2.009430
2800.800, 2.992081
2801.580, 2.603683
2802.350, 6.8236999E-02
2803.130, 1.145660
2803.900, 2.442017
2804.680, 3.584320
2805.450, 6.019012
2806.220, 2.926208
2807.000, 4.822342
2807.770, 3.849426
2808.540, 2.566452
2809.320, 3.537292
2810.090, 3.549210
2810.870, 6.028061
2811.640, 3.799866
2812.410, 4.427628
2813.190, 0.5086670
2813.960, 4.916718
2814.740, 3.947998
2815.510, 4.891235
2816.280, 2.103394
2817.060, 2.292542
2817.830, 0.4271390
2818.610, 3.057144
2819.380, 6.530365
2820.150, 1.034470
2820.930, 3.387054
2821.700, 1.785782
2822.480, 1.796234
2823.250, 2.108582
2824.020, 3.223953
2824.800, 0.9382780
2825.570, 0.3301700
2826.350, 5.910278
2827.120, 4.697693
2827.890, 3.0670001E-03
2828.670, 3.015930
2829.440, 4.133194
2830.220, 3.574402
2830.990, 2.364777
2831.760, 3.482422
2832.540, 3.123657
2833.310, 0.5041500
2834.090, 2.688721
2834.860, 1.892014
2835.630, 2.394516
2836.410, 4.908249
2837.180, 4.918961
2837.960, 3.951691
2838.730, 4.733429
2839.500, 5.951096
2840.280, 1.072723
2841.050, 1.817307
2841.830, 1.108871
2842.600, 4.704437
2843.370, 3.248947
2844.150, 4.368408
2844.920, 4.549820
2845.700, 1.136185
2846.470, 3.173737
2847.240, 3.453217
2848.020, 4.880692
2848.790, 4.111115
2849.570, 5.558502
2850.340, 2.292709
2851.110, 3.410126
2851.890, 2.209427
2852.660, 1.804810
2853.440, 4.457291
2854.210, 6.691864
2854.980, 1.634430
2855.760, 1.138977
2856.530, 2.800461
2857.310, 6.142929
2858.080, 2.424438
2858.850, 1.630905
2859.630, 3.341354
2860.400, 3.472076
2861.180, 1.699234
2861.950, 0.9075010
2862.720, 6.203247
2863.500, 5.899948
2864.270, 3.140625
2865.050, 1.379486
2865.820, 3.234100
2866.590, 3.243698
2867.370, 4.713287
2868.140, 4.417831
2868.920, 6.191467
2869.690, 0.4888310
2870.460, 2.099564
2871.240, 1.607910
2872.010, 4.851273
2872.790, 5.072403
2873.560, 0.3567050
2874.330, 3.204971
2875.110, 1.672211
2875.880, 2.377457
2876.660, 4.988739
2877.430, 3.326691
2878.200, 6.724213
2878.980, 5.455734
2879.750, 4.576248
2880.530, 0.3927460
2881.300, 2.2644000E-02
2882.070, 2.270096
2882.850, 3.516525
2883.620, 4.622955
2884.400, 2.943359
2885.170, 4.257751
2885.940, 3.607117
2886.720, 4.087479
2887.490, 3.433533
2888.270, 0.7166290
2889.040, 2.539749
2889.810, 5.763824
2890.590, 6.082016
2891.360, 2.045059
2892.140, 2.471420
2892.910, 2.189835
2893.680, 4.488205
2894.460, 0.6624150
2895.230, 6.483414
2896.010, 3.614441
2896.780, 4.746658
2897.550, 6.245850
2898.330, 7.035355
2899.100, 4.086823
2899.880, 4.015289
2900.650, 5.412735
2901.420, 4.584167
2902.200, 1.680618
2902.970, 3.044128
2903.750, 4.243790
2904.520, 1.221436
2905.290, 1.024109
2906.070, 0.4161830
2906.840, 1.308365
2907.620, 4.545990
2908.390, 3.626602
2909.160, 3.637207
2909.940, 2.941788
2910.710, 3.571640
2911.490, 3.911423
2912.260, 4.196152
2913.030, 2.964172
2913.810, 1.249115
2914.580, 1.595062
2915.350, 1.428360
2916.130, 4.456360
2916.900, 5.738342
2917.680, 5.186935
2918.450, 5.545395
2919.230, 2.309357
2920.000, 2.804291
2920.770, 1.645859
2921.550, 2.879211
2922.320, 4.289291
2923.090, 0.8632970
2923.870, 1.925278
2924.640, 2.366959
2925.420, 3.057953
2926.190, 1.129883
2926.960, 1.635651
2927.740, 4.445602
2928.510, 4.734558
2929.290, 3.056503
2930.060, 4.241379
2930.830, 3.554245
2931.610, 6.050598
2932.380, 7.129929
2933.160, 6.221237
2933.930, 6.231522
2934.700, 4.814789
2935.480, 5.074036
2936.250, 8.480225
2937.030, 7.527420
2937.800, 6.270584
2938.570, 4.057602
2939.350, 2.884689
2940.120, 5.563751
2940.900, 4.136795
2941.670, 3.388824
2942.440, 6.796799
2943.220, 5.515915
2943.990, 4.624039
2944.770, 7.206131
2945.540, 6.424179
2946.310, 5.956223
2947.090, 3.606232
2947.860, 3.201218
2948.640, 5.229187
2949.410, 6.474106
2950.180, 6.184891
2950.960, 5.088974
2951.730, 6.518768
2952.510, 2.587540
2953.280, 3.039352
2954.050, 4.443146
2954.830, 3.478912
2955.600, 3.350616
2956.380, 2.968277
2957.150, 4.867950
2957.920, 6.539597
2958.700, 6.177216
2959.470, 6.310806
2960.250, 2.768387
2961.020, 6.452896
2961.790, 5.119476
2962.570, 3.888504
2963.340, 6.023911
2964.120, 7.552292
2964.890, 2.148636
2965.660, 4.224960
2966.440, 0.7391660
2967.210, 3.006531
2967.990, 1.599869
2968.760, 4.082153
2969.530, 5.231430
2970.310, 4.868729
2971.080, 5.531998
2971.860, 6.451233
2972.630, 1.834427
2973.400, 3.305801
2974.180, 4.668564
2974.950, 5.891006
2975.730, 4.440384
2976.500, 2.803741
2977.270, 6.500061
2978.050, 1.249344
2978.820, 1.799561
2979.600, 1.154022
2980.370, 6.750504
2981.140, 6.431580
2981.920, 5.945618
2982.690, 3.954590
2983.470, 3.963699
2984.240, 4.301788
2985.010, 5.467606
2985.790, 3.527588
2986.560, 3.540497
2987.340, 5.805344
2988.110, 5.771164
2988.880, 2.248413
2989.660, 3.403137
2990.430, 4.064804
2991.210, 5.354385
2991.980, 5.293930
2992.750, 1.353424
2993.530, 3.017822
2994.300, 2.107178
2995.080, 3.254318
2995.850, 3.607986
2996.620, 4.876129
2997.400, 4.557251
2998.170, 1.299301
2998.950, 0.7923580
2999.720, 4.954422
3000.490, 4.642426
3001.270, 2.982330
3002.040, 2.673325
3002.820, 4.147949
3003.590, 0.6592100
3004.360, 3.463058
3005.140, 3.682281
3005.910, 1.388718
3006.690, 0.3041080
3007.460, 4.892731
3008.230, 5.405319
3009.010, 4.931839
3009.780, 0.6646880
3010.560, 0.8215330
3011.330, 3.349426
3012.100, 1.337463
3012.880, 2.838211
3013.650, 3.272339
3014.430, 3.625961
3015.200, 0.4315030
3015.970, 1.019379
3016.750, 2.113007
3017.520, 2.017059
3018.300, 1.509048
3019.070, 0.7161710
3019.840, 7.293182
3020.620, 2.964096
3021.390, 1.811935
3022.170, 2.667725
3022.940, 1.687469
3023.710, 4.395126
3024.490, 3.462891
3025.260, 2.886566
3026.040, 1.914169
3026.810, 3.073700
3027.580, 2.719147
3028.360, 4.307541
3029.130, 1.831848
3029.910, 4.674072
3030.680, 0.3557590
3031.450, 1.492966
3032.230, 4.290604
3033.000, 1.218170
3033.780, 1.500671
3034.550, 2.709061
3035.320, 6.853409
3036.100, 3.996674
3036.870, 4.509872
3037.650, 5.317963
3038.420, 3.581985
3039.190, 3.515961
3039.970, 3.804810
3040.740, 4.076614
3041.510, 2.918350
3042.290, 0.2310030
3043.060, 0.4514920
3043.840, 5.187851
3044.610, 2.021133
3045.380, 3.544876
3046.160, 1.839005
3046.930, 2.737503
3047.710, 3.548935
3048.480, 2.603287
3049.250, 3.335770
3050.030, 2.930206
3050.800, 3.013535
3051.580, 3.258789
3052.350, 5.287994
3053.120, 4.416153
3053.900, 0.1362150
3054.670, 2.560059
3055.450, 3.079971
3056.220, 3.561813
3056.990, 3.562592
3057.770, 3.587280
3058.540, 5.386887
3059.320, 4.590591
3060.090, 4.085037
3060.860, 4.262436
3061.640, 2.915726
3062.410, 4.588959
3063.190, 3.592133
3063.960, 3.257202
3064.730, 4.596207
3065.510, 3.253143
3066.280, 3.294785
3067.060, 2.626587
3067.830, 2.457291
3068.600, 1.289948
3069.380, 2.635605
3070.150, 3.954193
3070.930, 2.784683
3071.700, 2.361893
3072.470, 0.1460110
3073.250, 4.339691
3074.020, 5.050293
3074.800, 2.614822
3075.570, 2.612274
3076.340, 3.526627
3077.120, 0.1799320
3077.890, 2.604019
3078.670, 2.601044
3079.440, 3.998993
3080.210, 1.979019
3080.990, 0.3660280
3081.760, 1.015472
3082.540, 2.199875
3083.310, 1.581207
3084.080, 5.940460
3084.860, 3.077667
3085.630, 6.285767
3086.410, 1.590820
3087.180, 0.2267910
3087.950, 0.3900760
3088.730, 5.174576
3089.500, 1.937180
3090.280, 4.105652
3091.050, 1.387131
3091.820, 3.077988
3092.600, 3.791397
3093.370, 3.721710
3094.150, 0.5841220
3094.920, 0.1548460
3095.690, 2.520142
3096.470, 4.472992
3097.240, 3.788849
3098.020, 3.462616
3098.790, 0.5426640
3099.560, 0.6799470
3100.340, 4.392151
3101.110, 1.415497
3101.890, 3.471802
3102.660, 0.8124080
3103.430, 2.278061
3104.210, 0.7193150
3104.980, 1.446472
3105.760, 3.927567
3106.530, 2.237030
3107.300, 6.315445
3108.080, 7.911835
3108.850, 4.629181
3109.630, 4.173737
3110.400, 4.447937
3111.170, 0.6483920
3111.950, 0.2319490
3112.720, 2.353271
3113.500, 2.295532
3114.270, 2.293762
3115.040, 1.561966
3115.820, 1.713989
3116.590, 1.001114
3117.370, 1.070175
3118.140, 2.129364
3118.910, 2.465546
3119.690, 4.821686
3120.460, 4.979797
3121.240, 2.536865
3122.010, 2.872879
3122.780, 1.078903
3123.560, 6.417023
3124.330, 2.301956
3125.110, 2.016861
3125.880, 3.606750
3126.650, 5.491608
3127.430, 4.682449
3128.200, 4.988251
3128.980, 3.037048
3129.750, 3.732788
3130.520, 3.391541
3131.300, 2.738251
3132.070, 0.3619540
3132.850, 0.9246220
3133.620, 2.270248
3134.390, 4.280869
3135.170, 4.912552
3135.940, 3.448914
3136.720, 5.624466
3137.490, 1.7960001E-02
3138.260, 1.445450
3139.040, 0.5098420
3139.810, 3.135223
3140.590, 5.007584
3141.360, 4.828064
3142.130, 3.112411
3142.910, 3.469742
3143.680, 1.674057
3144.460, 2.450500
3145.230, 5.798798
3146.000, 4.857101
3146.780, 4.479279
3147.550, 3.828552
3148.330, 3.820831
3149.100, 1.032089
3149.870, 3.688370
3150.650, 1.260681
3151.420, 0.2170100
3152.200, 4.537048
3152.970, 5.774124
3153.740, 4.621201
3154.520, 2.495255
3155.290, 2.660339
3156.060, 3.742432
3156.840, 6.252502
3157.610, 2.596619
3158.390, 0.3822780
3159.160, 3.546539
3159.930, 3.478378
3160.710, 5.918396
3161.480, 2.713486
3162.260, 4.699341
3163.030, 4.691208
3163.800, 2.355087
3164.580, 2.055710
3165.350, 3.453293
3166.130, 0.4742580
3166.900, 0.8272090
3167.670, 1.458237
3168.450, 1.450287
3169.220, 1.442368
3170.000, 4.131668
3170.770, 2.413818
3171.540, 4.021988
3172.320, 4.663208
3173.090, 1.595459
3173.870, 2.467270
3174.640, 2.350586
3175.410, 3.989944
3176.190, 5.145370
3176.960, 4.307846
3177.740, 0.7793270
3178.510, 4.927902
3179.280, 5.767517
3180.060, 5.344147
3180.830, 6.206436
3181.610, 4.284210
3182.380, 3.646027
3183.150, 2.269913
3183.930, 0.8487850
3184.700, 3.941864
3185.480, 4.500977
3186.250, 4.702454
3187.020, 0.2720490
3187.800, 1.131668
3188.570, 2.243179
3189.350, 5.360992
3190.120, 2.959869
3190.890, 0.9908290
3191.670, 2.234573
3192.440, 1.647690
3193.220, 7.013641
3193.990, 5.804047
3194.760, 5.683517
3195.540, 0.9171600
3196.310, 3.917038
3197.090, 3.678757
3197.860, 2.225815
3198.630, 1.303909
3199.410, 2.984100
3200.180, 5.100357
3200.960, 0.8448790
3201.730, 2.949829
3202.500, 2.888474
3203.280, 2.573318
3204.050, 3.174103
3204.830, 3.944946
3205.600, 3.153961
3206.370, 3.150040
3207.150, 3.979187
3207.920, 0.6135710
3208.700, 5.017578
3209.470, 3.644623
3210.240, 1.390045
3211.020, 4.545303
3211.790, 5.719681
3212.570, 1.463135
3213.340, 1.540710
3214.110, 5.875336
3214.890, 4.278091
3215.660, 1.901932
3216.440, 2.043091
3217.210, 4.025345
3217.980, 4.781677
3218.760, 3.078156
3219.530, 0.3797450
3220.310, 2.015427
3221.080, 3.826218
3221.850, 1.744156
3222.630, 4.009186
3223.400, 3.287354
3224.180, 1.909637
3224.950, 4.995056
3225.720, 2.489563
3226.500, 1.089218
3227.270, 1.692978
3228.050, 0.9969020
3228.820, 1.726990
3229.590, 4.835205
3230.370, 5.498001
3231.140, 2.229477
3231.920, 2.158051
3232.690, 2.978790
3233.460, 0.8843540
3234.240, 5.742188
3235.010, 3.173889
3235.790, 0.3099210
3236.560, 2.1911999E-02
3237.330, 4.077332
3238.110, 4.344696
3238.880, 2.445206
3239.660, 1.979950
3240.430, 4.885818
3241.200, 4.794830
3241.980, 3.175003
3242.750, 2.615051
3243.530, 5.514526
3244.300, 5.677979
3245.070, 1.805740
3245.850, 3.477661
3246.620, 2.976746
3247.400, 2.042969
3248.170, 2.826370
3248.940, 2.733917
3249.720, 2.795609
3250.490, 2.806732
3251.270, 3.885971
3252.040, 1.705154
3252.810, 9.5370002E-03
3253.590, 0.3299870
3254.360, 3.661484
3255.140, 4.977158
3255.910, 5.347000
3256.680, 4.216980
3257.460, 2.989899
3258.230, 1.098022
3259.010, 4.000366
3259.780, 1.601837
3260.550, 1.122513
3261.330, 1.088364
3262.100, 2.023422
3262.880, 2.405670
3263.650, 1.232147
3264.420, 2.521790
3265.200, 3.844635
3265.970, 0.8866420
3266.750, 1.055054
3267.520, 1.252640
3268.290, 2.079453
3269.070, 6.546402
3269.840, 3.282578
3270.610, 4.000931
3271.390, 5.971481
3272.160, 1.528748
3272.940, 1.184586
3273.710, 0.2223210
3274.480, 1.147263
3275.260, 1.156647
3276.030, 0.3601680
3276.810, 2.562210
3277.580, 0.7807770
3278.350, 0.7041630
3279.130, 2.730469
3279.900, 0.4126130
3280.680, 5.319839
3281.450, 3.977249
3282.220, 5.064865
3283.000, 1.627686
3283.770, 1.818726
3284.550, 5.894211
3285.320, 0.3521270
3286.090, 1.597046
3286.870, 2.227188
3287.640, 0.6434780
3288.420, 2.149841
3289.190, 4.582352
3289.960, 1.105133
3290.740, 1.125107
3291.510, 1.215317
3292.290, 4.299744
3293.060, 3.710388
3293.830, 3.859268
3294.610, 1.070358
3295.380, 1.434311
3296.160, 4.182632
3296.930, 1.931824
3297.700, 1.309280
3298.480, 5.291946
3299.250, 2.335831
3300.030, 0.1129760
3300.800, 4.834427
3301.570, 4.610565
3302.350, 1.044083
3303.120, 1.548096
3303.900, 3.408524
3304.670, 2.876205
3305.440, 4.598129
3306.220, 3.955276
3306.990, 2.064713
3307.770, 1.650391
3308.540, 0.8432920
3309.310, 3.834473
3310.090, 3.273911
3310.860, 1.673569
3311.640, 5.738525
3312.410, 2.518707
3313.180, 2.263168
3313.960, 4.973282
3314.730, 2.934250
3315.510, 2.845642
3316.280, 2.419128
3317.050, 4.638870
3317.830, 4.976898
3318.600, 5.757156
3319.380, 4.950699
3320.150, 5.628494
3320.920, 6.893570
3321.700, 6.016891
3322.470, 5.653503
3323.250, 5.690399
3324.020, 0.8466340
3324.790, 5.109100
3325.570, 4.409821
3326.340, 3.106705
3327.120, 3.981964
3327.890, 5.201248
3328.660, 4.201065
3329.440, 4.591034
3330.210, 2.938400
3330.990, 4.058014
3331.760, 1.974075
3332.530, 4.492264
3333.310, 5.376724
3334.080, 4.945450
3334.860, 0.3185730
3335.630, 4.697617
3336.400, 1.637070
3337.180, 3.454941
3337.950, 3.151077
3338.730, 6.228470
3339.500, 4.386154
3340.270, 5.627121
3341.050, 5.355362
3341.820, 4.685898
3342.600, 8.7311000E-02
3343.370, 4.645752
3344.140, 4.580246
3344.920, 7.153000
3345.690, 5.032867
3346.470, 6.633972
3347.240, 1.963593
3348.010, 3.809494
3348.790, 2.896683
3349.560, 4.098145
3350.340, 4.753906
3351.110, 2.041946
3351.880, 1.256256
3352.660, 2.179855
3353.430, 3.142761
3354.210, 1.438919
3354.980, 0.2113950
3355.750, 1.246307
3356.530, 1.963501
3357.300, 3.316986
3358.080, 6.757751
3358.850, 4.964798
3359.620, 1.063156
3360.400, 2.933777
3361.170, 1.877686
3361.950, 5.535889
3362.720, 4.027374
3363.490, 2.897171
3364.270, 2.748276
3365.040, 4.294800
3365.820, 3.893478
3366.590, 4.343475
3367.360, 1.2820000E-03
3368.140, 0.6637420
3368.910, 1.341080
3369.690, 0.1220400
3370.460, 2.062729
3371.230, 6.195175
3372.010, 1.972519
3372.780, 3.677261
3373.560, 3.979355
3374.330, 1.833755
3375.100, 4.603470
3375.880, 3.545441
3376.650, 6.015747
3377.430, 3.826309
3378.200, 4.675644
3378.970, 4.292252
3379.750, 4.950150
3380.520, 1.351120
3381.300, 2.016907
3382.070, 2.441055
3382.840, 1.227478
3383.620, 4.298203
3384.390, 5.953232
3385.170, 1.053558
3385.940, 4.262161
3386.710, 3.186066
3387.490, 2.299286
3388.260, 1.745682
3389.040, 2.529495
3389.810, 4.484589
3390.580, 2.916016
3391.360, 3.060745
3392.130, 4.003769
3392.910, 2.631165
3393.680, 1.363571
3394.450, 0.5245670
3395.230, 3.144592
3396.000, 2.532608
3396.770, 4.109924
3397.550, 1.302414
3398.320, 0.4201810
3399.100, 0.1472470
3399.870, 2.452667
3400.640, 1.069595
3401.420, 3.664948
3402.190, 2.183594
3402.970, 2.516541
3403.740, 1.097794
3404.510, 3.677338
3405.290, 3.062164
3406.060, 0.2467040
3406.840, 3.091675
3407.610, 0.1066740
3408.380, 4.001266
3409.160, 1.378479
3409.930, 0.7869870
3410.710, 0.6587520
3411.480, 2.246826
3412.250, 1.380173
3413.030, 2.680801
3413.800, 1.708694
3414.580, 1.390884
3415.350, 1.063339
3416.120, 2.398071
3416.900, 0.7570800
3417.670, 4.535370
3418.450, 2.233902
3419.220, 4.204971
3419.990, 1.443710
3420.770, 2.567474
3421.540, 1.408936
3422.320, 0.3286900
3423.090, 2.633728
3423.860, 0.1769870
3424.640, 3.905563
3425.410, 3.464355
3426.190, 3.240417
3426.960, 1.739746
3427.730, 2.613617
3428.510, 2.529449
3429.280, 2.599533
3430.060, 3.808899
3430.830, 3.874542
3431.600, 1.206390
3432.380, 3.101547
3433.150, 3.243896
3433.930, 1.358551
3434.700, 2.425430
3435.470, 1.271317
3436.250, 1.338715
3437.020, 2.170334
3437.800, 3.026215
3438.570, 6.941360
3439.340, 1.774826
3440.120, 2.947540
3440.890, 1.748520
3441.670, 1.817734
3442.440, 0.9591830
3443.210, 2.156281
3443.990, 6.925674
3444.760, 3.412445
3445.540, 10.98943
3446.310, 7.373657
3447.080, 0.6503600
3447.860, 3.346848
3448.630, 1.465988
3449.410, 3.642365
3450.180, 3.000977
3450.950, 2.198807
3451.730, 1.667847
3452.500, 3.834152
3453.280, 2.968674
3454.050, 4.515411
3454.820, 3.327347
3455.600, 4.736176
3456.370, 1.780563
3457.150, 3.142242
3457.920, 2.471451
3458.690, 3.936890
3459.470, 1.869492
3460.240, 2.341080
3461.020, 3.640259
3461.790, 5.626572
3462.560, 3.967087
3463.340, 3.637512
3464.110, 2.026001
3464.890, 4.367432
3465.660, 1.492783
3466.430, 2.245102
3467.210, 3.351608
3467.980, 4.406311
3468.760, 4.736237
3469.530, 1.873337
3470.300, 1.041626
3471.080, 3.357147
3471.850, 3.484848
3472.630, 2.055725
3473.400, 3.830521
3474.170, 9.442276
3474.950, 15.86289
3475.720, 3.361755
3476.500, 2.857742
3477.270, 2.000946
3478.040, 2.549271
3478.820, 0.6307830
3479.590, 2.077423
3480.370, 4.794220
3481.140, 3.997467
3481.910, 0.1098480
3482.690, 1.044830
3483.460, 2.512497
3484.240, 1.289307
3485.010, 2.610321
3485.780, 2.032089
3486.560, 3.672104
3487.330, 2.803421
3488.110, 3.619141
3488.880, 3.021896
3489.650, 0.7195130
3490.430, 4.848907
3491.200, 1.889984
3491.980, 3.945190
3492.750, 2.798904
3493.520, 3.281601
3494.300, 4.404144
3495.070, 3.991791
3495.850, 0.2408750
3496.620, 3.169662
3497.390, 3.857529
3498.170, 4.339432
3498.940, 3.421066
3499.720, 3.506165
3500.490, 1.477173
3501.260, 3.615417
3502.040, 3.247711
3502.810, 2.913040
3503.590, 2.311462
3504.360, 5.929916
3505.130, 4.738449
3505.910, 4.188049
3506.680, 1.514069
3507.460, 4.962769
3508.230, 2.969513
3509.000, 1.777298
3509.780, 3.617111
3510.550, 3.702972
3511.320, 3.789124
3512.100, 2.131317
3512.870, 5.763824
3513.650, 5.867111
3514.420, 4.951370
3515.190, 3.182693
3515.970, 4.442047
3516.740, 2.900269
3517.520, 7.611664
3518.290, 4.051086
3519.060, 2.598495
3519.840, 5.690918
3520.610, 1.923416
3521.390, 5.109924
3522.160, 3.836533
3522.930, 4.472137
3523.710, 4.653748
3524.480, 0.9673770
3525.260, 4.282974
3526.030, 5.383621
3526.800, 3.701248
3527.580, 3.011871
3528.350, 4.840500
3529.130, 1.234131
3529.900, 5.709763
3530.670, 5.212769
3531.450, 0.3487550
3532.220, 4.077744
3533.000, 4.168411
3533.770, 2.656357
3534.540, 2.429245
3535.320, 3.522537
3536.090, 2.967636
3536.870, 5.587830
3537.640, 3.356567
3538.410, 4.533272
3539.190, 5.432961
3539.960, 0.5564420
3540.740, 2.228783
3541.510, 1.638023
3542.280, 1.402153
3543.060, 5.259201
3543.830, 3.743202
3544.610, 4.850868
3545.380, 2.754738
3546.150, 3.257523
3546.930, 3.926247
3547.700, 1.5884001E-02
3548.480, 2.261536
3549.250, 5.205688
3550.020, 2.672035
3550.800, 5.376312
3551.570, 4.087479
3552.350, 2.546562
3553.120, 0.5875930
3553.890, 1.398628
3554.670, 4.172562
3555.440, 2.045059
3556.220, 0.5898440
3556.990, 2.119316
3557.760, 3.6201000E-02
3558.540, 2.381180
3559.310, 0.8918300
3560.090, 1.314926
3560.860, 2.640808
3561.630, 2.450317
3562.410, 0.6674120
3563.180, 2.526382
3563.960, 2.992752
3564.730, 1.217857
3565.500, 0.8349460
3566.280, 0.2653960
3567.050, 0.7048720
3567.830, 1.449646
3568.600, 2.484505
3569.370, 2.115509
3570.150, 3.149078
3570.920, 2.779411
3571.700, 1.860680
3572.470, 2.831787
3573.240, 3.278923
3574.020, 1.060730
3574.790, 0.5283740
3575.570, 0.6218110
3576.340, 2.234299
3577.110, 0.1826020
3577.890, 1.585403
3578.660, 0.7205280
3579.440, 2.217476
3580.210, 1.159691
3580.980, 2.328117
3581.760, 2.832352
3582.530, 0.9033740
3583.310, 1.689407
3584.080, 0.2690050
3584.850, 0.2999500
3585.630, 8.4840003E-03
3586.400, 2.249611
3587.180, 2.920998
3587.950, 0.5231170
3588.720, 2.165596
3589.500, 1.848892
3590.270, 4.135994
3591.050, 1.321075
3591.820, 1.890114
3592.590, 1.592216
3593.370, 3.039566
3594.140, 2.185722
3594.920, 2.412857
3595.690, 2.717247
3596.460, 1.482574
3597.240, 2.248848
3598.010, 2.399231
3598.790, 1.246414
3599.560, 3.468369
3600.330, 2.074127
3601.110, 2.758682
3601.880, 3.821022
3602.660, 1.831161
3603.430, 4.644524
3604.200, 2.305206
3604.980, 4.689110
3605.750, 4.338585
3606.530, 6.166862
3607.300, 2.716957
3608.070, 4.441299
3608.850, 5.306717
3609.620, 6.579193
3610.400, 6.228432
3611.170, 7.901459
3611.940, 4.949249
3612.720, 8.846817
3613.490, 8.246147
3614.270, 7.019615
3615.040, 7.888504
3615.810, 5.132164
3616.590, 4.278564
3617.360, 4.030273
3618.140, 2.234550
3618.910, 3.997383
3619.680, 3.284981
3620.460, 3.025383
3621.230, 3.599129
3622.010, 5.410027
3622.780, 2.494339
3623.550, 2.401741
3624.330, 2.798271
3625.100, 1.406189
3625.880, 2.785835
3626.650, 2.056221
3627.420, 0.7996220
3628.200, 0.5864720
3628.970, 0.3421630
3629.740, 3.382385
3630.520, 4.061340
3631.290, 0.1805500
3632.070, 2.795898
3632.840, 2.313080
3633.610, 1.852570
3634.390, 2.705635
3635.160, 3.836617
3635.940, 3.965347
3636.710, 1.057915
3637.480, 2.436073
3638.260, 2.993973
3639.030, 2.474625
3639.810, 4.180038
3640.580, 1.590279
3641.350, 0.5431440
3642.130, 2.842606
3642.900, 2.327805
3643.680, 4.382751
3644.450, 2.835449
3645.220, 2.670128
3646.000, 4.412575
3646.770, 2.355515
3647.550, 1.575211
3648.320, 2.652519
3649.090, 7.4271999E-02
3649.870, 2.796844
3650.640, 1.169556
3651.420, 1.868530
3652.190, 1.268364
3652.960, 4.879875
3653.740, 1.413147
3654.510, 1.331123
3655.290, 1.161797
3656.060, 3.025291
3656.830, 2.059547
3657.610, 1.383545
3658.380, 0.5156170
3659.160, 1.886620
3659.930, 0.4806670
3660.700, 4.869301
3661.480, 1.669899
3662.250, 3.228027
3663.030, 2.004898
3663.800, 4.842537
3664.570, 5.431915
3665.350, 2.187080
3666.120, 2.418015
3666.900, 5.556694
3667.670, 2.495682
3668.440, 4.889450
3669.220, 4.934410
3669.990, 3.506065
3670.770, 1.883842
3671.540, 2.756866
3672.310, 2.677864
3673.090, 2.412552
3673.860, 1.104111
3674.640, 4.043648
3675.410, 1.211296
3676.180, 8.0863997E-02
3676.960, 2.142601
3677.730, 2.688431
3678.510, 2.168762
3679.280, 1.645515
3680.050, 1.661049
3680.830, 1.825996
3681.600, 3.791130
3682.380, 3.081070
3683.150, 0.3508000
3683.920, 1.423241
3684.700, 1.604469
3685.470, 2.179817
3686.250, 3.733650
3687.020, 1.734001
3687.790, 1.386444
3688.570, 1.160492
3689.340, 1.122505
3690.120, 0.5583040
3690.890, 3.635834
3691.660, 4.205841
3692.440, 3.662987
3693.210, 3.346939
3693.990, 5.393707
3694.760, 3.698296
3695.530, 0.5612950
3696.310, 0.9285050
3697.080, 0.9900050
3697.860, 3.905304
3698.630, 4.667397
3699.400, 1.985611
3700.180, 1.609344
3700.950, 1.056877
3701.730, 2.197670
3702.500, 2.689819
3703.270, 2.167786
3704.050, 2.202560
3704.820, 1.760155
3705.600, 2.094582
3706.370, 2.0927001E-02
3707.140, 2.826935
3707.920, 3.234619
3708.690, 1.201141
3709.470, 1.547462
3710.240, 0.6726070
3711.010, 2.023705
3711.790, 2.966301
3712.560, 1.650879
3713.340, 0.6262820
3714.110, 4.494469
3714.880, 1.213516
3715.660, 3.049515
3716.430, 1.066383
3717.210, 1.783073
3717.980, 2.195869
3718.750, 2.840225
3719.530, 4.785416
3720.300, 3.807014
3721.080, 2.244606
3721.850, 1.960938
3722.620, 3.341515
3723.400, 1.355934
3724.170, 1.049179
3724.950, 1.884293
3725.720, 1.913437
3726.490, 0.6963650
3727.270, 1.760201
3728.040, 1.956894
3728.820, 1.091438
3729.590, 1.712128
3730.360, 3.054398
3731.140, 2.103539
3731.910, 1.402550
3732.690, 0.5004200
3733.460, 4.184036
3734.230, 1.800941
3735.010, 4.219444
3735.780, 3.230812
3736.560, 4.005066
3737.330, 7.8201003E-02
3738.100, 0.4891430
3738.880, 2.292946
3739.650, 2.793732
3740.430, 0.7526320
3741.200, 3.421066
3741.970, 2.421021
3742.750, 1.718430
3743.520, 3.270645
3744.290, 1.488388
3745.070, 2.826454
3745.840, 1.933517
3746.620, 3.922722
3747.390, 1.695137
3748.170, 5.271332
3748.940, 5.771011
3749.710, 7.544724
3750.490, 2.927132
3751.260, 2.205833
3752.030, 3.506157
3752.810, 1.630959
3753.580, 0.8724290
3754.360, 2.382545
3755.130, 1.728844
3755.900, 0.9772570
3756.680, 2.275490
3757.450, 3.201645
3758.230, 0.9355390
3759.000, 1.172539
3759.770, 2.461472
3760.550, 0.7876660
3761.320, 2.615723
3762.100, 0.9330290
3762.870, 1.631340
3763.640, 1.8990001E-02
3764.420, 0.9039760
3765.190, 2.296883
3765.970, 1.792145
3766.740, 1.076447
3767.510, 2.208443
3768.290, 2.651138
3769.060, 1.228996
3769.840, 1.673134
3770.610, 0.5155940
3771.380, 3.770561
3772.160, 1.057213
3772.930, 2.163330
3773.710, 1.953812
3774.480, 3.394249
3775.250, 3.263634
3776.030, 1.466782
3776.800, 1.182755
3777.580, 0.5804440
3778.350, 0.8686450
3779.120, 0.4782100
3779.900, 1.572609
3780.670, 0.5000690
3781.450, 1.522957
3782.220, 1.545807
3782.990, 0.7682950
3783.770, 0.9317470
3784.540, 2.614182
3785.320, 2.639572
3786.090, 3.368919
3786.860, 2.019249
3787.640, 1.675262
3788.410, 0.2650910
3789.190, 3.718361
3789.960, 1.732162
3790.730, 0.6493530
3791.510, 0.2174840
3792.280, 0.8075870
3793.060, 1.520157
3793.830, 0.1455840
3794.600, 1.214386
3795.380, 2.080338
3796.150, 2.726273
3796.930, 1.954201
3797.700, 2.942108
3798.470, 0.3760150
3799.250, 0.8385540
3800.020, 2.032433
3800.800, 1.572296
3801.570, 1.080185
3802.340, 0.8565370
3803.120, 0.5059280
3803.890, 0.1757430
3804.670, 1.778381
3805.440, 3.530983
3806.210, 2.056999
3806.990, 0.6976550
3807.760, 4.817627
3808.540, 0.8832630
3809.310, 1.612541
3810.080, 0.4061890
3810.860, 2.268028
3811.630, 1.440865
3812.410, 2.605713
3813.180, 0.9669650
3813.950, 1.358307
3814.730, 1.186775
3815.500, 2.419250
3816.280, 0.9553450
3817.050, 1.795624
3817.820, 3.333382
3818.600, 0.5201490
3819.370, 1.266083
3820.150, 2.346962
3820.920, 1.094772
3821.690, 2.508537
3822.470, 2.202454
3823.240, 3.003395
3824.020, 1.697357
3824.790, 1.723335
3825.560, 2.585571
3826.340, 1.540596
3827.110, 1.420731
3827.890, 0.8518980
3828.660, 2.851303
3829.430, 2.079506
3830.210, 1.087509
3830.980, 1.335495
3831.760, 3.2249000E-02
3832.530, 0.2300190
3833.300, 0.5274960
3834.080, 3.022896
3834.850, 1.942467
3835.630, 2.025063
3836.400, 0.4151690
3837.170, 0.6082920
3837.950, 2.022461
3838.720, 1.184631
3839.500, 2.139839
3840.270, 0.7609330
3841.040, 0.7090910
3841.820, 2.293137
3842.590, 1.805237
3843.370, 3.176399
3844.140, 1.374687
3844.910, 3.533440
3845.690, 1.429993
3846.460, 1.457245
3847.240, 3.300774
3848.010, 2.531731
3848.780, 1.143341
3849.560, 0.1960070
3850.330, 1.105675
3851.110, 1.552406
3851.880, 1.982178
3852.650, 1.271004
3853.430, 1.677284
3854.200, 2.740189
3854.980, 1.894157
3855.750, 1.761177
3856.520, 1.784637
3857.300, 0.2027510
3858.070, 3.374916
3858.840, 1.057137
3859.620, 1.897423
3860.390, 1.980011
3861.170, 1.705368
3861.940, 1.153900
3862.720, 2.065483
3863.490, 2.076653
3864.260, 3.657333
3865.040, 2.425522
3865.810, 2.680298
3866.580, 2.299141
3867.360, 3.544022
3868.130, 2.919952
3868.910, 3.943993
3869.680, 2.415092
3870.450, 3.443924
3871.230, 3.473137
3872.000, 0.9026790
3872.780, 2.238998
3873.550, 1.510582
3874.320, 0.7170260
3875.100, 1.071548
3875.870, 2.331169
3876.650, 2.628853
3877.420, 2.658592
3878.190, 1.688393
3878.970, 1.718269
3879.740, 0.1928020
3880.520, 1.162163
3881.290, 2.605377
3882.060, 0.4707410
3882.840, 2.868179
3883.610, 2.898682
3884.390, 2.011955
3885.160, 2.694359
3885.930, 1.131088
3886.710, 1.810440
3887.480, 3.041351
3888.260, 3.072327
3889.030, 2.155388
3889.800, 3.037514
3890.580, 0.3825380
3891.350, 2.397392
3892.130, 1.991692
3892.900, 1.259064
3893.670, 1.290527
3894.450, 3.071091
3895.220, 3.767738
3896.000, 3.077324
3896.770, 2.394730
3897.540, 2.426071
3898.320, 3.431358
3899.090, 0.6694950
3899.870, 1.701683
3900.640, 2.548332
3901.410, 0.6050340
3902.190, 0.5287860
3902.960, 2.197731
3903.740, 2.858574
3904.510, 1.091476
3905.280, 1.000412
3906.060, 1.000397
3906.830, 0.5944140
3907.610, 0.8654710
3908.380, 1.835548
3909.150, 1.138626
3909.930, 1.958733
3910.700, 2.735840
3911.480, 1.192986
3912.250, 0.2561490
3913.020, 2.108322
3913.800, 3.568054
3914.570, 3.275681
3915.350, 1.110558
3916.120, 3.953804
3916.890, 3.923111
3917.670, 3.465492
3918.440, 0.3938900
3919.220, 2.990295
3919.990, 3.137543
3920.760, 2.7977001E-02
3921.540, 2.917404
3922.310, 0.6398470
3923.090, 2.101311
3923.860, 1.462379
3924.630, 0.4872590
3925.410, 2.500092
3926.180, 2.632019
3926.960, 1.137596
3927.730, 2.691116
3928.500, 3.349579
3929.280, 2.810333
3930.050, 2.288635
3930.830, 0.8021930
3931.600, 4.194313
3932.370, 1.657333
3933.150, 1.091194
3933.920, 3.231049
3934.700, 3.606018
3935.470, 0.9580760
3936.240, 3.931252
3937.020, 0.2763520
3937.790, 0.3472370
3938.570, 0.9634930
3939.340, 2.395081
3940.110, 0.3379900
3940.890, 1.588097
3941.660, 3.184311
3942.440, 2.264648
3943.210, 2.299576
3943.980, 2.063622
3944.760, 1.759949
3945.530, 2.159332
3946.310, 2.812813
3947.080, 1.218391
3947.850, 0.6470640
3948.630, 1.574959
3949.400, 4.124252
3950.180, 0.9257810
3950.950, 2.329437
3951.720, 2.119186
3952.500, 0.8332670
3953.270, 0.7496410
3954.050, 2.671646
3954.820, 2.381798
3955.590, 0.1279140
3956.370, 2.444534
3957.140, 1.652893
3957.920, 1.652779
3958.690, 3.004555
3959.460, 1.806442
3960.240, 3.127419
3961.010, 1.246819
3961.790, 0.9993290
3962.560, 3.138992
3963.330, 2.177811
3964.110, 2.344521
3964.880, 2.049118
3965.660, 2.520882
3966.430, 2.379784
3967.200, 3.139832
3967.980, 0.8010410
3968.750, 1.248283
3969.530, 0.9778140
3970.300, 3.418388
3971.070, 1.588120
3971.850, 1.509048
3972.620, 2.688141
3973.400, 2.391220
3974.170, 2.553688
3974.940, 2.320412
3975.720, 1.541168
3976.490, 4.281189
3977.270, 0.3195270
3978.040, 2.087242
3978.810, 3.491379
3979.590, 2.078362
3980.360, 1.090584
3981.140, 1.132172
3981.910, 3.174698
3982.680, 2.379219
3983.460, 1.708755
3984.230, 1.687515
3985.000, 3.962517
3985.780, 2.975792
3986.550, 1.390366
3987.330, 1.982239
3988.100, 3.492409
3988.870, 3.986443
3989.650, 6.134338
3990.420, 3.825462
3991.200, 1.641838
3991.970, 2.527618
3992.740, 1.712219
3993.520, 2.589600
3994.290, 2.405708
3995.070, 0.4854510
3995.840, 1.632080
3996.610, 2.507256
3997.390, 2.359039
3998.160, 4.487381
3998.940, 3.088188
3999.710, 2.491508
4000.480, 3.769157
4001.260, 3.471329
4002.030, 2.953995
4002.810, 0.8525920
4003.580, 2.495979
4004.350, 3.234680
4005.130, 3.324944
4005.900, 0.4145360
4006.680, 6.0203999E-02
4007.450, 0.5900340
4008.220, 0.9926380
4009.000, 3.423897
4009.770, 1.903412
4010.550, 1.674492
4011.320, 1.775337
4012.090, 3.2065999E-02
4012.870, 2.674576
4013.640, 0.6995850
4014.420, 3.014473
4015.190, 3.535103
4015.960, 2.770027
4016.740, 2.025810
4017.510, 0.1434860
4018.290, 0.5982130
4019.060, 1.710960
4019.830, 0.8901290
4020.610, 1.747543
4021.380, 3.268799
4022.160, 1.702576
4022.930, 2.016785
4023.700, 0.5373610
4024.480, 0.0000000E+00
##END=



